%OpenBCI Raw EEG Data
%Number of channels = 4
%Sample Rate = 200 Hz
%Board = OpenBCI_GUI$BoardGanglionBLE
Sample Index, EXG Channel 0, EXG Channel 1, EXG Channel 2, EXG Channel 3, Accel Channel 0, Accel Channel 1, Accel Channel 2, Other, Other, Other, Other, Other, Timestamp, Other, Timestamp (Formatted)
0.0, -297.32391642732546, -235.1499496139586, -241.91729858377948, -228.98659448698163, 0.0, 0.0, 0.0, 0.0, 0.0, 0.0, 0.0, 0.0, 1.6518363836470115E9, 0.0, 2022-05-06 12:26:23.647
1.0, -260.56069986289367, -132.6205923287198, -157.0963675887324, -189.65780655294657, 0.0, 0.11200000531971455, 0.0, 0.0, 0.0, 0.0, 0.0, 0.0, 1.65183638364703E9, 0.0, 2022-05-06 12:26:23.647
1.0, -204.82497082324699, -57.744055315852165, -107.2921198788099, -146.39464386552572, 0.0, 0.11200000531971455, 0.0, 0.0, 0.0, 0.0, 0.0, 0.0, 1.65183638364703E9, 0.0, 2022-05-06 12:26:23.647
2.0, -238.66358562232926, -163.81135795917362, -181.27482080226764, -172.36076925788075, 0.1600000075995922, 0.11200000531971455, 0.0, 0.0, 0.0, 0.0, 0.0, 0.0, 1.6518363836599877E9, 0.0, 2022-05-06 12:26:23.659
2.0, -293.13148857699707, -223.93398964684457, -230.9032932142727, -202.69509779848158, 0.1600000075995922, 0.11200000531971455, 0.0, 0.0, 0.0, 0.0, 0.0, 0.0, 1.6518363836599877E9, 0.0, 2022-05-06 12:26:23.659
3.0, -257.3630854007788, -117.32066160999238, -154.63925331784412, -187.19321248214692, 0.1600000075995922, 0.11200000531971455, 0.0, 0.0, 0.0, 0.0, 0.0, 0.0, 1.6518363836608665E9, 0.0, 2022-05-06 12:26:23.660
3.0, -200.16131557850167, -52.30250088032335, -103.49612142378464, -141.42431682441384, 0.1600000075995922, 0.11200000531971455, 0.0, 0.0, 0.0, 0.0, 0.0, 0.0, 1.6518363836608665E9, 0.0, 2022-05-06 12:26:23.660
4.0, -246.19948403304443, -174.81414362881333, -196.34287772374228, -190.48806434310973, 0.1600000075995922, 0.11200000531971455, 0.0, 0.0, 0.0, 0.0, 0.0, 0.0, 1.6518363836748273E9, 0.0, 2022-05-06 12:26:23.674
4.0, -295.32680985098705, -239.43587496317923, -244.77832204988226, -227.7786068012938, 0.1600000075995922, 0.11200000531971455, 0.0, 0.0, 0.0, 0.0, 0.0, 0.0, 1.6518363836748273E9, 0.0, 2022-05-06 12:26:23.674
5.0, -274.82841819385067, -141.82074621971697, -176.90661765402183, -199.45260453689843, 0.1600000075995922, 0.11200000531971455, 0.0, 0.0, 0.0, 0.0, 0.0, 0.0, 1.6518363836888258E9, 0.0, 2022-05-06 12:26:23.688
5.0, -209.1931739714928, -70.45597526524216, -116.82512486586347, -153.13394358567894, 0.1600000075995922, 0.11200000531971455, 0.0, 0.0, 0.0, 0.0, 0.0, 0.0, 1.6518363836888258E9, 0.0, 2022-05-06 12:26:23.688
6.0, -261.521854151506, -173.0489108497277, -182.86801818339154, -167.94768731016666, 0.1600000075995922, 0.11200000531971455, 0.0, 0.0, 0.0, 0.0, 0.0, 0.0, 1.6518363836898243E9, 0.0, 2022-05-06 12:26:23.689
6.0, -280.9730738210492, -221.41329707670957, -227.5299034542404, -190.66383964102715, 0.1600000075995922, 0.11200000531971455, 0.0, 0.0, 0.0, 0.0, 0.0, 0.0, 1.6518363836898243E9, 0.0, 2022-05-06 12:26:23.689
7.0, -255.26500152563676, -127.74002288654447, -160.27154265111312, -197.0927276648581, 0.1600000075995922, 0.11200000531971455, 0.0, 0.0, 0.0, 0.0, 0.0, 0.0, 1.6518363837039676E9, 0.0, 2022-05-06 12:26:23.703
7.0, -196.8477642177604, -51.318907191976905, -97.99472858896479, -132.8786454256624, 0.1600000075995922, 0.11200000531971455, 0.0, 0.0, 0.0, 0.0, 0.0, 0.0, 1.6518363837039676E9, 0.0, 2022-05-06 12:26:23.703
8.0, -235.23035746300593, -158.0743514271453, -180.4370832121931, -166.72847992461175, 0.1600000075995922, 0.11200000531971455, 0.0, 0.0, 0.0, 0.0, 0.0, 0.0, 1.6518363837189193E9, 0.0, 2022-05-06 12:26:23.718
8.0, -279.5855709374882, -226.87355101201683, -230.465724919457, -216.18865683861077, 0.1600000075995922, 0.11200000531971455, 0.0, 0.0, 0.0, 0.0, 0.0, 0.0, 1.6518363837189193E9, 0.0, 2022-05-06 12:26:23.718
9.0, -249.991742588114, -112.56350886635482, -142.3798612630926, -175.5621236199513, 0.1600000075995922, 0.11200000531971455, 0.0, 0.0, 0.0, 0.0, 0.0, 0.0, 1.651836383719777E9, 0.0, 2022-05-06 12:26:23.719
9.0, -212.820876928512, -62.87519805505872, -116.18934187339619, -151.93343569990247, 0.1600000075995922, 0.11200000531971455, 0.0, 0.0, 0.0, 0.0, 0.0, 0.0, 1.651836383719777E9, 0.0, 2022-05-06 12:26:23.719
10.0, -236.7188376453705, -156.30911864805967, -176.67848375672475, -174.6757673304528, 0.1600000075995922, 0.11200000531971455, 1.008000047877431, 0.0, 0.0, 0.0, 0.0, 0.0, 1.651836383733834E9, 0.0, 2022-05-06 12:26:23.733
10.0, -278.2691261530854, -215.78848754335195, -225.47295847861096, -203.68243138678372, 0.1600000075995922, 0.11200000531971455, 1.008000047877431, 0.0, 0.0, 0.0, 0.0, 0.0, 1.651836383733834E9, 0.0, 2022-05-06 12:26:23.733
11.0, -254.03831434017047, -123.16238534078002, -154.3101421217434, -171.95686006266624, 0.1600000075995922, 0.04800000227987766, 1.008000047877431, 0.0, 0.0, 0.0, 0.0, 0.0, 1.6518363837488284E9, 0.0, 2022-05-06 12:26:23.748
11.0, -217.85104236891493, -85.01540579274297, -126.15991515526548, -157.6629624320194, 0.1600000075995922, 0.04800000227987766, 1.008000047877431, 0.0, 0.0, 0.0, 0.0, 0.0, 1.6518363837488284E9, 0.0, 2022-05-06 12:26:23.748
12.0, -240.00620970642194, -161.46270078700036, -186.36108474200591, -184.87821440957487, 0.0800000037997961, 0.04800000227987766, 1.008000047877431, 0.0, 0.0, 0.0, 0.0, 0.0, 1.6518363837500238E9, 0.0, 2022-05-06 12:26:23.750
12.0, -272.6368368198164, -193.5323429070413, -212.9704729267396, -188.9023467618972, 0.0800000037997961, 0.04800000227987766, 1.008000047877431, 0.0, 0.0, 0.0, 0.0, 0.0, 1.6518363837500238E9, 0.0, 2022-05-06 12:26:23.750
13.0, -245.5038626412861, -120.51453617215157, -145.50267772609368, -167.99256610963494, 0.0800000037997961, 0.04800000227987766, 1.008000047877431, 0.0, 0.0, 0.0, 0.0, 0.0, 1.6518363837639754E9, 0.0, 2022-05-06 12:26:23.763
13.0, -225.2710038810037, -94.98971897456795, -132.895474975463, -171.17522097192705, 0.0800000037997961, 0.04800000227987766, 1.008000047877431, 0.0, 0.0, 0.0, 0.0, 0.0, 1.6518363837639754E9, 0.0, 2022-05-06 12:26:23.763
14.0, -239.99499000655487, -174.68698703031987, -189.41284310584888, -184.62764111254364, 0.0800000037997961, 0.04800000227987766, 1.008000047877431, 0.0, 0.0, 0.0, 0.0, 0.0, 1.6518363837788167E9, 0.0, 2022-05-06 12:26:23.778
14.0, -279.1218233429827, -198.32689465023577, -218.44194656191394, -192.11492082383484, 0.0800000037997961, 0.04800000227987766, 1.008000047877431, 0.0, 0.0, 0.0, 0.0, 0.0, 1.6518363837788167E9, 0.0, 2022-05-06 12:26:23.778
15.0, -243.5067560649477, -108.72263161186129, -143.29239685228094, -166.02911863289773, 0.0800000037997961, 0.04800000227987766, 1.008000047877431, 0.0, 0.0, 0.0, 0.0, 0.0, 1.6518363837798398E9, 0.0, 2022-05-06 12:26:23.779
15.0, -222.83632900984958, -88.38131575286388, -122.07220450369641, -151.67912250291556, 0.0800000037997961, 0.04800000227987766, 1.008000047877431, 0.0, 0.0, 0.0, 0.0, 0.0, 1.6518363837798398E9, 0.0, 2022-05-06 12:26:23.779
16.0, -247.63934551598504, -180.29309706389904, -195.4079027348198, -196.273689574562, 0.0800000037997961, 0.04800000227987766, 1.008000047877431, 0.0, 0.0, 0.0, 0.0, 0.0, 1.651836383793879E9, 0.0, 2022-05-06 12:26:23.793
16.0, -263.4778218283318, -188.14688697084785, -202.99615974491462, -190.21131174638867, 0.0800000037997961, 0.04800000227987766, 1.008000047877431, 0.0, 0.0, 0.0, 0.0, 0.0, 1.651836383793879E9, 0.0, 2022-05-06 12:26:23.793
17.0, -237.25738323898986, -114.98696403764188, -149.52681007841602, -169.54088469129056, 0.0800000037997961, 0.04800000227987766, 1.008000047877431, 0.0, 0.0, 0.0, 0.0, 0.0, 1.651836383808838E9, 0.0, 2022-05-06 12:26:23.808
17.0, -235.5033701597713, -100.50233150925487, -140.03494399087504, -173.98014593869448, 0.0800000037997961, 0.04800000227987766, 1.008000047877431, 0.0, 0.0, 0.0, 0.0, 0.0, 1.651836383808838E9, 0.0, 2022-05-06 12:26:23.808
18.0, -263.2160288314335, -175.25545182358474, -194.41682924656197, -184.58276231307536, 0.0800000037997961, 0.04800000227987766, 1.008000047877431, 0.0, 0.0, 0.0, 0.0, 0.0, 1.6518363838099377E9, 0.0, 2022-05-06 12:26:23.809
18.0, -266.2154285958968, -186.48637139052153, -201.53011896228418, -187.71305857598782, 0.0800000037997961, 0.04800000227987766, 1.008000047877431, 0.0, 0.0, 0.0, 0.0, 0.0, 1.6518363838099377E9, 0.0, 2022-05-06 12:26:23.809
19.0, -249.24002269702032, -121.04186206590384, -148.22906479379162, -175.80147721711546, 0.0800000037997961, 0.04800000227987766, 1.008000047877431, 0.0, 0.0, 0.0, 0.0, 0.0, 1.651836383824018E9, 0.0, 2022-05-06 12:26:23.824
19.0, -222.52217741357163, -93.27684479486197, -124.19646767852828, -155.36292395927012, 0.0800000037997961, 0.04800000227987766, 1.008000047877431, 0.0, 0.0, 0.0, 0.0, 0.0, 1.651836383824018E9, 0.0, 2022-05-06 12:26:23.824
20.0, -243.6900111627765, -173.10126944910735, -190.24684079596773, -185.48033830244094, 0.0800000037997961, 0.04800000227987766, 0.5120000243186951, 0.0, 0.0, 0.0, 0.0, 0.0, 1.651836383838827E9, 0.0, 2022-05-06 12:26:23.838
20.0, -275.91672908095643, -203.17754489276558, -222.9747053082101, -204.0938203819096, 0.0800000037997961, 0.04800000227987766, 0.5120000243186951, 0.0, 0.0, 0.0, 0.0, 0.0, 1.651836383838827E9, 0.0, 2022-05-06 12:26:23.838
21.0, -245.167271645274, -119.30280858650804, -152.5710886423476, -179.24592507630587, 0.0800000037997961, 0.0800000037997961, 0.5120000243186951, 0.0, 0.0, 0.0, 0.0, 0.0, 1.651836383839792E9, 0.0, 2022-05-06 12:26:23.839
21.0, -232.3880334966816, -97.73106564208865, -128.86760272318497, -153.91932257637382, 0.0800000037997961, 0.0800000037997961, 0.5120000243186951, 0.0, 0.0, 0.0, 0.0, 0.0, 1.651836383839792E9, 0.0, 2022-05-06 12:26:23.839
22.0, -249.50181569391862, -167.14360881969333, -192.6628161673434, -178.32216978725046, 0.11200000531971455, 0.0800000037997961, 0.5120000243186951, 0.0, 0.0, 0.0, 0.0, 0.0, 1.6518363838538496E9, 0.0, 2022-05-06 12:26:23.853
22.0, -261.16282375575975, -185.02781040780246, -206.54906470282003, -200.73165032174438, 0.11200000531971455, 0.0800000037997961, 0.5120000243186951, 0.0, 0.0, 0.0, 0.0, 0.0, 1.6518363838538496E9, 0.0, 2022-05-06 12:26:23.853
23.0, -234.059768776875, -113.81637535151094, -144.76217753486708, -173.37054224591702, 0.11200000531971455, 0.0800000037997961, 0.5120000243186951, 0.0, 0.0, 0.0, 0.0, 0.0, 1.6518363838688304E9, 0.0, 2022-05-06 12:26:23.868
23.0, -246.3602997311391, -109.32101560477167, -146.48253151448444, -183.47201202623546, 0.11200000531971455, 0.0800000037997961, 0.5120000243186951, 0.0, 0.0, 0.0, 0.0, 0.0, 1.6518363838688304E9, 0.0, 2022-05-06 12:26:23.868
24.0, -260.3961442648433, -179.4890185734257, -200.1500958786346, -191.871827326715, 0.11200000531971455, 0.0800000037997961, 0.5120000243186951, 0.0, 0.0, 0.0, 0.0, 0.0, 1.651836383869918E9, 0.0, 2022-05-06 12:26:23.869
24.0, -275.54273908538744, -196.647679570131, -212.16639443626627, -200.80644832085818, 0.11200000531971455, 0.0800000037997961, 0.5120000243186951, 0.0, 0.0, 0.0, 0.0, 0.0, 1.651836383869918E9, 0.0, 2022-05-06 12:26:23.869
25.0, -247.579507116694, -109.54914950206876, -144.29095014045015, -156.7766061425209, 0.11200000531971455, 0.0800000037997961, 0.5120000243186951, 0.0, 0.0, 0.0, 0.0, 0.0, 1.6518363838838384E9, 0.0, 2022-05-06 12:26:23.883
25.0, -221.02247753133997, -92.10625610873103, -131.31723719416186, -158.76249301899225, 0.11200000531971455, 0.0800000037997961, 0.5120000243186951, 0.0, 0.0, 0.0, 0.0, 0.0, 1.6518363838838384E9, 0.0, 2022-05-06 12:26:23.883
26.0, -244.1313193575479, -171.88580196350813, -188.61624441528693, -176.2278258120641, 0.11200000531971455, 0.0800000037997961, 0.5120000243186951, 0.0, 0.0, 0.0, 0.0, 0.0, 1.651836383898821E9, 0.0, 2022-05-06 12:26:23.898
26.0, -271.556005732622, -197.14508626423776, -219.26472455216572, -204.9839165713638, 0.11200000531971455, 0.0800000037997961, 0.5120000243186951, 0.0, 0.0, 0.0, 0.0, 0.0, 1.651836383898821E9, 0.0, 2022-05-06 12:26:23.898
27.0, -245.08125394629315, -121.98805675469339, -148.03458999609575, -182.6380143361166, 0.11200000531971455, 0.0800000037997961, 0.5120000243186951, 0.0, 0.0, 0.0, 0.0, 0.0, 1.6518363838997874E9, 0.0, 2022-05-06 12:26:23.899
27.0, -250.64996498031542, -113.55084245465696, -141.70667927106842, -167.77565191220492, 0.11200000531971455, 0.0800000037997961, 0.5120000243186951, 0.0, 0.0, 0.0, 0.0, 0.0, 1.6518363838997874E9, 0.0, 2022-05-06 12:26:23.899
28.0, -265.5198072041385, -185.87302779778838, -199.9631008808501, -186.06002279557288, 0.11200000531971455, 0.0800000037997961, 0.5120000243186951, 0.0, 0.0, 0.0, 0.0, 0.0, 1.651836383913906E9, 0.0, 2022-05-06 12:26:23.913
28.0, -274.93313539261, -194.82260839175433, -218.57284306036308, -205.42522476613522, 0.11200000531971455, 0.0800000037997961, 0.5120000243186951, 0.0, 0.0, 0.0, 0.0, 0.0, 1.651836383913906E9, 0.0, 2022-05-06 12:26:23.913
29.0, -254.6254786332138, -121.3934126617387, -150.26357036968693, -174.4551132330671, 0.11200000531971455, 0.0800000037997961, 0.5120000243186951, 0.0, 0.0, 0.0, 0.0, 0.0, 1.651836383928839E9, 0.0, 2022-05-06 12:26:23.928
29.0, -227.197052358184, -99.91142731625587, -137.5703499200754, -175.14325482491404, 0.11200000531971455, 0.0800000037997961, 0.5120000243186951, 0.0, 0.0, 0.0, 0.0, 0.0, 1.651836383928839E9, 0.0, 2022-05-06 12:26:23.928
30.0, -252.5423543578945, -176.62799510732293, -194.259753448423, -183.03070383146405, 0.11200000531971455, 0.0800000037997961, 0.7680000364780426, 0.0, 0.0, 0.0, 0.0, 0.0, 1.651836383929844E9, 0.0, 2022-05-06 12:26:23.929
30.0, -273.9271023045294, -191.76337022799999, -207.73835288872942, -186.347995092161, 0.11200000531971455, 0.0800000037997961, 0.7680000364780426, 0.0, 0.0, 0.0, 0.0, 0.0, 1.651836383929844E9, 0.0, 2022-05-06 12:26:23.929
31.0, -256.93673680583015, -115.77982282824814, -151.1648862590082, -171.0031855739653, 0.11200000531971455, 0.09600000455975533, 0.7680000364780426, 0.0, 0.0, 0.0, 0.0, 0.0, 1.6518363839438355E9, 0.0, 2022-05-06 12:26:23.943
31.0, -233.18089228728786, -105.8653480457142, -146.20951881771907, -182.32386273983866, 0.11200000531971455, 0.09600000455975533, 0.7680000364780426, 0.0, 0.0, 0.0, 0.0, 0.0, 1.6518363839438355E9, 0.0, 2022-05-06 12:26:23.943
32.0, -259.96979566989467, -176.92344720382243, -199.19268148997799, -192.25703702215105, 0.144000006839633, 0.09600000455975533, 0.7680000364780426, 0.0, 0.0, 0.0, 0.0, 0.0, 1.6518363839588172E9, 0.0, 2022-05-06 12:26:23.958
32.0, -281.36202341644093, -205.40278536640108, -222.94852600852028, -206.2442628564313, 0.144000006839633, 0.09600000455975533, 0.7680000364780426, 0.0, 0.0, 0.0, 0.0, 0.0, 1.6518363839588172E9, 0.0, 2022-05-06 12:26:23.958
33.0, -255.59785262169316, -114.54191594291478, -147.26043070526794, -170.92090777494013, 0.144000006839633, 0.09600000455975533, 0.7680000364780426, 0.0, 0.0, 0.0, 0.0, 0.0, 1.6518363839597929E9, 0.0, 2022-05-06 12:26:23.959
33.0, -229.55692923022434, -93.68823378998786, -131.53415139159188, -159.49925331026316, 0.144000006839633, 0.09600000455975533, 0.7680000364780426, 0.0, 0.0, 0.0, 0.0, 0.0, 1.6518363839597929E9, 0.0, 2022-05-06 12:26:23.959
34.0, -245.73947633849457, -172.85443605203182, -197.26663301279768, -186.49011129047722, 0.144000006839633, 0.09600000455975533, 0.7680000364780426, 0.0, 0.0, 0.0, 0.0, 0.0, 1.651836383973943E9, 0.0, 2022-05-06 12:26:23.973
34.0, -283.79669828759506, -189.85228135064244, -208.61722937831655, -185.03529020771384, 0.144000006839633, 0.09600000455975533, 0.7680000364780426, 0.0, 0.0, 0.0, 0.0, 0.0, 1.651836383973943E9, 0.0, 2022-05-06 12:26:23.973
35.0, -247.21673682099208, -105.99998444411904, -135.31145034683868, -141.31211982574314, 0.144000006839633, 0.09600000455975533, 0.7680000364780426, 0.0, 0.0, 0.0, 0.0, 0.0, 1.6518363839888215E9, 0.0, 2022-05-06 12:26:23.988
35.0, -232.0177834010683, -98.73709873016924, -138.5315042086877, -180.46513246186078, 0.144000006839633, 0.09600000455975533, 0.7680000364780426, 0.0, 0.0, 0.0, 0.0, 0.0, 1.6518363839888215E9, 0.0, 2022-05-06 12:26:23.988
36.0, -253.211796449963, -176.08944951370358, -200.77465917123482, -193.58844140637666, 0.144000006839633, 0.09600000455975533, 0.7680000364780426, 0.0, 0.0, 0.0, 0.0, 0.0, 1.651836383989838E9, 0.0, 2022-05-06 12:26:23.989
36.0, -252.4675563587807, -197.48167726024985, -204.0059327329509, -188.09826827142388, 0.144000006839633, 0.09600000455975533, 0.7680000364780426, 0.0, 0.0, 0.0, 0.0, 0.0, 1.651836383989838E9, 0.0, 2022-05-06 12:26:23.989
37.0, -246.4313578302972, -106.89382053352892, -139.92274699220434, -147.56523255165666, 0.144000006839633, 0.09600000455975533, 0.7680000364780426, 0.0, 0.0, 0.0, 0.0, 0.0, 1.6518363840038698E9, 0.0, 2022-05-06 12:26:24.003
37.0, -240.02864910615608, -97.4917120449245, -139.81802979344502, -175.49854532070458, 0.144000006839633, 0.09600000455975533, 0.7680000364780426, 0.0, 0.0, 0.0, 0.0, 0.0, 1.6518363840038698E9, 0.0, 2022-05-06 12:26:24.003
38.0, -271.821538629476, -187.06605588365346, -212.24493233533576, -210.6910039037466, 0.144000006839633, 0.09600000455975533, 0.7680000364780426, 0.0, 0.0, 0.0, 0.0, 0.0, 1.6518363840188184E9, 0.0, 2022-05-06 12:26:24.018
38.0, -275.4417617865838, -196.15401277597994, -217.07314317813143, -199.56106163561344, 0.144000006839633, 0.09600000455975533, 0.7680000364780426, 0.0, 0.0, 0.0, 0.0, 0.0, 1.6518363840188184E9, 0.0, 2022-05-06 12:26:24.018
39.0, -246.67819122737274, -118.23319719918072, -146.20951881771907, -167.28572501800954, 0.144000006839633, 0.09600000455975533, 0.7680000364780426, 0.0, 0.0, 0.0, 0.0, 0.0, 1.6518363840199215E9, 0.0, 2022-05-06 12:26:24.019
39.0, -238.64114622259513, -102.80236998200417, -137.21505942428485, -156.46993434615433, 0.144000006839633, 0.09600000455975533, 0.7680000364780426, 0.0, 0.0, 0.0, 0.0, 0.0, 1.6518363840199215E9, 0.0, 2022-05-06 12:26:24.019
40.0, -266.26778719527647, -177.31613669916987, -199.1552824904211, -191.07148873619735, 0.144000006839633, 0.09600000455975533, 0.8960000425577164, 0.0, 0.0, 0.0, 0.0, 0.0, 1.6518363840338516E9, 0.0, 2022-05-06 12:26:24.033
40.0, -280.83095762273297, -192.37297392077744, -214.44025360932574, -209.90562491305172, 0.144000006839633, 0.09600000455975533, 0.8960000425577164, 0.0, 0.0, 0.0, 0.0, 0.0, 1.6518363840338516E9, 0.0, 2022-05-06 12:26:24.033
41.0, -243.92188496002927, -107.63806062471122, -147.54466310190037, -175.76407821755856, 0.144000006839633, 0.09600000455975533, 0.8960000425577164, 0.0, 0.0, 0.0, 0.0, 0.0, 1.65183638404883E9, 0.0, 2022-05-06 12:26:24.048
41.0, -223.86854139762, -102.66399368364364, -140.46877238573506, -171.09668307285756, 0.144000006839633, 0.09600000455975533, 0.8960000425577164, 0.0, 0.0, 0.0, 0.0, 0.0, 1.65183638404883E9, 0.0, 2022-05-06 12:26:24.048
42.0, -259.42751017631963, -170.2327661830932, -193.8147053536959, -186.1236010948196, 0.144000006839633, 0.09600000455975533, 0.8960000425577164, 0.0, 0.0, 0.0, 0.0, 0.0, 1.6518363840497658E9, 0.0, 2022-05-06 12:26:24.049
42.0, -276.71706767147407, -204.0265021827072, -220.27823744015768, -206.19190425705165, 0.144000006839633, 0.09600000455975533, 0.8960000425577164, 0.0, 0.0, 0.0, 0.0, 0.0, 1.6518363840497658E9, 0.0, 2022-05-06 12:26:24.049
43.0, -259.33775257738307, -120.37989977374673, -151.0938281598501, -164.0394918564707, 0.144000006839633, 0.09600000455975533, 0.8960000425577164, 0.0, 0.0, 0.0, 0.0, 0.0, 1.6518363840638585E9, 0.0, 2022-05-06 12:26:24.063
43.0, -237.45559793664142, -100.3789148107171, -134.12590206088498, -159.63762960862368, 0.144000006839633, 0.09600000455975533, 0.8960000425577164, 0.0, 0.0, 0.0, 0.0, 0.0, 1.6518363840638585E9, 0.0, 2022-05-06 12:26:24.063
44.0, -265.34403190622106, -177.17402050085366, -192.39354337053373, -173.17980734817684, 0.144000006839633, 0.09600000455975533, 0.8960000425577164, 0.0, 0.0, 0.0, 0.0, 0.0, 1.6518363840788267E9, 0.0, 2022-05-06 12:26:24.078
44.0, -279.4509345390834, -195.44717168435454, -220.31563643971458, -206.20312395691872, 0.144000006839633, 0.09600000455975533, 0.8960000425577164, 0.0, 0.0, 0.0, 0.0, 0.0, 1.6518363840788267E9, 0.0, 2022-05-06 12:26:24.078
45.0, -246.64079222781584, -111.81178897526115, -151.56505555426702, -182.03215054329485, 0.144000006839633, 0.09600000455975533, 0.8960000425577164, 0.0, 0.0, 0.0, 0.0, 0.0, 1.6518363840798364E9, 0.0, 2022-05-06 12:26:24.079
45.0, -231.88314700266346, -102.78367048222572, -136.95326642738655, -156.80652534216642, 0.144000006839633, 0.09600000455975533, 0.8960000425577164, 0.0, 0.0, 0.0, 0.0, 0.0, 1.6518363840798364E9, 0.0, 2022-05-06 12:26:24.079
46.0, -255.55297382222489, -176.8299497049302, -196.13344332622364, -176.2689647115767, 0.144000006839633, 0.09600000455975533, 0.8960000425577164, 0.0, 0.0, 0.0, 0.0, 0.0, 1.6518363840938416E9, 0.0, 2022-05-06 12:26:24.093
46.0, -252.27308156108484, -177.25255839992315, -189.95138869946823, -168.50867230352014, 0.144000006839633, 0.09600000455975533, 0.8960000425577164, 0.0, 0.0, 0.0, 0.0, 0.0, 1.6518363840938416E9, 0.0, 2022-05-06 12:26:24.093
47.0, -241.6143666873686, -105.22956505324692, -140.92878008028492, -156.6644091438502, 0.144000006839633, 0.09600000455975533, 0.8960000425577164, 0.0, 0.0, 0.0, 0.0, 0.0, 1.6518363841088383E9, 0.0, 2022-05-06 12:26:24.108
47.0, -228.00861064856872, -106.52357043791562, -147.6082414011471, -187.95241217315197, 0.144000006839633, 0.09600000455975533, 0.8960000425577164, 0.0, 0.0, 0.0, 0.0, 0.0, 1.6518363841088383E9, 0.0, 2022-05-06 12:26:24.108
48.0, -264.801746412646, -183.17655992973596, -202.01256605656818, -206.25548255629838, 0.144000006839633, 0.09600000455975533, 0.8960000425577164, 0.0, 0.0, 0.0, 0.0, 0.0, 1.651836384123885E9, 0.0, 2022-05-06 12:26:24.123
48.0, -269.75711385393515, -196.89451296720654, -210.93970725079998, -202.14907240495086, 0.144000006839633, 0.09600000455975533, 0.8960000425577164, 0.0, 0.0, 0.0, 0.0, 0.0, 1.651836384123885E9, 0.0, 2022-05-06 12:26:24.123
49.0, -238.7982220207341, -113.65181975346059, -133.65467466646805, -145.00340108200908, 0.144000006839633, 0.09600000455975533, 0.8960000425577164, 0.0, 0.0, 0.0, 0.0, 0.0, 1.6518363841248055E9, 0.0, 2022-05-06 12:26:24.124
49.0, -239.29562871484086, -89.50328573957086, -130.5281183035113, -148.98265463486314, 0.144000006839633, 0.09600000455975533, 0.8960000425577164, 0.0, 0.0, 0.0, 0.0, 0.0, 1.6518363841248055E9, 0.0, 2022-05-06 12:26:24.124
50.0, -253.5072485464625, -171.91198126319796, -200.47546717477962, -202.8783528963104, 0.144000006839633, 0.09600000455975533, 0.9600000455975533, 0.0, 0.0, 0.0, 0.0, 0.0, 1.6518363841388383E9, 0.0, 2022-05-06 12:26:24.138
50.0, -274.31231199996546, -195.682785381563, -217.1965598766692, -209.41943791881204, 0.144000006839633, 0.09600000455975533, 0.9600000455975533, 0.0, 0.0, 0.0, 0.0, 0.0, 1.6518363841388383E9, 0.0, 2022-05-06 12:26:24.138
51.0, -262.4717887402512, -110.55144269019365, -150.87691396242008, -180.88026135694236, 0.144000006839633, 0.11200000531971455, 0.9600000455975533, 0.0, 0.0, 0.0, 0.0, 0.0, 1.6518363841398363E9, 0.0, 2022-05-06 12:26:24.139
51.0, -243.15894536906853, -105.57737574912608, -140.1994995889254, -171.09294317290187, 0.144000006839633, 0.11200000531971455, 0.9600000455975533, 0.0, 0.0, 0.0, 0.0, 0.0, 1.6518363841398363E9, 0.0, 2022-05-06 12:26:24.139
52.0, -268.7398610659875, -188.3488415684551, -204.89976882236078, -193.73055760469288, 0.1600000075995922, 0.11200000531971455, 0.9600000455975533, 0.0, 0.0, 0.0, 0.0, 0.0, 1.6518363841538308E9, 0.0, 2022-05-06 12:26:24.153
52.0, -282.2670792057179, -197.81452835630625, -219.6387145477347, -202.19021130446345, 0.1600000075995922, 0.11200000531971455, 0.9600000455975533, 0.0, 0.0, 0.0, 0.0, 0.0, 1.6518363841538308E9, 0.0, 2022-05-06 12:26:24.153
53.0, -250.0964597868733, -116.07901482470334, -149.10794128337875, -175.55464382003993, 0.1600000075995922, 0.11200000531971455, 0.9600000455975533, 0.0, 0.0, 0.0, 0.0, 0.0, 1.6518363841688535E9, 0.0, 2022-05-06 12:26:24.168
53.0, -231.29224280966446, -100.4948517093435, -136.72139263013378, -163.0820774678141, 0.1600000075995922, 0.11200000531971455, 0.9600000455975533, 0.0, 0.0, 0.0, 0.0, 0.0, 1.6518363841688535E9, 0.0, 2022-05-06 12:26:24.168
54.0, -259.05352018075064, -176.13806821312755, -199.2263405895792, -193.10599431209266, 0.1600000075995922, 0.11200000531971455, 0.9600000455975533, 0.0, 0.0, 0.0, 0.0, 0.0, 1.651836384169846E9, 0.0, 2022-05-06 12:26:24.169
54.0, -261.56299305101857, -180.68578655924648, -204.93716782191768, -180.25943796429783, 0.1600000075995922, 0.11200000531971455, 0.9600000455975533, 0.0, 0.0, 0.0, 0.0, 0.0, 1.651836384169846E9, 0.0, 2022-05-06 12:26:24.169
55.0, -234.0522889769636, -102.9744053799659, -138.74467850616202, -156.8925430411473, 0.1600000075995922, 0.11200000531971455, 0.9600000455975533, 0.0, 0.0, 0.0, 0.0, 0.0, 1.651836384183856E9, 0.0, 2022-05-06 12:26:24.183
55.0, -240.14832590473816, -101.92723339237273, -138.0079182148911, -166.65368192549795, 0.1600000075995922, 0.11200000531971455, 0.9600000455975533, 0.0, 0.0, 0.0, 0.0, 0.0, 1.651836384183856E9, 0.0, 2022-05-06 12:26:24.183
56.0, -257.879191594664, -177.43581349775195, -193.8895033528097, -184.00307781994343, 0.1600000075995922, 0.11200000531971455, 0.9600000455975533, 0.0, 0.0, 0.0, 0.0, 0.0, 1.6518363841988387E9, 0.0, 2022-05-06 12:26:24.198
56.0, -276.7507267710753, -193.77169650420547, -210.48343945620582, -194.48975729569793, 0.1600000075995922, 0.11200000531971455, 0.9600000455975533, 0.0, 0.0, 0.0, 0.0, 0.0, 1.6518363841988387E9, 0.0, 2022-05-06 12:26:24.198
57.0, -247.8375602136366, -102.73879168275744, -139.43655999796465, -167.98134640976787, 0.1600000075995922, 0.11200000531971455, 0.9600000455975533, 0.0, 0.0, 0.0, 0.0, 0.0, 1.6518363841999233E9, 0.0, 2022-05-06 12:26:24.199
57.0, -237.2835625386797, -104.93037305679172, -135.38624834595248, -159.0729047153145, 0.1600000075995922, 0.11200000531971455, 0.9600000455975533, 0.0, 0.0, 0.0, 0.0, 0.0, 1.6518363841999233E9, 0.0, 2022-05-06 12:26:24.199
58.0, -241.18801809241995, -164.9295880459249, -190.67692929087207, -178.1576141892001, 0.1600000075995922, 0.11200000531971455, 0.9600000455975533, 0.0, 0.0, 0.0, 0.0, 0.0, 1.6518363842298443E9, 0.0, 2022-05-06 12:26:24.229
58.0, -263.5189607278444, -180.26317786425352, -202.19582115439698, -181.66938024759293, 0.1600000075995922, 0.11200000531971455, 0.9600000455975533, 0.0, 0.0, 0.0, 0.0, 0.0, 1.6518363842298443E9, 0.0, 2022-05-06 12:26:24.229
59.0, -264.3716579177417, -123.14742574095726, -158.2744360747747, -181.6768600475043, 0.1600000075995922, 0.11200000531971455, 0.9600000455975533, 0.0, 0.0, 0.0, 0.0, 0.0, 1.6518363842308369E9, 0.0, 2022-05-06 12:26:24.230
59.0, -239.25074991537258, -106.37771433964372, -139.16728720115498, -166.61254302598536, 0.1600000075995922, 0.11200000531971455, 0.9600000455975533, 0.0, 0.0, 0.0, 0.0, 0.0, 1.6518363842308369E9, 0.0, 2022-05-06 12:26:24.230
60.0, -249.3559595956467, -171.5267715677619, -187.72614822583273, -184.39576731529087, 0.1600000075995922, 0.11200000531971455, 0.9920000471174717, 0.0, 0.0, 0.0, 0.0, 0.0, 1.6518363842319791E9, 0.0, 2022-05-06 12:26:24.231
60.0, -273.31375871179625, -184.18633291777223, -203.10835674358532, -189.66528635285795, 0.1600000075995922, 0.11200000531971455, 0.9920000471174717, 0.0, 0.0, 0.0, 0.0, 0.0, 1.6518363842319791E9, 0.0, 2022-05-06 12:26:24.231
61.0, -246.84648672537878, -113.39002675656229, -142.0844091665931, -172.8993148515001, 0.1600000075995922, 0.11200000531971455, 0.9920000471174717, 0.0, 0.0, 0.0, 0.0, 0.0, 1.6518363842438157E9, 0.0, 2022-05-06 12:26:24.243
61.0, -236.33362794993445, -102.02821069117635, -135.6368216429837, -162.00872618053108, 0.1600000075995922, 0.11200000531971455, 0.9920000471174717, 0.0, 0.0, 0.0, 0.0, 0.0, 1.6518363842438157E9, 0.0, 2022-05-06 12:26:24.243
62.0, -267.7375678778626, -188.67421286460012, -211.39597504539415, -196.32230827398598, 0.1600000075995922, 0.11200000531971455, 0.9920000471174717, 0.0, 0.0, 0.0, 0.0, 0.0, 1.6518363842588418E9, 0.0, 2022-05-06 12:26:24.258
62.0, -280.09045743150637, -207.5382682411, -224.76237748702988, -211.11361259873956, 0.1600000075995922, 0.11200000531971455, 0.9920000471174717, 0.0, 0.0, 0.0, 0.0, 0.0, 1.6518363842588418E9, 0.0, 2022-05-06 12:26:24.258
63.0, -253.04350095195696, -116.1650325236842, -148.04580969596282, -176.24652531184256, 0.1600000075995922, 0.11200000531971455, 0.9920000471174717, 0.0, 0.0, 0.0, 0.0, 0.0, 1.6518363842598095E9, 0.0, 2022-05-06 12:26:24.259
63.0, -229.9757980252616, -99.91516721621156, -135.03469775011763, -168.28801820613444, 0.1600000075995922, 0.11200000531971455, 0.9920000471174717, 0.0, 0.0, 0.0, 0.0, 0.0, 1.6518363842598095E9, 0.0, 2022-05-06 12:26:24.259
64.0, -260.9571292581968, -182.77265073452145, -205.09424362005666, -193.65575960557908, 0.1600000075995922, 0.11200000531971455, 0.9920000471174717, 0.0, 0.0, 0.0, 0.0, 0.0, 1.651836384273838E9, 0.0, 2022-05-06 12:26:24.273
64.0, -259.4798687756993, -175.10585582535714, -197.3002921123989, -181.24677155259997, 0.1600000075995922, 0.11200000531971455, 0.9920000471174717, 0.0, 0.0, 0.0, 0.0, 0.0, 1.651836384273838E9, 0.0, 2022-05-06 12:26:24.273
65.0, -234.35896077333018, -98.01903793867677, -135.84999594045803, -156.9224622407928, 0.1600000075995922, 0.11200000531971455, 0.9920000471174717, 0.0, 0.0, 0.0, 0.0, 0.0, 1.6518363842888365E9, 0.0, 2022-05-06 12:26:24.288
65.0, -223.1990993055515, -100.96607910376042, -132.64864157838747, -158.66151572018862, 0.1600000075995922, 0.11200000531971455, 0.9920000471174717, 0.0, 0.0, 0.0, 0.0, 0.0, 1.6518363842888365E9, 0.0, 2022-05-06 12:26:24.288
66.0, -258.4364366880618, -178.55030368454754, -200.98409356875345, -187.5335433781147, 0.1600000075995922, 0.11200000531971455, 0.9920000471174717, 0.0, 0.0, 0.0, 0.0, 0.0, 1.651836384289799E9, 0.0, 2022-05-06 12:26:24.289
66.0, -277.76423965906724, -194.7964290920645, -206.56776420259848, -189.7961828513071, 0.1600000075995922, 0.11200000531971455, 0.9920000471174717, 0.0, 0.0, 0.0, 0.0, 0.0, 1.651836384289799E9, 0.0, 2022-05-06 12:26:24.289
67.0, -249.78978799050674, -109.53045000229031, -134.36525565804914, -155.95382815226912, 0.1600000075995922, 0.11200000531971455, 0.9920000471174717, 0.0, 0.0, 0.0, 0.0, 0.0, 1.651836384319903E9, 0.0, 2022-05-06 12:26:24.319
67.0, -222.65681381197646, -88.22423995472491, -127.74189283652231, -137.7704345677048, 0.1600000075995922, 0.11200000531971455, 0.9920000471174717, 0.0, 0.0, 0.0, 0.0, 0.0, 1.651836384319903E9, 0.0, 2022-05-06 12:26:24.319
68.0, -257.11999190365896, -182.5295572374016, -213.7109731179662, -210.27587500866503, 0.1600000075995922, 0.11200000531971455, 0.9920000471174717, 0.0, 0.0, 0.0, 0.0, 0.0, 1.6518363843209083E9, 0.0, 2022-05-06 12:26:24.320
68.0, -280.1502958307974, -201.22531711589545, -220.52507083723322, -210.70596350356936, 0.1600000075995922, 0.11200000531971455, 0.9920000471174717, 0.0, 0.0, 0.0, 0.0, 0.0, 1.6518363843209083E9, 0.0, 2022-05-06 12:26:24.320
69.0, -250.9154978771694, -108.4234396154061, -134.77664465317503, -163.3737896643579, 0.1600000075995922, 0.11200000531971455, 0.9920000471174717, 0.0, 0.0, 0.0, 0.0, 0.0, 1.6518363843217964E9, 0.0, 2022-05-06 12:26:24.321
69.0, -223.7526044989936, -93.5274180918932, -122.28537880117074, -139.99941494129598, 0.1600000075995922, 0.11200000531971455, 0.9920000471174717, 0.0, 0.0, 0.0, 0.0, 0.0, 1.6518363843217964E9, 0.0, 2022-05-06 12:26:24.321
70.0, -258.9114039824344, -182.61557493638247, -205.01570572098717, -205.29806816764176, 0.1600000075995922, 0.11200000531971455, 0.9920000471174717, 0.0, 0.0, 0.0, 0.0, 0.0, 1.651836384333828E9, 0.0, 2022-05-06 12:26:24.333
70.0, -260.82623275974765, -186.59856838919222, -208.94260067446157, -205.6122197639197, 0.1600000075995922, 0.11200000531971455, 0.9920000471174717, 0.0, 0.0, 0.0, 0.0, 0.0, 1.651836384333828E9, 0.0, 2022-05-06 12:26:24.333
71.0, -248.72017660317943, -109.7548439996317, -140.80910328170285, -168.65078850183636, 0.1600000075995922, 0.11200000531971455, 0.9920000471174717, 0.0, 0.0, 0.0, 0.0, 0.0, 1.6518363843488193E9, 0.0, 2022-05-06 12:26:24.348
71.0, -231.21370491059497, -99.63093481957912, -130.58421680284664, -145.12307788059115, 0.1600000075995922, 0.11200000531971455, 0.9920000471174717, 0.0, 0.0, 0.0, 0.0, 0.0, 1.6518363843488193E9, 0.0, 2022-05-06 12:26:24.348
72.0, -251.5849399692379, -176.13058841321617, -199.8883028817363, -200.03228903003037, 0.1600000075995922, 0.11200000531971455, 0.9920000471174717, 0.0, 0.0, 0.0, 0.0, 0.0, 1.6518363843497972E9, 0.0, 2022-05-06 12:26:24.349
72.0, -264.94012271100655, -189.459591855295, -204.56691772630438, -195.5032701836899, 0.1600000075995922, 0.11200000531971455, 0.9920000471174717, 0.0, 0.0, 0.0, 0.0, 0.0, 1.6518363843497972E9, 0.0, 2022-05-06 12:26:24.349
73.0, -248.1330123101361, -114.12304714787751, -149.54924947815016, -162.1508423788473, 0.1600000075995922, 0.11200000531971455, 0.9920000471174717, 0.0, 0.0, 0.0, 0.0, 0.0, 1.6518363843638818E9, 0.0, 2022-05-06 12:26:24.363
73.0, -213.7521120174788, -94.61198907904327, -134.06980356154963, -165.17642144300044, 0.1600000075995922, 0.11200000531971455, 0.9920000471174717, 0.0, 0.0, 0.0, 0.0, 0.0, 1.6518363843638818E9, 0.0, 2022-05-06 12:26:24.363
74.0, -250.18621738580987, -183.7525045229122, -205.54677151469514, -205.41400506626815, 0.1600000075995922, 0.11200000531971455, 0.9920000471174717, 0.0, 0.0, 0.0, 0.0, 0.0, 1.6518363843788488E9, 0.0, 2022-05-06 12:26:24.378
74.0, -291.9721195907332, -201.4310116134584, -216.6767137828283, -207.23907624464482, 0.1600000075995922, 0.11200000531971455, 0.9920000471174717, 0.0, 0.0, 0.0, 0.0, 0.0, 1.6518363843788488E9, 0.0, 2022-05-06 12:26:24.378
75.0, -252.5049553583376, -114.8672872390598, -151.62863385351375, -179.46657917369157, 0.1600000075995922, 0.11200000531971455, 0.9920000471174717, 0.0, 0.0, 0.0, 0.0, 0.0, 1.6518363843797836E9, 0.0, 2022-05-06 12:26:24.379
75.0, -241.40867218980566, -102.46203908603638, -138.9316735039465, -172.68614055402577, 0.1600000075995922, 0.11200000531971455, 0.9920000471174717, 0.0, 0.0, 0.0, 0.0, 0.0, 1.6518363843797836E9, 0.0, 2022-05-06 12:26:24.379
76.0, -269.16246976098046, -190.06919554807246, -206.19751410698518, -195.2414771867916, 0.1600000075995922, 0.11200000531971455, 0.9920000471174717, 0.0, 0.0, 0.0, 0.0, 0.0, 1.651836384409897E9, 0.0, 2022-05-06 12:26:24.409
76.0, -273.5531123089604, -184.99789120815694, -204.3051247294061, -192.92273921426386, 0.1600000075995922, 0.11200000531971455, 0.9920000471174717, 0.0, 0.0, 0.0, 0.0, 0.0, 1.651836384409897E9, 0.0, 2022-05-06 12:26:24.409
77.0, -228.74163103988394, -93.59473629109561, -126.24967275420204, -144.4386761886999, 0.1600000075995922, 0.11200000531971455, 0.9920000471174717, 0.0, 0.0, 0.0, 0.0, 0.0, 1.651836384410855E9, 0.0, 2022-05-06 12:26:24.410
77.0, -210.57693695509806, -88.88620224688202, -123.73272008402273, -153.02174658700824, 0.1600000075995922, 0.11200000531971455, 0.9920000471174717, 0.0, 0.0, 0.0, 0.0, 0.0, 1.651836384410855E9, 0.0, 2022-05-06 12:26:24.410
78.0, -263.53392032766715, -181.24303165264428, -204.08821053197607, -204.28829517960548, 0.1600000075995922, 0.11200000531971455, 0.9920000471174717, 0.0, 0.0, 0.0, 0.0, 0.0, 1.6518363844117856E9, 0.0, 2022-05-06 12:26:24.411
78.0, -272.12821042584255, -191.6885722288862, -204.06577113224193, -191.3482413329184, 0.1600000075995922, 0.11200000531971455, 0.9920000471174717, 0.0, 0.0, 0.0, 0.0, 0.0, 1.6518363844117856E9, 0.0, 2022-05-06 12:26:24.411
79.0, -239.62473991094157, -106.41511333920062, -140.3827546867542, -169.94853378646076, 0.1600000075995922, 0.11200000531971455, 0.9920000471174717, 0.0, 0.0, 0.0, 0.0, 0.0, 1.6518363844239023E9, 0.0, 2022-05-06 12:26:24.423
79.0, -221.37776802713051, -96.83722955267876, -135.25161194754764, -163.27655226550996, 0.1600000075995922, 0.11200000531971455, 0.9920000471174717, 0.0, 0.0, 0.0, 0.0, 0.0, 1.6518363844239023E9, 0.0, 2022-05-06 12:26:24.423
80.0, -254.5095417345874, -179.29454377572984, -201.23466686578467, -190.69749874062836, 0.1600000075995922, 0.11200000531971455, 1.008000047877431, 0.0, 0.0, 0.0, 0.0, 0.0, 1.6518363844388142E9, 0.0, 2022-05-06 12:26:24.438
80.0, -270.53501304471865, -188.24412436969578, -206.8258172995411, -197.2011847635731, 0.1600000075995922, 0.11200000531971455, 1.008000047877431, 0.0, 0.0, 0.0, 0.0, 0.0, 1.6518363844388142E9, 0.0, 2022-05-06 12:26:24.438
81.0, -241.70786418626085, -106.15332034230232, -134.2717581591569, -163.3737896643579, 0.1600000075995922, 0.11200000531971455, 1.008000047877431, 0.0, 0.0, 0.0, 0.0, 0.0, 1.6518363844397817E9, 0.0, 2022-05-06 12:26:24.439
81.0, -223.44593270262703, -102.05438999086618, -133.58361656730995, -149.50250072870404, 0.1600000075995922, 0.11200000531971455, 1.008000047877431, 0.0, 0.0, 0.0, 0.0, 0.0, 1.6518363844397817E9, 0.0, 2022-05-06 12:26:24.439
82.0, -258.9862019815482, -181.13083465397358, -202.5548515501432, -189.50821055471897, 0.1600000075995922, 0.11200000531971455, 1.008000047877431, 0.0, 0.0, 0.0, 0.0, 0.0, 1.6518363844538343E9, 0.0, 2022-05-06 12:26:24.453
82.0, -266.7352746897377, -185.16992660611868, -208.49381267977878, -195.4284721845761, 0.1600000075995922, 0.11200000531971455, 1.008000047877431, 0.0, 0.0, 0.0, 0.0, 0.0, 1.6518363844538343E9, 0.0, 2022-05-06 12:26:24.453
83.0, -230.14783342322335, -91.28347811847925, -124.44330107560381, -154.77201976627111, 0.1600000075995922, 0.11200000531971455, 1.008000047877431, 0.0, 0.0, 0.0, 0.0, 0.0, 1.6518363844688184E9, 0.0, 2022-05-06 12:26:24.468
83.0, -194.23357414873317, -81.67567513231188, -111.20779513241723, -132.08578663505614, 0.1600000075995922, 0.11200000531971455, 1.008000047877431, 0.0, 0.0, 0.0, 0.0, 0.0, 1.6518363844688184E9, 0.0, 2022-05-06 12:26:24.468
84.0, -248.75757560273632, -166.43676772806793, -193.47063455777243, -183.02322403155267, 0.1600000075995922, 0.11200000531971455, 1.008000047877431, 0.0, 0.0, 0.0, 0.0, 0.0, 1.6518363844698372E9, 0.0, 2022-05-06 12:26:24.469
84.0, -272.12447052588686, -192.74322401639074, -207.5999765903689, -195.9445783784613, 0.1600000075995922, 0.11200000531971455, 1.008000047877431, 0.0, 0.0, 0.0, 0.0, 0.0, 1.6518363844698372E9, 0.0, 2022-05-06 12:26:24.469
85.0, -238.461631024722, -115.23005753476173, -146.35911481594667, -176.6766138067469, 0.1600000075995922, 0.11200000531971455, 1.008000047877431, 0.0, 0.0, 0.0, 0.0, 0.0, 1.6518363844839387E9, 0.0, 2022-05-06 12:26:24.483
85.0, -224.89327398547903, -88.84506334736943, -130.83479009987786, -163.29151186533272, 0.1600000075995922, 0.11200000531971455, 1.008000047877431, 0.0, 0.0, 0.0, 0.0, 0.0, 1.6518363844839387E9, 0.0, 2022-05-06 12:26:24.483
86.0, -249.2138433973305, -177.0057250028476, -195.67343563167378, -185.36440140381455, 0.1600000075995922, 0.11200000531971455, 1.008000047877431, 0.0, 0.0, 0.0, 0.0, 0.0, 1.6518363844988325E9, 0.0, 2022-05-06 12:26:24.498
86.0, -258.9974216814153, -181.58710244856775, -196.5186530216597, -173.02647144999355, 0.1600000075995922, 0.11200000531971455, 1.008000047877431, 0.0, 0.0, 0.0, 0.0, 0.0, 1.6518363844988325E9, 0.0, 2022-05-06 12:26:24.498
87.0, -246.3902189307846, -99.76557121798396, -132.76457847701386, -164.69397434871644, 0.1600000075995922, 0.11200000531971455, 1.008000047877431, 0.0, 0.0, 0.0, 0.0, 0.0, 1.651836384499797E9, 0.0, 2022-05-06 12:26:24.499
87.0, -229.10440133558586, -101.5682029966265, -143.13158115418628, -168.99485929775983, 0.1600000075995922, 0.11200000531971455, 1.008000047877431, 0.0, 0.0, 0.0, 0.0, 0.0, 1.651836384499797E9, 0.0, 2022-05-06 12:26:24.499
88.0, -253.94107694132254, -180.54367036093026, -196.31669842405245, -190.26741024572402, 0.1600000075995922, 0.11200000531971455, 1.008000047877431, 0.0, 0.0, 0.0, 0.0, 0.0, 1.651836384513958E9, 0.0, 2022-05-06 12:26:24.513
88.0, -269.16246976098046, -195.14797968789935, -213.68853371823207, -202.30988810304552, 0.1600000075995922, 0.11200000531971455, 1.008000047877431, 0.0, 0.0, 0.0, 0.0, 0.0, 1.651836384513958E9, 0.0, 2022-05-06 12:26:24.513
89.0, -232.0888415002264, -104.44044616259634, -134.49615215649828, -163.47476696316153, 0.1600000075995922, 0.11200000531971455, 1.008000047877431, 0.0, 0.0, 0.0, 0.0, 0.0, 1.651836384528838E9, 0.0, 2022-05-06 12:26:24.528
89.0, -233.73065758077428, -105.71201214753091, -140.939999780152, -173.5986761432141, 0.1600000075995922, 0.11200000531971455, 1.008000047877431, 0.0, 0.0, 0.0, 0.0, 0.0, 1.651836384528838E9, 0.0, 2022-05-06 12:26:24.528
90.0, -248.7987145022489, -176.05205051414669, -192.64037676760927, -187.51858377829194, 0.1600000075995922, 0.11200000531971455, 1.008000047877431, 0.0, 0.0, 0.0, 0.0, 0.0, 1.6518363845298376E9, 0.0, 2022-05-06 12:26:24.529
90.0, -263.60497842682526, -179.159907377325, -196.6645091199316, -171.06676387321204, 0.1600000075995922, 0.11200000531971455, 1.008000047877431, 0.0, 0.0, 0.0, 0.0, 0.0, 1.6518363845298376E9, 0.0, 2022-05-06 12:26:24.529
91.0, -239.84913390828297, -111.93146577384323, -141.10081547824666, -170.9695264743641, 0.1600000075995922, 0.11200000531971455, 1.008000047877431, 0.0, 0.0, 0.0, 0.0, 0.0, 1.651836384543847E9, 0.0, 2022-05-06 12:26:24.543
91.0, -223.3823544033803, -91.71730651333928, -129.0022391215898, -161.40286238770932, 0.1600000075995922, 0.11200000531971455, 1.008000047877431, 0.0, 0.0, 0.0, 0.0, 0.0, 1.651836384543847E9, 0.0, 2022-05-06 12:26:24.543
92.0, -251.55876066954806, -178.8270562812686, -203.60950333764777, -195.96327787823975, 0.1600000075995922, 0.11200000531971455, 1.008000047877431, 0.0, 0.0, 0.0, 0.0, 0.0, 1.6518363845588505E9, 0.0, 2022-05-06 12:26:24.558
92.0, -258.42147708823904, -179.77325097005814, -195.98758722795174, -181.20563265308738, 0.1600000075995922, 0.11200000531971455, 1.008000047877431, 0.0, 0.0, 0.0, 0.0, 0.0, 1.6518363845588505E9, 0.0, 2022-05-06 12:26:24.558
93.0, -227.52616355428472, -94.36141578201205, -128.02612523315474, -152.1840089969337, 0.1600000075995922, 0.11200000531971455, 1.008000047877431, 0.0, 0.0, 0.0, 0.0, 0.0, 1.651836384559846E9, 0.0, 2022-05-06 12:26:24.559
93.0, -206.04791810875759, -82.1506424266845, -117.79749885434285, -146.48440146446228, 0.1600000075995922, 0.11200000531971455, 1.008000047877431, 0.0, 0.0, 0.0, 0.0, 0.0, 1.651836384559846E9, 0.0, 2022-05-06 12:26:24.559
94.0, -245.23832974443212, -173.90534793958068, -186.57799893943593, -159.1103037148714, 0.1600000075995922, 0.11200000531971455, 1.008000047877431, 0.0, 0.0, 0.0, 0.0, 0.0, 1.6518363845738888E9, 0.0, 2022-05-06 12:26:24.573
94.0, -251.8467329661362, -175.9772525150329, -195.49766033375636, -180.55489006079733, 0.1600000075995922, 0.11200000531971455, 1.008000047877431, 0.0, 0.0, 0.0, 0.0, 0.0, 1.6518363845738888E9, 0.0, 2022-05-06 12:26:24.573
95.0, -238.03154252981767, -107.75773742329329, -146.20951881771907, -177.6377680953592, 0.1600000075995922, 0.11200000531971455, 1.008000047877431, 0.0, 0.0, 0.0, 0.0, 0.0, 1.6518363845888405E9, 0.0, 2022-05-06 12:26:24.588
95.0, -227.197052358184, -100.0834627142176, -135.15063464874402, -167.88784891087562, 0.1600000075995922, 0.11200000531971455, 1.008000047877431, 0.0, 0.0, 0.0, 0.0, 0.0, 1.6518363845888405E9, 0.0, 2022-05-06 12:26:24.588
96.0, -258.1484643914737, -180.20333946496248, -203.82641753507778, -196.96183116640896, 0.1600000075995922, 0.11200000531971455, 1.008000047877431, 0.0, 0.0, 0.0, 0.0, 0.0, 1.651836384589836E9, 0.0, 2022-05-06 12:26:24.589
96.0, -286.5343050551601, -200.350180526264, -222.66055371193215, -207.53452834114432, 0.1600000075995922, 0.11200000531971455, 1.008000047877431, 0.0, 0.0, 0.0, 0.0, 0.0, 1.651836384589836E9, 0.0, 2022-05-06 12:26:24.589
97.0, -251.8467329661362, -133.88841841369867, -163.73842991003767, -187.92997277341783, 0.1600000075995922, 0.11200000531971455, 1.008000047877431, 0.0, 0.0, 0.0, 0.0, 0.0, 1.6518363846038816E9, 0.0, 2022-05-06 12:26:24.603
97.0, -220.59238903643563, -101.12689480185509, -125.89812215836719, -149.2220082320273, 0.1600000075995922, 0.11200000531971455, 1.008000047877431, 0.0, 0.0, 0.0, 0.0, 0.0, 1.6518363846038816E9, 0.0, 2022-05-06 12:26:24.603
98.0, -249.2475024969317, -180.5324506610632, -198.7476333952509, -172.65996125433594, 0.1600000075995922, 0.11200000531971455, 1.008000047877431, 0.0, 0.0, 0.0, 0.0, 0.0, 1.651836384618848E9, 0.0, 2022-05-06 12:26:24.618
98.0, -259.9099572706036, -193.11721401195973, -206.43312780419365, -201.77134250942618, 0.1600000075995922, 0.11200000531971455, 1.008000047877431, 0.0, 0.0, 0.0, 0.0, 0.0, 1.651836384618848E9, 0.0, 2022-05-06 12:26:24.618
99.0, -243.15146556915715, -104.55264316126704, -134.88136185193434, -165.80846453551203, 0.1600000075995922, 0.11200000531971455, 1.008000047877431, 0.0, 0.0, 0.0, 0.0, 0.0, 1.6518363846198435E9, 0.0, 2022-05-06 12:26:24.619
99.0, -228.26292384555563, -97.64878784306347, -136.39602133398876, -167.4540205160156, 0.1600000075995922, 0.11200000531971455, 1.008000047877431, 0.0, 0.0, 0.0, 0.0, 0.0, 1.6518363846198435E9, 0.0, 2022-05-06 12:26:24.619
100.0, -247.8375602136366, -175.39756802190095, -200.5203459742479, -183.85348182171583, 0.1600000075995922, 0.11200000531971455, 1.008000047877431, 0.0, 0.0, 0.0, 0.0, 0.0, 1.651836384633892E9, 0.0, 2022-05-06 12:26:24.633
100.0, -258.3167598894797, -181.93117324449122, -193.53047295706347, -180.1210616659373, 0.1600000075995922, 0.11200000531971455, 1.008000047877431, 0.0, 0.0, 0.0, 0.0, 0.0, 1.651836384633892E9, 0.0, 2022-05-06 12:26:24.633
0.0, -229.57936862995848, -87.99049620749429, -116.61195056838915, -149.7343745259568, 0.1600000075995922, 0.11200000531971455, 1.008000047877431, 0.0, 0.0, 0.0, 0.0, 0.0, 1.6518363846347752E9, 0.0, 2022-05-06 12:26:24.634
1.0, -229.1305806352757, -99.68890326889232, -142.0844091665931, -158.2576065249741, 0.1600000075995922, 0.11200000531971455, 1.008000047877431, 0.0, 0.0, 0.0, 0.0, 0.0, 1.6518363846488345E9, 0.0, 2022-05-06 12:26:24.648
1.0, -249.3559595956467, -173.83241989044473, -197.32647141208872, -184.33966881595552, 0.1600000075995922, 0.11200000531971455, 1.008000047877431, 0.0, 0.0, 0.0, 0.0, 0.0, 1.6518363846488345E9, 0.0, 2022-05-06 12:26:24.648
2.0, -265.5198072041385, -189.5213002045639, -202.53989195032045, -194.25040369853377, 0.1600000075995922, 0.11200000531971455, 1.008000047877431, 0.0, 0.0, 0.0, 0.0, 0.0, 1.651836384663849E9, 0.0, 2022-05-06 12:26:24.663
2.0, -240.91874529561028, -103.2530279266648, -133.10116947302595, -163.88615595828742, 0.1600000075995922, 0.11200000531971455, 1.008000047877431, 0.0, 0.0, 0.0, 0.0, 0.0, 1.651836384663849E9, 0.0, 2022-05-06 12:26:24.663
3.0, -207.47281999187544, -80.34614069806412, -115.72933417884633, -137.5497804703191, 0.1600000075995922, 0.11200000531971455, 1.008000047877431, 0.0, 0.0, 0.0, 0.0, 0.0, 1.6518363846648276E9, 0.0, 2022-05-06 12:26:24.664
3.0, -238.2035779277794, -168.15151185775176, -180.71383580891415, -147.43433605320752, 0.1600000075995922, 0.11200000531971455, 1.008000047877431, 0.0, 0.0, 0.0, 0.0, 0.0, 1.6518363846648276E9, 0.0, 2022-05-06 12:26:24.664
4.0, -255.53801422240213, -178.41005743620917, -192.06443217443302, -179.72837217058986, 0.1600000075995922, 0.11200000531971455, 1.008000047877431, 0.0, 0.0, 0.0, 0.0, 0.0, 1.651836384678856E9, 0.0, 2022-05-06 12:26:24.678
4.0, -229.6130277295597, -89.10872629424557, -129.61184281436726, -162.89882236998528, 0.1600000075995922, 0.11200000531971455, 1.008000047877431, 0.0, 0.0, 0.0, 0.0, 0.0, 1.651836384678856E9, 0.0, 2022-05-06 12:26:24.678
5.0, -224.57912238920107, -93.77986133890226, -136.7924507292919, -163.6355826612562, 0.1600000075995922, 0.11200000531971455, 1.008000047877431, 0.0, 0.0, 0.0, 0.0, 0.0, 1.6518363846938405E9, 0.0, 2022-05-06 12:26:24.693
5.0, -255.83346631890163, -188.2235549199395, -205.80108471168205, -204.66602507513016, 0.1600000075995922, 0.11200000531971455, 1.008000047877431, 0.0, 0.0, 0.0, 0.0, 0.0, 1.6518363846938405E9, 0.0, 2022-05-06 12:26:24.693
6.0, -268.6725428667851, -195.2994456361048, -209.05853757308796, -204.78944177366793, 0.1600000075995922, 0.11200000531971455, 1.008000047877431, 0.0, 0.0, 0.0, 0.0, 0.0, 1.651836384694852E9, 0.0, 2022-05-06 12:26:24.694
6.0, -229.67660602880642, -107.49033457646146, -136.32496323483065, -160.94659459311515, 0.1600000075995922, 0.11200000531971455, 1.008000047877431, 0.0, 0.0, 0.0, 0.0, 0.0, 1.651836384694852E9, 0.0, 2022-05-06 12:26:24.694
7.0, -218.10909546585754, -85.0210156426765, -115.8864099769853, -141.68236992135644, 0.1600000075995922, 0.11200000531971455, 1.008000047877431, 0.0, 0.0, 0.0, 0.0, 0.0, 1.6518363847088473E9, 0.0, 2022-05-06 12:26:24.708
7.0, -256.0242012166418, -180.23512861458585, -205.17652141908184, -191.2435241341591, 0.1600000075995922, 0.11200000531971455, 1.008000047877431, 0.0, 0.0, 0.0, 0.0, 0.0, 1.6518363847088473E9, 0.0, 2022-05-06 12:26:24.708
8.0, -277.09853746695444, -195.93522862857208, -208.50503237964585, -202.36224670242518, 0.1600000075995922, 0.11200000531971455, 1.008000047877431, 0.0, 0.0, 0.0, 0.0, 0.0, 1.6518363847559416E9, 0.0, 2022-05-06 12:26:24.755
8.0, -235.7614232567139, -105.99811449414119, -137.51425142074004, -166.6761213252321, 0.1600000075995922, 0.11200000531971455, 1.008000047877431, 0.0, 0.0, 0.0, 0.0, 0.0, 1.6518363847559416E9, 0.0, 2022-05-06 12:26:24.755
9.0, -198.17542870203033, -82.75837616948411, -114.82053848961368, -145.13055768050253, 0.1600000075995922, 0.11200000531971455, 1.008000047877431, 0.0, 0.0, 0.0, 0.0, 0.0, 1.651836384756772E9, 0.0, 2022-05-06 12:26:24.756
9.0, -246.8764059250243, -179.74894162034616, -191.7016618787311, -175.74163881782442, 0.1600000075995922, 0.11200000531971455, 1.008000047877431, 0.0, 0.0, 0.0, 0.0, 0.0, 1.651836384756772E9, 0.0, 2022-05-06 12:26:24.756
10.0, -279.3013385408558, -184.90626365924254, -201.19726786622778, -190.0168369486928, 0.1600000075995922, 0.11200000531971455, 1.008000047877431, 0.0, 0.0, 0.0, 0.0, 0.0, 1.6518363847578182E9, 0.0, 2022-05-06 12:26:24.757
10.0, -224.91945328516886, -88.70855699898675, -119.17378203803673, -135.64243149291724, 0.1600000075995922, 0.11200000531971455, 1.008000047877431, 0.0, 0.0, 0.0, 0.0, 0.0, 1.6518363847578182E9, 0.0, 2022-05-06 12:26:24.757
11.0, -213.47161952080205, -92.93090404896066, -128.86386282322928, -154.3344514714554, 0.1600000075995922, 0.11200000531971455, 1.008000047877431, 0.0, 0.0, 0.0, 0.0, 0.0, 1.6518363847587779E9, 0.0, 2022-05-06 12:26:24.758
11.0, -246.38647903082892, -170.96017672447488, -184.53227366367355, -165.8234241353348, 0.1600000075995922, 0.11200000531971455, 1.008000047877431, 0.0, 0.0, 0.0, 0.0, 0.0, 1.6518363847587779E9, 0.0, 2022-05-06 12:26:24.758
12.0, -270.0675255502574, -194.5514656449668, -214.84790270449594, -203.90308548416942, 0.1600000075995922, 0.11200000531971455, 1.008000047877431, 0.0, 0.0, 0.0, 0.0, 0.0, 1.6518363847689211E9, 0.0, 2022-05-06 12:26:24.768
12.0, -241.3937125899829, -106.73861468536779, -143.93191974470392, -179.58625597227365, 0.1600000075995922, 0.11200000531971455, 1.008000047877431, 0.0, 0.0, 0.0, 0.0, 0.0, 1.6518363847689211E9, 0.0, 2022-05-06 12:26:24.768
13.0, -212.54786423174664, -90.14841848192737, -128.10466313222423, -157.95093472860754, 0.1600000075995922, 0.11200000531971455, 1.008000047877431, 0.0, 0.0, 0.0, 0.0, 0.0, 1.6518363847698417E9, 0.0, 2022-05-06 12:26:24.769
13.0, -245.62727933982387, -172.78524790285155, -192.64411666756496, -191.52027673088014, 0.1600000075995922, 0.11200000531971455, 1.008000047877431, 0.0, 0.0, 0.0, 0.0, 0.0, 1.6518363847698417E9, 0.0, 2022-05-06 12:26:24.769
14.0, -269.79077295353636, -197.14321631425992, -202.66330864885822, -194.4224390964955, 0.1600000075995922, 0.11200000531971455, 1.008000047877431, 0.0, 0.0, 0.0, 0.0, 0.0, 1.6518363847839072E9, 0.0, 2022-05-06 12:26:24.783
14.0, -239.30684841470793, -116.87000366533175, -144.8294957340695, -166.35448992904276, 0.1600000075995922, 0.11200000531971455, 1.008000047877431, 0.0, 0.0, 0.0, 0.0, 0.0, 1.6518363847839072E9, 0.0, 2022-05-06 12:26:24.783
15.0, -195.92026902874932, -66.67680636001751, -116.56333186896518, -140.6576373334974, 0.1600000075995922, 0.11200000531971455, 1.008000047877431, 0.0, 0.0, 0.0, 0.0, 0.0, 1.6518363847848349E9, 0.0, 2022-05-06 12:26:24.784
15.0, -259.9623158699833, -180.65399740962312, -194.9254556405358, -188.33014206867665, 0.1600000075995922, 0.11200000531971455, 1.008000047877431, 0.0, 0.0, 0.0, 0.0, 0.0, 1.6518363847848349E9, 0.0, 2022-05-06 12:26:24.784
16.0, -282.57749090204015, -211.42589424503967, -220.15482074161991, -204.84928017295897, 0.1600000075995922, 0.11200000531971455, 1.008000047877431, 0.0, 0.0, 0.0, 0.0, 0.0, 1.6518363847988336E9, 0.0, 2022-05-06 12:26:24.798
16.0, -246.73428972670808, -112.30358581943437, -138.9728124034591, -165.7822852358222, 0.1600000075995922, 0.11200000531971455, 1.008000047877431, 0.0, 0.0, 0.0, 0.0, 0.0, 1.6518363847988336E9, 0.0, 2022-05-06 12:26:24.798
17.0, -222.00233131973073, -83.07252776576206, -132.32701018219814, -156.30537874810398, 0.1600000075995922, 0.11200000531971455, 1.008000047877431, 0.0, 0.0, 0.0, 0.0, 0.0, 1.6518363848138585E9, 0.0, 2022-05-06 12:26:24.813
17.0, -262.83455903595313, -188.2235549199395, -204.342523728963, -196.92069226689637, 0.1600000075995922, 0.11200000531971455, 1.008000047877431, 0.0, 0.0, 0.0, 0.0, 0.0, 1.6518363848138585E9, 0.0, 2022-05-06 12:26:24.813
18.0, -272.4161827224307, -200.89807586977258, -206.12645600782707, -187.52606357820332, 0.1600000075995922, 0.11200000531971455, 1.008000047877431, 0.0, 0.0, 0.0, 0.0, 0.0, 1.6518363848148403E9, 0.0, 2022-05-06 12:26:24.814
18.0, -240.60459369933233, -101.59251234633848, -144.08151574293151, -169.825117087923, 0.1600000075995922, 0.11200000531971455, 1.008000047877431, 0.0, 0.0, 0.0, 0.0, 0.0, 1.6518363848148403E9, 0.0, 2022-05-06 12:26:24.814
19.0, -212.6712809302844, -77.38413993315771, -123.12685629120097, -152.58043839223683, 0.1600000075995922, 0.11200000531971455, 1.008000047877431, 0.0, 0.0, 0.0, 0.0, 0.0, 1.6518363848288329E9, 0.0, 2022-05-06 12:26:24.828
19.0, -252.7704882551916, -181.9554825942032, -195.82677152985707, -177.22637910023332, 0.1600000075995922, 0.11200000531971455, 1.008000047877431, 0.0, 0.0, 0.0, 0.0, 0.0, 1.6518363848288329E9, 0.0, 2022-05-06 12:26:24.828
20.0, -295.9775524432771, -219.91546714445576, -222.80266991024837, -202.96063069533557, 0.1600000075995922, 0.11200000531971455, 1.008000047877431, 0.0, 0.0, 0.0, 0.0, 0.0, 1.6518363848438487E9, 0.0, 2022-05-06 12:26:24.843
20.0, -251.60737936897203, -115.50120028154925, -143.8309424459003, -171.46693316847086, 0.1600000075995922, 0.11200000531971455, 1.008000047877431, 0.0, 0.0, 0.0, 0.0, 0.0, 1.6518363848438487E9, 0.0, 2022-05-06 12:26:24.843
21.0, -214.3093571108766, -80.69395139394328, -124.90704867010936, -154.21103477291763, 0.1600000075995922, 0.11200000531971455, 1.008000047877431, 0.0, 0.0, 0.0, 0.0, 0.0, 1.6518363848448093E9, 0.0, 2022-05-06 12:26:24.844
21.0, -257.23592880228534, -189.67463610274717, -208.42649448057637, -196.8384144678712, 0.1600000075995922, 0.11200000531971455, 1.008000047877431, 0.0, 0.0, 0.0, 0.0, 0.0, 1.6518363848448093E9, 0.0, 2022-05-06 12:26:24.844
22.0, -292.8210768806748, -229.29513623332605, -230.47320471936837, -215.2162828501314, 0.1600000075995922, 0.11200000531971455, 1.008000047877431, 0.0, 0.0, 0.0, 0.0, 0.0, 1.6518363848588483E9, 0.0, 2022-05-06 12:26:24.858
22.0, -248.36862600734457, -107.29585977876559, -143.05678315507248, -164.55185815040022, 0.1600000075995922, 0.11200000531971455, 1.008000047877431, 0.0, 0.0, 0.0, 0.0, 0.0, 1.6518363848588483E9, 0.0, 2022-05-06 12:26:24.858
23.0, -221.830295921769, -83.44651776133105, -129.98209290998057, -157.43856843467802, 0.1600000075995922, 0.11200000531971455, 1.008000047877431, 0.0, 0.0, 0.0, 0.0, 0.0, 1.6518363848739312E9, 0.0, 2022-05-06 12:26:24.873
23.0, -249.38961869524792, -175.50415517063811, -195.17228903761134, -179.64983427152038, 0.1600000075995922, 0.11200000531971455, 1.008000047877431, 0.0, 0.0, 0.0, 0.0, 0.0, 1.6518363848739312E9, 0.0, 2022-05-06 12:26:24.873
24.0, -285.6030699661933, -208.7107268772088, -211.60914934286848, -192.40289312042296, 0.1600000075995922, 0.11200000531971455, 1.008000047877431, 0.0, 0.0, 0.0, 0.0, 0.0, 1.6518363848748364E9, 0.0, 2022-05-06 12:26:24.874
24.0, -250.90053827734664, -106.46186208864674, -141.80765656987205, -173.6398150427267, 0.1600000075995922, 0.11200000531971455, 1.008000047877431, 0.0, 0.0, 0.0, 0.0, 0.0, 1.6518363848748364E9, 0.0, 2022-05-06 12:26:24.874
25.0, -217.7164059705101, -82.11511337710544, -128.6768678254448, -158.65403592027724, 0.1600000075995922, 0.11200000531971455, 1.008000047877431, 0.0, 0.0, 0.0, 0.0, 0.0, 1.651836384888827E9, 0.0, 2022-05-06 12:26:24.888
25.0, -257.49772179918364, -177.55736024631187, -197.20679461350664, -178.72233908250928, 0.1600000075995922, 0.11200000531971455, 1.008000047877431, 0.0, 0.0, 0.0, 0.0, 0.0, 1.651836384888827E9, 0.0, 2022-05-06 12:26:24.888
26.0, -284.0884104841389, -217.9370600678958, -216.5981758837588, -204.92781807202846, 0.1600000075995922, 0.11200000531971455, 1.008000047877431, 0.0, 0.0, 0.0, 0.0, 0.0, 1.651836384903911E9, 0.0, 2022-05-06 12:26:24.903
26.0, -237.5378757356666, -100.7323353565298, -136.79619062924758, -158.86721021775156, 0.1600000075995922, 0.11200000531971455, 1.008000047877431, 0.0, 0.0, 0.0, 0.0, 0.0, 1.651836384903911E9, 0.0, 2022-05-06 12:26:24.903
27.0, -214.96383960312232, -68.07178904348984, -116.87000366533175, -145.2502344790846, 0.1600000075995922, 0.11200000531971455, 1.008000047877431, 0.0, 0.0, 0.0, 0.0, 0.0, 1.6518363849048443E9, 0.0, 2022-05-06 12:26:24.904
27.0, -254.74141553184018, -173.40981119545177, -191.42864918196574, -188.2403844697401, 0.1600000075995922, 0.11200000531971455, 1.008000047877431, 0.0, 0.0, 0.0, 0.0, 0.0, 1.6518363849048443E9, 0.0, 2022-05-06 12:26:24.904
28.0, -285.3786759688519, -215.55848369607702, -230.08425512397662, -210.85181960184127, 0.1600000075995922, 0.11200000531971455, 1.008000047877431, 0.0, 0.0, 0.0, 0.0, 0.0, 1.651836384918822E9, 0.0, 2022-05-06 12:26:24.918
28.0, -248.20407040929422, -100.9193303543143, -142.03205056721345, -168.20200050715357, 0.1600000075995922, 0.11200000531971455, 1.008000047877431, 0.0, 0.0, 0.0, 0.0, 0.0, 1.651836384918822E9, 0.0, 2022-05-06 12:26:24.918
29.0, -198.80373189458624, -70.66727961273864, -116.07714487472549, -142.9576758062467, 0.1600000075995922, 0.11200000531971455, 1.008000047877431, 0.0, 0.0, 0.0, 0.0, 0.0, 1.6518363849338863E9, 0.0, 2022-05-06 12:26:24.933
29.0, -269.9179295520298, -183.851611871738, -202.521192450542, -176.02961111441255, 0.1600000075995922, 0.11200000531971455, 1.008000047877431, 0.0, 0.0, 0.0, 0.0, 0.0, 1.6518363849338863E9, 0.0, 2022-05-06 12:26:24.933
30.0, -298.0868560182862, -215.72677919408306, -223.98447829624638, -212.9162443773821, 0.1600000075995922, 0.11200000531971455, 1.008000047877431, 0.0, 0.0, 0.0, 0.0, 0.0, 1.6518363849348345E9, 0.0, 2022-05-06 12:26:24.934
30.0, -236.86095384368673, -102.04504024097696, -140.90634068055078, -161.27570578921586, 0.1600000075995922, 0.11200000531971455, 1.008000047877431, 0.0, 0.0, 0.0, 0.0, 0.0, 1.6518363849348345E9, 0.0, 2022-05-06 12:26:24.934
31.0, -209.79529786435887, -69.00302413245663, -115.11599058611318, -145.76260077301413, 0.1600000075995922, 0.11200000531971455, 1.008000047877431, 0.0, 0.0, 0.0, 0.0, 0.0, 1.6518363849488175E9, 0.0, 2022-05-06 12:26:24.948
31.0, -263.52644052775577, -185.79261994874105, -206.90435519861057, -196.7187376692891, 0.1600000075995922, 0.11200000531971455, 1.008000047877431, 0.0, 0.0, 0.0, 0.0, 0.0, 1.6518363849488175E9, 0.0, 2022-05-06 12:26:24.948
32.0, -281.264786017593, -214.28691771114245, -220.3866945388727, -198.17729865200818, 0.1600000075995922, 0.11200000531971455, 1.008000047877431, 0.0, 0.0, 0.0, 0.0, 0.0, 1.651836384979838E9, 0.0, 2022-05-06 12:26:24.979
32.0, -253.26041514938697, -109.08727185754105, -140.88764118077233, -163.87119635846466, 0.1600000075995922, 0.11200000531971455, 1.008000047877431, 0.0, 0.0, 0.0, 0.0, 0.0, 1.651836384979838E9, 0.0, 2022-05-06 12:26:24.979
33.0, -222.94852600852028, -72.81772208726034, -119.35329723590985, -146.68261616211385, 0.1600000075995922, 0.11200000531971455, 1.008000047877431, 0.0, 0.0, 0.0, 0.0, 0.0, 1.651836384980842E9, 0.0, 2022-05-06 12:26:24.980
33.0, -260.8935509589501, -191.49596738116816, -204.05081153241917, -193.95869150198996, 0.1600000075995922, 0.11200000531971455, 1.008000047877431, 0.0, 0.0, 0.0, 0.0, 0.0, 1.651836384980842E9, 0.0, 2022-05-06 12:26:24.980
34.0, -298.47954551363364, -221.59842212451622, -224.50432439008728, -207.62802584003657, 0.1600000075995922, 0.11200000531971455, 1.008000047877431, 0.0, 0.0, 0.0, 0.0, 0.0, 1.6518363849818215E9, 0.0, 2022-05-06 12:26:24.981
34.0, -250.01418198784813, -103.93368971860036, -142.45091936225072, -171.8184837643057, 0.1600000075995922, 0.11200000531971455, 1.008000047877431, 0.0, 0.0, 0.0, 0.0, 0.0, 1.6518363849818215E9, 0.0, 2022-05-06 12:26:24.981
35.0, -212.7460789293982, -66.94981905678287, -120.2994919246994, -149.7755134254694, 0.1600000075995922, 0.11200000531971455, 1.008000047877431, 0.0, 0.0, 0.0, 0.0, 0.0, 1.6518363849938533E9, 0.0, 2022-05-06 12:26:24.993
35.0, -259.31157327769324, -187.86078462423757, -208.7855248763226, -192.15605972334743, 0.1600000075995922, 0.11200000531971455, 1.008000047877431, 0.0, 0.0, 0.0, 0.0, 0.0, 1.6518363849938533E9, 0.0, 2022-05-06 12:26:24.993
36.0, -301.3779679792933, -222.8325891098939, -228.98472453700379, -215.90068454202265, 0.1600000075995922, 0.11200000531971455, 1.008000047877431, 0.0, 0.0, 0.0, 0.0, 0.0, 1.6518363849948213E9, 0.0, 2022-05-06 12:26:24.994
36.0, -256.8881181064062, -112.80847231345251, -144.51534413779154, -175.13951492495835, 0.1600000075995922, 0.11200000531971455, 1.008000047877431, 0.0, 0.0, 0.0, 0.0, 0.0, 1.6518363849948213E9, 0.0, 2022-05-06 12:26:24.994
37.0, -217.862262068782, -85.34264703886583, -128.25425913045183, -150.82642531301826, 0.1600000075995922, 0.11200000531971455, 1.008000047877431, 0.0, 0.0, 0.0, 0.0, 0.0, 1.6518363850088143E9, 0.0, 2022-05-06 12:26:25.008
37.0, -254.6927968324162, -181.48799509974197, -197.7004614076577, -177.83224289305508, 0.1600000075995922, 0.11200000531971455, 1.008000047877431, 0.0, 0.0, 0.0, 0.0, 0.0, 1.6518363850088143E9, 0.0, 2022-05-06 12:26:25.008
38.0, -278.3327044523321, -205.75994581216946, -208.6022697784938, -183.84600202180445, 0.1600000075995922, 0.11200000531971455, 1.008000047877431, 0.0, 0.0, 0.0, 0.0, 0.0, 1.6518363850238273E9, 0.0, 2022-05-06 12:26:25.023
38.0, -244.90173874842003, -102.7331818328239, -138.2697112117894, -167.36800281703472, 0.1600000075995922, 0.11200000531971455, 1.008000047877431, 0.0, 0.0, 0.0, 0.0, 0.0, 1.6518363850238273E9, 0.0, 2022-05-06 12:26:25.023
39.0, -210.91726785106584, -73.76391677604988, -123.39986898796633, -148.4815080408007, 0.1600000075995922, 0.11200000531971455, 1.008000047877431, 0.0, 0.0, 0.0, 0.0, 0.0, 1.6518363850248668E9, 0.0, 2022-05-06 12:26:25.024
39.0, -251.3568060719408, -180.8073333078064, -198.23900700127706, -182.04337024316192, 0.1600000075995922, 0.11200000531971455, 1.008000047877431, 0.0, 0.0, 0.0, 0.0, 0.0, 1.6518363850248668E9, 0.0, 2022-05-06 12:26:25.024
40.0, -295.99999184301123, -224.36220819177106, -228.90992653789, -214.65155795682222, 0.1600000075995922, 0.11200000531971455, 1.008000047877431, 0.0, 0.0, 0.0, 0.0, 0.0, 1.6518363850388644E9, 0.0, 2022-05-06 12:26:25.038
40.0, -253.11455905111507, -103.70181592134759, -142.7538512586616, -175.87627521622926, 0.1600000075995922, 0.11200000531971455, 1.008000047877431, 0.0, 0.0, 0.0, 0.0, 0.0, 1.6518363850388644E9, 0.0, 2022-05-06 12:26:25.038
41.0, -215.6370215951465, -80.03198910178617, -124.38346267631277, -149.69323562644422, 0.1600000075995922, 0.11200000531971455, 1.008000047877431, 0.0, 0.0, 0.0, 0.0, 0.0, 1.6518363850538464E9, 0.0, 2022-05-06 12:26:25.053
41.0, -253.2454555495642, -180.03691391693428, -206.5602844026871, -192.1672794232145, 0.1600000075995922, 0.11200000531971455, 1.008000047877431, 0.0, 0.0, 0.0, 0.0, 0.0, 1.6518363850538464E9, 0.0, 2022-05-06 12:26:25.053
42.0, -285.3487567692064, -203.87877613445744, -211.2688184469007, -197.4255787609145, 0.1600000075995922, 0.11200000531971455, 1.008000047877431, 0.0, 0.0, 0.0, 0.0, 0.0, 1.651836385054778E9, 0.0, 2022-05-06 12:26:25.054
42.0, -251.5849399692379, -106.58153888722882, -145.14738723030314, -170.53943797945976, 0.1600000075995922, 0.11200000531971455, 1.008000047877431, 0.0, 0.0, 0.0, 0.0, 0.0, 1.651836385054778E9, 0.0, 2022-05-06 12:26:25.054
43.0, -220.24457834055647, -78.71180441742763, -126.03649845672771, -152.74499399028718, 0.1600000075995922, 0.11200000531971455, 1.008000047877431, 0.0, 0.0, 0.0, 0.0, 0.0, 1.6518363850688467E9, 0.0, 2022-05-06 12:26:25.068
43.0, -270.0750053501688, -188.12257762113586, -207.64111548988149, -194.34016129747033, 0.1600000075995922, 0.11200000531971455, 1.008000047877431, 0.0, 0.0, 0.0, 0.0, 0.0, 1.6518363850688467E9, 0.0, 2022-05-06 12:26:25.068
44.0, -292.0880564893596, -213.29210432292894, -223.32625590404496, -206.96606354787946, 0.1600000075995922, 0.11200000531971455, 1.008000047877431, 0.0, 0.0, 0.0, 0.0, 0.0, 1.651836385083841E9, 0.0, 2022-05-06 12:26:25.083
44.0, -240.9112654956989, -95.33565972046927, -136.8261098288931, -165.1502421433106, 0.1600000075995922, 0.11200000531971455, 1.008000047877431, 0.0, 0.0, 0.0, 0.0, 0.0, 1.651836385083841E9, 0.0, 2022-05-06 12:26:25.083
45.0, -208.20210048323497, -69.45555202709511, -124.13288937928155, -145.46340877655894, 0.1600000075995922, 0.11200000531971455, 1.008000047877431, 0.0, 0.0, 0.0, 0.0, 0.0, 1.6518363850847716E9, 0.0, 2022-05-06 12:26:25.084
45.0, -250.1039395867847, -190.34407819481567, -208.87902237521484, -191.84564802702516, 0.1600000075995922, 0.11200000531971455, 1.008000047877431, 0.0, 0.0, 0.0, 0.0, 0.0, 1.6518363850847716E9, 0.0, 2022-05-06 12:26:25.084
46.0, -287.0391915491782, -218.95805275579914, -224.62400118866935, -211.0986529989168, 0.1600000075995922, 0.11200000531971455, 1.008000047877431, 0.0, 0.0, 0.0, 0.0, 0.0, 1.6518363850988188E9, 0.0, 2022-05-06 12:26:25.098
46.0, -250.96037667663768, -103.52604062343016, -137.4955519209616, -165.57659073825926, 0.1600000075995922, 0.11200000531971455, 1.008000047877431, 0.0, 0.0, 0.0, 0.0, 0.0, 1.6518363850988188E9, 0.0, 2022-05-06 12:26:25.098
47.0, -220.85044213337824, -85.9485108316876, -138.3033703113906, -166.0814772322774, 0.1600000075995922, 0.11200000531971455, 1.008000047877431, 0.0, 0.0, 0.0, 0.0, 0.0, 1.6518363851138363E9, 0.0, 2022-05-06 12:26:25.113
47.0, -274.6638625958003, -201.56751796184108, -217.25265837600455, -206.7977680498734, 0.1600000075995922, 0.11200000531971455, 1.008000047877431, 0.0, 0.0, 0.0, 0.0, 0.0, 1.6518363851138363E9, 0.0, 2022-05-06 12:26:25.113
48.0, -277.05739856744185, -203.94609433365986, -207.36062299320474, -185.78327019885182, 0.1600000075995922, 0.11200000531971455, 1.008000047877431, 0.0, 0.0, 0.0, 0.0, 0.0, 1.6518363851147814E9, 0.0, 2022-05-06 12:26:25.114
48.0, -235.51832975959405, -90.23443618090823, -125.28477856563404, -140.11535183992237, 0.1600000075995922, 0.11200000531971455, 1.008000047877431, 0.0, 0.0, 0.0, 0.0, 0.0, 1.6518363851147814E9, 0.0, 2022-05-06 12:26:25.114
49.0, -221.66200042376295, -78.04610222531483, -125.78592515969649, -156.12586355023086, 0.1600000075995922, 0.11200000531971455, 1.008000047877431, 0.0, 0.0, 0.0, 0.0, 0.0, 1.6518363851288404E9, 0.0, 2022-05-06 12:26:25.128
49.0, -252.93504385324195, -186.73133483761922, -205.02318552089855, -191.47165803145617, 0.1600000075995922, 0.11200000531971455, 1.008000047877431, 0.0, 0.0, 0.0, 0.0, 0.0, 1.6518363851288404E9, 0.0, 2022-05-06 12:26:25.128
50.0, -275.258506688755, -199.7461866834201, -208.59105007862672, -187.34280848037452, 0.1600000075995922, 0.11200000531971455, 1.008000047877431, 0.0, 0.0, 0.0, 0.0, 0.0, 1.6518363851438425E9, 0.0, 2022-05-06 12:26:25.143
50.0, -239.75189650943503, -102.57984593464062, -142.1180682661943, -167.4914195155725, 0.1600000075995922, 0.11200000531971455, 1.008000047877431, 0.0, 0.0, 0.0, 0.0, 0.0, 1.6518363851438425E9, 0.0, 2022-05-06 12:26:25.143
51.0, -220.04262374294922, -76.45290484419093, -121.11853001499549, -151.15179660916328, 0.1600000075995922, 0.11200000531971455, 1.008000047877431, 0.0, 0.0, 0.0, 0.0, 0.0, 1.651836385144814E9, 0.0, 2022-05-06 12:26:25.144
51.0, -262.8008999363519, -188.3993302178569, -208.77430517645553, -192.02516322489828, 0.1600000075995922, 0.11200000531971455, 1.008000047877431, 0.0, 0.0, 0.0, 0.0, 0.0, 1.651836385144814E9, 0.0, 2022-05-06 12:26:25.144
52.0, -288.84182332782075, -221.3815079270862, -230.9070331142284, -219.3264329014346, 0.1600000075995922, 0.11200000531971455, 1.008000047877431, 0.0, 0.0, 0.0, 0.0, 0.0, 1.651836385158851E9, 0.0, 2022-05-06 12:26:25.158
52.0, -252.2095032618381, -99.15783747518435, -142.2676642644219, -169.7503190888092, 0.1600000075995922, 0.11200000531971455, 1.008000047877431, 0.0, 0.0, 0.0, 0.0, 0.0, 1.651836385158851E9, 0.0, 2022-05-06 12:26:25.158
53.0, -224.9755517845042, -77.96756432624534, -124.94070776971057, -159.12900321464986, 0.1600000075995922, 0.11200000531971455, 1.008000047877431, 0.0, 0.0, 0.0, 0.0, 0.0, 1.6518363851738348E9, 0.0, 2022-05-06 12:26:25.173
53.0, -265.19817580794916, -190.25058069592342, -207.20354719506577, -190.13277384731919, 0.1600000075995922, 0.11200000531971455, 1.008000047877431, 0.0, 0.0, 0.0, 0.0, 0.0, 1.6518363851738348E9, 0.0, 2022-05-06 12:26:25.173
54.0, -290.9997456022538, -207.83559028757736, -219.03659065486863, -213.40617127157748, 0.1600000075995922, 0.11200000531971455, 1.008000047877431, 0.0, 0.0, 0.0, 0.0, 0.0, 1.6518363851747773E9, 0.0, 2022-05-06 12:26:25.174
54.0, -251.9888491644524, -106.8096727845259, -150.7946361633949, -180.1622005654499, 0.1600000075995922, 0.11200000531971455, 1.008000047877431, 0.0, 0.0, 0.0, 0.0, 0.0, 1.6518363851747773E9, 0.0, 2022-05-06 12:26:25.174
55.0, -224.68757948791608, -83.98132345499471, -129.1892341193743, -161.2270870897919, 0.1600000075995922, 0.11200000531971455, 1.008000047877431, 0.0, 0.0, 0.0, 0.0, 0.0, 1.6518363851888394E9, 0.0, 2022-05-06 12:26:25.188
55.0, -245.6945975390263, -179.33755262522027, -197.3302113120444, -185.6448939004913, 0.1600000075995922, 0.11200000531971455, 1.008000047877431, 0.0, 0.0, 0.0, 0.0, 0.0, 1.6518363851888394E9, 0.0, 2022-05-06 12:26:25.188
56.0, -273.20904151303694, -199.23382038949057, -211.03320474969223, -184.32096931617707, 0.1600000075995922, 0.11200000531971455, 1.008000047877431, 0.0, 0.0, 0.0, 0.0, 0.0, 1.651836385203827E9, 0.0, 2022-05-06 12:26:25.203
56.0, -255.74370871996507, -106.64137728651986, -146.3142360164784, -173.36680234596133, 0.1600000075995922, 0.11200000531971455, 1.008000047877431, 0.0, 0.0, 0.0, 0.0, 0.0, 1.651836385203827E9, 0.0, 2022-05-06 12:26:25.203
57.0, -212.7535587293096, -69.87068092217669, -125.09404366789386, -145.83365887217224, 0.1600000075995922, 0.11200000531971455, 1.008000047877431, 0.0, 0.0, 0.0, 0.0, 0.0, 1.6518363852047887E9, 0.0, 2022-05-06 12:26:25.204
57.0, -261.45827585225925, -188.81819901289418, -211.73256604140624, -194.2391839986667, 0.1600000075995922, 0.11200000531971455, 1.008000047877431, 0.0, 0.0, 0.0, 0.0, 0.0, 1.6518363852047887E9, 0.0, 2022-05-06 12:26:25.204
58.0, -289.4888260201551, -210.25156565895304, -214.1971601122059, -201.55068841204047, 0.1600000075995922, 0.11200000531971455, 1.008000047877431, 0.0, 0.0, 0.0, 0.0, 0.0, 1.6518363852188404E9, 0.0, 2022-05-06 12:26:25.218
58.0, -232.0589223005809, -91.41624456690624, -131.4518735925667, -150.7703268136829, 0.1600000075995922, 0.11200000531971455, 1.008000047877431, 0.0, 0.0, 0.0, 0.0, 0.0, 1.6518363852188404E9, 0.0, 2022-05-06 12:26:25.218
59.0, -218.4157672622241, -81.11282018898055, -129.05085782101378, -159.43567501101643, 0.1600000075995922, 0.11200000531971455, 1.008000047877431, 0.0, 0.0, 0.0, 0.0, 0.0, 1.6518363852338247E9, 0.0, 2022-05-06 12:26:25.233
59.0, -250.04036128753796, -185.998314446304, -200.1837549782358, -181.80027674604207, 0.1600000075995922, 0.11200000531971455, 1.008000047877431, 0.0, 0.0, 0.0, 0.0, 0.0, 1.6518363852338247E9, 0.0, 2022-05-06 12:26:25.233
60.0, -276.2607998768799, -205.31115781748667, -209.3801689692773, -196.5018234718591, 0.1600000075995922, 0.11200000531971455, 1.008000047877431, 0.0, 0.0, 0.0, 0.0, 0.0, 1.6518363852488215E9, 0.0, 2022-05-06 12:26:25.248
60.0, -238.08016122924164, -93.4320506430231, -137.22627912415192, -163.1905345665291, 0.1600000075995922, 0.11200000531971455, 1.008000047877431, 0.0, 0.0, 0.0, 0.0, 0.0, 1.6518363852488215E9, 0.0, 2022-05-06 12:26:25.248
61.0, -203.54592503840104, -71.05996910808608, -115.46380128199235, -148.78443993721157, 0.1600000075995922, 0.11200000531971455, 1.008000047877431, 0.0, 0.0, 0.0, 0.0, 0.0, 1.6518363852497654E9, 0.0, 2022-05-06 12:26:25.249
61.0, -245.0625544465147, -175.88936486607417, -193.99422055156901, -181.53848374914378, 0.1600000075995922, 0.11200000531971455, 1.008000047877431, 0.0, 0.0, 0.0, 0.0, 0.0, 1.6518363852497654E9, 0.0, 2022-05-06 12:26:25.249
62.0, -297.2004997287877, -216.37378188641742, -225.73849137546495, -214.04943406395614, 0.1600000075995922, 0.11200000531971455, 1.008000047877431, 0.0, 0.0, 0.0, 0.0, 0.0, 1.6518363852638192E9, 0.0, 2022-05-06 12:26:25.263
62.0, -248.06943401088938, -105.4745285003446, -143.7898035463877, -168.61712940223515, 0.1600000075995922, 0.11200000531971455, 1.008000047877431, 0.0, 0.0, 0.0, 0.0, 0.0, 1.6518363852638192E9, 0.0, 2022-05-06 12:26:25.263
63.0, -211.73630594136193, -70.58874171366915, -119.12890323856845, -144.90616368316114, 0.1600000075995922, 0.11200000531971455, 1.008000047877431, 0.0, 0.0, 0.0, 0.0, 0.0, 1.6518363852647862E9, 0.0, 2022-05-06 12:26:25.264
63.0, -265.4487491049804, -188.37315091816708, -205.90580191044137, -196.89825286716223, 0.1600000075995922, 0.11200000531971455, 1.008000047877431, 0.0, 0.0, 0.0, 0.0, 0.0, 1.6518363852647862E9, 0.0, 2022-05-06 12:26:25.264
64.0, -285.0420849728398, -206.84077689936385, -213.2322659236379, -203.353320190683, 0.1600000075995922, 0.11200000531971455, 1.008000047877431, 0.0, 0.0, 0.0, 0.0, 0.0, 1.651836385278827E9, 0.0, 2022-05-06 12:26:25.278
64.0, -230.0505960243754, -88.59636000031605, -128.0373449330218, -156.3315580477938, 0.1600000075995922, 0.11200000531971455, 1.008000047877431, 0.0, 0.0, 0.0, 0.0, 0.0, 1.651836385278827E9, 0.0, 2022-05-06 12:26:25.278
65.0, -199.82472458248958, -69.47799142682925, -111.95203522359952, -140.9942283295095, 0.1600000075995922, 0.11200000531971455, 1.008000047877431, 0.0, 0.0, 0.0, 0.0, 0.0, 1.6518363852939067E9, 0.0, 2022-05-06 12:26:25.293
65.0, -256.2186760143377, -189.86911090044305, -206.79215819993988, -195.2377372868359, 0.1600000075995922, 0.11200000531971455, 1.008000047877431, 0.0, 0.0, 0.0, 0.0, 0.0, 1.6518363852939067E9, 0.0, 2022-05-06 12:26:25.293
66.0, -285.4572138679214, -213.92040751548484, -219.7546514463611, -206.20312395691872, 0.1600000075995922, 0.11200000531971455, 1.008000047877431, 0.0, 0.0, 0.0, 0.0, 0.0, 1.651836385294792E9, 0.0, 2022-05-06 12:26:25.294
66.0, -223.2402382050641, -89.30320109194145, -122.86506329430267, -159.06542491540313, 0.1600000075995922, 0.11200000531971455, 1.008000047877431, 0.0, 0.0, 0.0, 0.0, 0.0, 1.651836385294792E9, 0.0, 2022-05-06 12:26:25.294
67.0, -210.31140405824408, -79.07457471312955, -129.09199672052637, -151.8474180009216, 0.1600000075995922, 0.11200000531971455, 1.008000047877431, 0.0, 0.0, 0.0, 0.0, 0.0, 1.6518363853088284E9, 0.0, 2022-05-06 12:26:25.308
67.0, -251.2146898736246, -176.8841782542877, -194.0727584506385, -182.29020364023745, 0.1600000075995922, 0.11200000531971455, 1.008000047877431, 0.0, 0.0, 0.0, 0.0, 0.0, 1.6518363853088284E9, 0.0, 2022-05-06 12:26:25.308
68.0, -280.3746898281388, -208.57983037875965, -208.07120398478583, -190.92563263792545, 0.1600000075995922, 0.11200000531971455, 1.008000047877431, 0.0, 0.0, 0.0, 0.0, 0.0, 1.651836385323904E9, 0.0, 2022-05-06 12:26:25.323
68.0, -235.6866252576001, -96.49876860668883, -136.42968043358997, -149.7007154263556, 0.1600000075995922, 0.11200000531971455, 1.008000047877431, 0.0, 0.0, 0.0, 0.0, 0.0, 1.651836385323904E9, 0.0, 2022-05-06 12:26:25.323
69.0, -199.50309318630025, -67.73519804747775, -115.89388977689669, -153.53411288093776, 0.1600000075995922, 0.11200000531971455, 1.008000047877431, 0.0, 0.0, 0.0, 0.0, 0.0, 1.6518363853247845E9, 0.0, 2022-05-06 12:26:25.324
69.0, -253.18561715027317, -192.39728327048942, -212.20753333577886, -194.92732559051365, 0.1600000075995922, 0.11200000531971455, 1.008000047877431, 0.0, 0.0, 0.0, 0.0, 0.0, 1.6518363853247845E9, 0.0, 2022-05-06 12:26:25.324
70.0, -293.54287757212296, -229.19415893452242, -231.5727353063412, -221.0654863808304, 0.1600000075995922, 0.11200000531971455, 1.008000047877431, 0.0, 0.0, 0.0, 0.0, 0.0, 1.6518363853548968E9, 0.0, 2022-05-06 12:26:25.354
70.0, -245.649718739558, -99.7674411679618, -134.88884165184572, -167.1548285195604, 0.1600000075995922, 0.11200000531971455, 1.008000047877431, 0.0, 0.0, 0.0, 0.0, 0.0, 1.6518363853548968E9, 0.0, 2022-05-06 12:26:25.354
71.0, -199.6339896847494, -69.54904952598736, -115.29176588403061, -135.1001459993422, 0.1600000075995922, 0.11200000531971455, 1.008000047877431, 0.0, 0.0, 0.0, 0.0, 0.0, 1.6518363853558064E9, 0.0, 2022-05-06 12:26:25.355
71.0, -259.86881837109104, -194.28593274811283, -206.9641935979016, -194.28780269809067, 0.1600000075995922, 0.11200000531971455, 1.008000047877431, 0.0, 0.0, 0.0, 0.0, 0.0, 1.6518363853558064E9, 0.0, 2022-05-06 12:26:25.355
72.0, -290.31908381031826, -212.72737942961976, -220.81304313382134, -207.04086154699326, 0.17600000835955143, 0.11200000531971455, 1.008000047877431, 0.0, 0.0, 0.0, 0.0, 0.0, 1.6518363853567784E9, 0.0, 2022-05-06 12:26:25.356
72.0, -232.11502079991624, -88.65993829956278, -131.6351286903955, -163.79265845939517, 0.17600000835955143, 0.11200000531971455, 1.008000047877431, 0.0, 0.0, 0.0, 0.0, 0.0, 1.6518363853567784E9, 0.0, 2022-05-06 12:26:25.356
73.0, -211.92330093914643, -72.4250325919129, -120.65852232044563, -154.8879566648975, 0.17600000835955143, 0.11200000531971455, 1.008000047877431, 0.0, 0.0, 0.0, 0.0, 0.0, 1.6518363853849149E9, 0.0, 2022-05-06 12:26:25.384
73.0, -251.25956867309287, -190.2244013962336, -205.7449862123467, -193.89137330278754, 0.17600000835955143, 0.11200000531971455, 1.008000047877431, 0.0, 0.0, 0.0, 0.0, 0.0, 1.6518363853849149E9, 0.0, 2022-05-06 12:26:25.384
74.0, -288.09384333668277, -214.6010693074204, -227.3503882563673, -213.30519397277385, 0.17600000835955143, 0.11200000531971455, 1.008000047877431, 0.0, 0.0, 0.0, 0.0, 0.0, 1.6518363853857713E9, 0.0, 2022-05-06 12:26:25.385
74.0, -241.45355098927394, -93.83221993828192, -137.8957212162204, -162.64076927304268, 0.17600000835955143, 0.11200000531971455, 1.008000047877431, 0.0, 0.0, 0.0, 0.0, 0.0, 1.6518363853857713E9, 0.0, 2022-05-06 12:26:25.385
75.0, -211.9756595385261, -75.16263935947791, -125.82706405920908, -148.79565963707864, 0.17600000835955143, 0.11200000531971455, 1.008000047877431, 0.0, 0.0, 0.0, 0.0, 0.0, 1.651836385398846E9, 0.0, 2022-05-06 12:26:25.398
75.0, -249.82344709010795, -187.98420132277533, -202.3715964523144, -184.73983811121434, 0.17600000835955143, 0.11200000531971455, 1.008000047877431, 0.0, 0.0, 0.0, 0.0, 0.0, 1.651836385398846E9, 0.0, 2022-05-06 12:26:25.398
76.0, -276.4178756750189, -207.99640598567203, -210.31514395819977, -188.9098265618086, 0.17600000835955143, 0.11200000531971455, 1.008000047877431, 0.0, 0.0, 0.0, 0.0, 0.0, 1.651836385399792E9, 0.0, 2022-05-06 12:26:25.399
76.0, -241.15061909286305, -92.75886865099892, -128.62824912602082, -156.21562114916742, 0.17600000835955143, 0.11200000531971455, 1.008000047877431, 0.0, 0.0, 0.0, 0.0, 0.0, 1.651836385399792E9, 0.0, 2022-05-06 12:26:25.399
77.0, -200.28847217699513, -62.757391206454486, -108.85165816033259, -131.09097324684262, 0.17600000835955143, 0.11200000531971455, 1.008000047877431, 0.0, 0.0, 0.0, 0.0, 0.0, 1.6518363854138217E9, 0.0, 2022-05-06 12:26:25.413
77.0, -245.31312774354592, -178.4773756354116, -199.51431288616732, -190.0953748477623, 0.17600000835955143, 0.11200000531971455, 1.008000047877431, 0.0, 0.0, 0.0, 0.0, 0.0, 1.6518363854138217E9, 0.0, 2022-05-06 12:26:25.413
78.0, -284.1968675828539, -211.7811847408302, -211.90834133932367, -197.96786425448954, 0.17600000835955143, 0.11200000531971455, 1.008000047877431, 0.0, 0.0, 0.0, 0.0, 0.0, 1.6518363854147573E9, 0.0, 2022-05-06 12:26:25.414
78.0, -236.92079224297777, -87.48186981352046, -120.36307022394612, -139.3299728492275, 0.17600000835955143, 0.11200000531971455, 1.008000047877431, 0.0, 0.0, 0.0, 0.0, 0.0, 1.6518363854147573E9, 0.0, 2022-05-06 12:26:25.414
79.0, -210.50213895598426, -82.01413607830182, -130.24014600692317, -152.8908500885591, 0.17600000835955143, 0.11200000531971455, 1.008000047877431, 0.0, 0.0, 0.0, 0.0, 0.0, 1.651836385428883E9, 0.0, 2022-05-06 12:26:25.428
79.0, -263.9901881222613, -198.85983039392158, -217.38729477440938, -211.56988039333373, 0.17600000835955143, 0.11200000531971455, 1.008000047877431, 0.0, 0.0, 0.0, 0.0, 0.0, 1.651836385428883E9, 0.0, 2022-05-06 12:26:25.428
80.0, -291.3886951976456, -216.51215818477795, -230.73125781631097, -217.82673301920295, 0.17600000835955143, 0.11200000531971455, 1.008000047877431, 0.0, 0.0, 0.0, 0.0, 0.0, 1.6518363854438229E9, 0.0, 2022-05-06 12:26:25.443
80.0, -232.35811429703608, -97.38886479614303, -130.55055770324543, -161.5973371854052, 0.17600000835955143, 0.11200000531971455, 1.008000047877431, 0.0, 0.0, 0.0, 0.0, 0.0, 1.6518363854438229E9, 0.0, 2022-05-06 12:26:25.443
81.0, -207.8991685868241, -70.26711031747982, -122.99221989279613, -146.42456306517124, 0.17600000835955143, 0.11200000531971455, 1.008000047877431, 0.0, 0.0, 0.0, 0.0, 0.0, 1.6518363854448016E9, 0.0, 2022-05-06 12:26:25.444
81.0, -264.524993815925, -198.83365109423175, -214.3430162104778, -200.11082692909986, 0.17600000835955143, 0.11200000531971455, 1.008000047877431, 0.0, 0.0, 0.0, 0.0, 0.0, 1.6518363854448016E9, 0.0, 2022-05-06 12:26:25.444
82.0, -279.46589413890615, -204.10317013179883, -207.97770648589358, -193.67071920540184, 0.1600000075995922, 0.11200000531971455, 1.008000047877431, 0.0, 0.0, 0.0, 0.0, 0.0, 1.651836385458849E9, 0.0, 2022-05-06 12:26:25.458
82.0, -230.43580571981147, -87.14153891755268, -125.00054616900161, -165.8234241353348, 0.1600000075995922, 0.11200000531971455, 1.008000047877431, 0.0, 0.0, 0.0, 0.0, 0.0, 1.651836385458849E9, 0.0, 2022-05-06 12:26:25.458
83.0, -216.91232748003677, -75.2374373585917, -127.3753826408647, -150.50105401687324, 0.1600000075995922, 0.11200000531971455, 1.008000047877431, 0.0, 0.0, 0.0, 0.0, 0.0, 1.6518363854738395E9, 0.0, 2022-05-06 12:26:25.473
83.0, -255.8446860187687, -195.54627903318033, -207.73835288872942, -191.77085002791137, 0.1600000075995922, 0.11200000531971455, 1.008000047877431, 0.0, 0.0, 0.0, 0.0, 0.0, 1.6518363854738395E9, 0.0, 2022-05-06 12:26:25.473
84.0, -279.27889914112166, -211.8260635402985, -217.98941866727546, -207.48964954167604, 0.1600000075995922, 0.11200000531971455, 1.008000047877431, 0.0, 0.0, 0.0, 0.0, 0.0, 1.651836385474922E9, 0.0, 2022-05-06 12:26:25.474
84.0, -236.38224664935842, -93.29741424461827, -133.10116947302595, -163.4111886639148, 0.1600000075995922, 0.11200000531971455, 1.008000047877431, 0.0, 0.0, 0.0, 0.0, 0.0, 1.651836385474922E9, 0.0, 2022-05-06 12:26:25.474
85.0, -217.83982266904786, -78.65196601813659, -122.88750269403681, -153.35833758302033, 0.1600000075995922, 0.11200000531971455, 1.008000047877431, 0.0, 0.0, 0.0, 0.0, 0.0, 1.6518363854888966E9, 0.0, 2022-05-06 12:26:25.488
85.0, -251.46526317065582, -183.80299317231402, -200.23611357761547, -187.72801817581058, 0.1600000075995922, 0.11200000531971455, 1.008000047877431, 0.0, 0.0, 0.0, 0.0, 0.0, 1.6518363854888966E9, 0.0, 2022-05-06 12:26:25.488
86.0, -280.565424725879, -213.73341251770034, -220.58116933656856, -207.29891464393586, 0.1600000075995922, 0.11200000531971455, 1.008000047877431, 0.0, 0.0, 0.0, 0.0, 0.0, 1.6518363855038297E9, 0.0, 2022-05-06 12:26:25.503
86.0, -235.73150405706838, -88.58514030044898, -124.69387437263504, -150.04852612223476, 0.1600000075995922, 0.11200000531971455, 1.008000047877431, 0.0, 0.0, 0.0, 0.0, 0.0, 1.6518363855038297E9, 0.0, 2022-05-06 12:26:25.503
87.0, -185.2129354556091, -55.86849548807368, -102.26195443840697, -128.22246998082846, 0.1600000075995922, 0.11200000531971455, 1.008000047877431, 0.0, 0.0, 0.0, 0.0, 0.0, 1.6518363855048008E9, 0.0, 2022-05-06 12:26:25.504
87.0, -263.5937587269582, -196.0773448268883, -210.13188886037096, -199.2469100393355, 0.1600000075995922, 0.11200000531971455, 1.008000047877431, 0.0, 0.0, 0.0, 0.0, 0.0, 1.6518363855048008E9, 0.0, 2022-05-06 12:26:25.504
88.0, -291.2615385991521, -211.2314194473438, -215.07229670183733, -207.37371264304966, 0.1600000075995922, 0.11200000531971455, 1.008000047877431, 0.0, 0.0, 0.0, 0.0, 0.0, 1.651836385518834E9, 0.0, 2022-05-06 12:26:25.518
88.0, -231.4268792080693, -88.81327419774607, -123.02213909244165, -154.65234296768904, 0.1600000075995922, 0.11200000531971455, 1.008000047877431, 0.0, 0.0, 0.0, 0.0, 0.0, 1.651836385518834E9, 0.0, 2022-05-06 12:26:25.518
89.0, -207.46534019196406, -76.4229856445454, -123.39238918805495, -146.31236606650054, 0.1600000075995922, 0.11200000531971455, 1.008000047877431, 0.0, 0.0, 0.0, 0.0, 0.0, 1.6518363855339775E9, 0.0, 2022-05-06 12:26:25.533
89.0, -254.37116543622687, -197.02727941563353, -210.34880305780098, -190.66757954098284, 0.1600000075995922, 0.11200000531971455, 1.008000047877431, 0.0, 0.0, 0.0, 0.0, 0.0, 1.6518363855339775E9, 0.0, 2022-05-06 12:26:25.533
90.0, -277.4912269623019, -202.9325814456679, -205.5654710144736, -184.9043937092647, 0.1600000075995922, 0.11200000531971455, 1.008000047877431, 0.0, 0.0, 0.0, 0.0, 0.0, 1.6518363855347583E9, 0.0, 2022-05-06 12:26:25.534
90.0, -239.0226160180755, -106.30852619046345, -135.06835684971884, -160.93911479320377, 0.1600000075995922, 0.11200000531971455, 1.008000047877431, 0.0, 0.0, 0.0, 0.0, 0.0, 1.6518363855347583E9, 0.0, 2022-05-06 12:26:25.534
91.0, -206.006779209245, -85.3576066386886, -129.5220852154307, -141.398137524724, 0.1600000075995922, 0.11200000531971455, 1.008000047877431, 0.0, 0.0, 0.0, 0.0, 0.0, 1.6518363855488303E9, 0.0, 2022-05-06 12:26:25.548
91.0, -251.99632896436378, -187.8495649243705, -208.3816156811081, -202.94193119555712, 0.1600000075995922, 0.11200000531971455, 1.008000047877431, 0.0, 0.0, 0.0, 0.0, 0.0, 1.6518363855488303E9, 0.0, 2022-05-06 12:26:25.548
92.0, -276.7395070712082, -201.50767956255004, -211.45955334464088, -207.0296418471262, 0.1600000075995922, 0.11200000531971455, 1.008000047877431, 0.0, 0.0, 0.0, 0.0, 0.0, 1.65183638556385E9, 0.0, 2022-05-06 12:26:25.563
92.0, -232.06640210049227, -90.05492098303512, -126.40300865238532, -163.54208516236395, 0.1600000075995922, 0.11200000531971455, 1.008000047877431, 0.0, 0.0, 0.0, 0.0, 0.0, 1.65183638556385E9, 0.0, 2022-05-06 12:26:25.563
93.0, -204.47342022741213, -65.68573287175968, -119.40191593533382, -146.49562116432935, 0.1600000075995922, 0.11200000531971455, 1.008000047877431, 0.0, 0.0, 0.0, 0.0, 0.0, 1.6518363855648E9, 0.0, 2022-05-06 12:26:25.564
93.0, -250.79208117863163, -184.40885696513578, -201.58621746161953, -191.97280462551862, 0.1600000075995922, 0.11200000531971455, 1.008000047877431, 0.0, 0.0, 0.0, 0.0, 0.0, 1.6518363855648E9, 0.0, 2022-05-06 12:26:25.564
94.0, -281.3657633163966, -215.68564029457048, -216.55703698424622, -212.79656757880002, 0.1600000075995922, 0.11200000531971455, 1.008000047877431, 0.0, 0.0, 0.0, 0.0, 0.0, 1.6518363855788522E9, 0.0, 2022-05-06 12:26:25.578
94.0, -232.85178109118715, -88.59636000031605, -122.19936110218987, -160.26967270113528, 0.1600000075995922, 0.11200000531971455, 1.008000047877431, 0.0, 0.0, 0.0, 0.0, 0.0, 1.6518363855788522E9, 0.0, 2022-05-06 12:26:25.578
95.0, -195.41912243468687, -62.727472006808966, -108.31311256671324, -130.12981895823032, 0.1600000075995922, 0.11200000531971455, 1.008000047877431, 0.0, 0.0, 0.0, 0.0, 0.0, 1.6518363855938296E9, 0.0, 2022-05-06 12:26:25.593
95.0, -242.60170027567074, -180.7661944082938, -198.49332019826397, -175.1170755252242, 0.1600000075995922, 0.11200000531971455, 1.008000047877431, 0.0, 0.0, 0.0, 0.0, 0.0, 1.6518363855938296E9, 0.0, 2022-05-06 12:26:25.593
96.0, -278.9722273447551, -202.94754104549065, -211.2314194473438, -201.74516320973635, 0.1600000075995922, 0.11200000531971455, 1.008000047877431, 0.0, 0.0, 0.0, 0.0, 0.0, 1.6518363855948489E9, 0.0, 2022-05-06 12:26:25.594
96.0, -239.54620201187208, -103.8813311192207, -142.05448996694759, -172.81703705247492, 0.1600000075995922, 0.11200000531971455, 1.008000047877431, 0.0, 0.0, 0.0, 0.0, 0.0, 1.6518363855948489E9, 0.0, 2022-05-06 12:26:25.594
97.0, -204.7875718236901, -74.77368976408616, -113.2198613085784, -138.7315888563171, 0.1600000075995922, 0.11200000531971455, 1.008000047877431, 0.0, 0.0, 0.0, 0.0, 0.0, 1.6518363856088467E9, 0.0, 2022-05-06 12:26:25.608
97.0, -256.67868370888755, -193.61649065604433, -207.27086539426818, -186.9800381846726, 0.1600000075995922, 0.11200000531971455, 1.008000047877431, 0.0, 0.0, 0.0, 0.0, 0.0, 1.6518363856088467E9, 0.0, 2022-05-06 12:26:25.608
98.0, -280.61778332525864, -212.25241213524714, -215.36774879833683, -206.55093465279788, 0.1600000075995922, 0.11200000531971455, 1.008000047877431, 0.0, 0.0, 0.0, 0.0, 0.0, 1.6518363856238406E9, 0.0, 2022-05-06 12:26:25.623
98.0, -230.32360872114077, -87.18267781706527, -123.10067699151114, -149.9587685232982, 0.1600000075995922, 0.11200000531971455, 1.008000047877431, 0.0, 0.0, 0.0, 0.0, 0.0, 1.6518363856238406E9, 0.0, 2022-05-06 12:26:25.623
99.0, -192.8498111651279, -65.51743737375364, -107.9204230713658, -126.15804520528764, 0.1600000075995922, 0.11200000531971455, 1.008000047877431, 0.0, 0.0, 0.0, 0.0, 0.0, 1.6518363856247811E9, 0.0, 2022-05-06 12:26:25.624
99.0, -249.66263139201328, -177.72565574431792, -192.67403586721048, -167.7083337130025, 0.1600000075995922, 0.11200000531971455, 1.008000047877431, 0.0, 0.0, 0.0, 0.0, 0.0, 1.6518363856247811E9, 0.0, 2022-05-06 12:26:25.624
100.0, -274.35345089947805, -206.79963799985126, -213.4192609214224, -207.18297774530947, 0.1600000075995922, 0.11200000531971455, 1.008000047877431, 0.0, 0.0, 0.0, 0.0, 0.0, 1.6518363856388896E9, 0.0, 2022-05-06 12:26:25.638
100.0, -243.503016164992, -97.82269319100305, -137.23749882401899, -180.21455916482955, 0.1600000075995922, 0.11200000531971455, 1.008000047877431, 0.0, 0.0, 0.0, 0.0, 0.0, 1.6518363856388896E9, 0.0, 2022-05-06 12:26:25.638
0.0, -197.21801431337371, -69.85572132235393, -113.02538651088253, -139.1018389519304, 0.1600000075995922, 0.11200000531971455, 1.008000047877431, 0.0, 0.0, 0.0, 0.0, 0.0, 1.6518363856398792E9, 0.0, 2022-05-06 12:26:25.639
1.0, -259.35271217720583, -197.86875690566376, -208.1160827842541, -189.7961828513071, 0.1600000075995922, 0.11200000531971455, 1.008000047877431, 0.0, 0.0, 0.0, 0.0, 0.0, 1.651836385653895E9, 0.0, 2022-05-06 12:26:25.653
1.0, -284.2342665824108, -200.73726017167792, -211.7138665416278, -197.73973035719246, 0.1600000075995922, 0.11200000531971455, 1.008000047877431, 0.0, 0.0, 0.0, 0.0, 0.0, 1.651836385653895E9, 0.0, 2022-05-06 12:26:25.653
2.0, -217.72388577042148, -79.25408991100267, -121.36910331202671, -155.3666638592258, 0.1600000075995922, 0.11200000531971455, 1.008000047877431, 0.0, 0.0, 0.0, 0.0, 0.0, 1.6518363856688347E9, 0.0, 2022-05-06 12:26:25.668
2.0, -216.68419358273968, -90.2119967811741, -137.24123872397467, -167.47272001579404, 0.1600000075995922, 0.11200000531971455, 1.008000047877431, 0.0, 0.0, 0.0, 0.0, 0.0, 1.6518363856688347E9, 0.0, 2022-05-06 12:26:25.668
3.0, -249.11286609852687, -182.60248528653756, -201.47028056299314, -184.89691390935332, 0.1600000075995922, 0.11200000531971455, 1.008000047877431, 0.0, 0.0, 0.0, 0.0, 0.0, 1.651836385669866E9, 0.0, 2022-05-06 12:26:25.669
3.0, -276.80308537045494, -203.72544023627415, -212.09907623706385, -197.77712935674936, 0.1600000075995922, 0.11200000531971455, 1.008000047877431, 0.0, 0.0, 0.0, 0.0, 0.0, 1.651836385669866E9, 0.0, 2022-05-06 12:26:25.669
4.0, -232.21225819876418, -96.41275090770796, -132.20359348366037, -160.61748339701444, 0.1600000075995922, 0.11200000531971455, 1.008000047877431, 0.0, 0.0, 0.0, 0.0, 0.0, 1.6518363856838455E9, 0.0, 2022-05-06 12:26:25.683
4.0, -200.8943359698169, -75.32719495752826, -115.9612079760991, -147.4081567535177, 0.1600000075995922, 0.11200000531971455, 1.008000047877431, 0.0, 0.0, 0.0, 0.0, 0.0, 1.6518363856838455E9, 0.0, 2022-05-06 12:26:25.683
5.0, -255.78484761947766, -196.67946871975437, -202.50997275067493, -183.13916093017906, 0.1600000075995922, 0.11200000531971455, 1.008000047877431, 0.0, 0.0, 0.0, 0.0, 0.0, 1.6518363856999183E9, 0.0, 2022-05-06 12:26:25.699
5.0, -269.82443205313757, -200.1500958786346, -211.03694464964792, -201.11312011722475, 0.1600000075995922, 0.11200000531971455, 1.008000047877431, 0.0, 0.0, 0.0, 0.0, 0.0, 1.6518363856999183E9, 0.0, 2022-05-06 12:26:25.699
6.0, -213.88674841588363, -85.9859098312445, -124.27126567764208, -162.68564807251096, 0.1600000075995922, 0.11200000531971455, 1.008000047877431, 0.0, 0.0, 0.0, 0.0, 0.0, 1.65183638571389E9, 0.0, 2022-05-06 12:26:25.713
6.0, -217.61168877175078, -85.06589444214478, -124.20394747843966, -145.53072697576135, 0.1600000075995922, 0.11200000531971455, 1.008000047877431, 0.0, 0.0, 0.0, 0.0, 0.0, 1.65183638571389E9, 0.0, 2022-05-06 12:26:25.713
7.0, -261.0693262568675, -191.50344718107954, -209.16325477184728, -192.58240831829607, 0.1600000075995922, 0.11200000531971455, 1.008000047877431, 0.0, 0.0, 0.0, 0.0, 0.0, 1.6518363857148356E9, 0.0, 2022-05-06 12:26:25.714
7.0, -279.1143435430713, -200.27351257717237, -201.3356441645883, -194.2391839986667, 0.1600000075995922, 0.11200000531971455, 1.008000047877431, 0.0, 0.0, 0.0, 0.0, 0.0, 1.6518363857148356E9, 0.0, 2022-05-06 12:26:25.714
8.0, -234.54595577111468, -95.11126572312787, -128.58711022650823, -162.1882413784042, 0.1600000075995922, 0.11200000531971455, 1.008000047877431, 0.0, 0.0, 0.0, 0.0, 0.0, 1.6518363857449024E9, 0.0, 2022-05-06 12:26:25.744
8.0, -209.14081537211314, -81.25493638729677, -125.25859926594421, -150.93862231168896, 0.1600000075995922, 0.11200000531971455, 1.008000047877431, 0.0, 0.0, 0.0, 0.0, 0.0, 1.6518363857449024E9, 0.0, 2022-05-06 12:26:25.744
9.0, -250.59012658102438, -186.18904934404418, -196.98614051612094, -178.09029598999768, 0.1600000075995922, 0.11200000531971455, 1.008000047877431, 0.0, 0.0, 0.0, 0.0, 0.0, 1.6518363857457905E9, 0.0, 2022-05-06 12:26:25.745
9.0, -274.4843473979272, -199.45821438683197, -202.97372034518048, -189.60170805361122, 0.1600000075995922, 0.11200000531971455, 1.008000047877431, 0.0, 0.0, 0.0, 0.0, 0.0, 1.6518363857457905E9, 0.0, 2022-05-06 12:26:25.745
10.0, -235.5407691593282, -87.8035012097098, -126.7844784478657, -153.12646378576756, 0.1600000075995922, 0.11200000531971455, 1.008000047877431, 0.0, 0.0, 0.0, 0.0, 0.0, 1.6518363857467773E9, 0.0, 2022-05-06 12:26:25.746
10.0, -208.08990348456427, -73.13935348344967, -121.24194671353325, -135.0627469997853, 0.1600000075995922, 0.11200000531971455, 1.008000047877431, 0.0, 0.0, 0.0, 0.0, 0.0, 1.6518363857467773E9, 0.0, 2022-05-06 12:26:25.746
11.0, -255.2911808253266, -183.8441320718266, -206.66500160144642, -195.14049988798797, 0.1600000075995922, 0.11200000531971455, 1.008000047877431, 0.0, 0.0, 0.0, 0.0, 0.0, 1.6518363857588232E9, 0.0, 2022-05-06 12:26:25.758
11.0, -283.411488592159, -219.21984575269744, -222.98966490803286, -218.52983421087265, 0.1600000075995922, 0.11200000531971455, 1.008000047877431, 0.0, 0.0, 0.0, 0.0, 0.0, 1.6518363857588232E9, 0.0, 2022-05-06 12:26:25.758
12.0, -253.6157056451775, -108.12237766897306, -150.974151361268, -186.7893032869324, 0.1600000075995922, 0.11200000531971455, 1.008000047877431, 0.0, 0.0, 0.0, 0.0, 0.0, 1.6518363857597723E9, 0.0, 2022-05-06 12:26:25.759
12.0, -205.8945822105743, -78.21813762327656, -123.6317427852191, -147.01920715812594, 0.1600000075995922, 0.11200000531971455, 1.008000047877431, 0.0, 0.0, 0.0, 0.0, 0.0, 1.6518363857597723E9, 0.0, 2022-05-06 12:26:25.759
13.0, -266.41738319350407, -198.31006510043517, -207.42794119240716, -189.93455914966762, 0.1600000075995922, 0.11200000531971455, 1.008000047877431, 0.0, 0.0, 0.0, 0.0, 0.0, 1.6518363857738202E9, 0.0, 2022-05-06 12:26:25.773
13.0, -289.0774370250292, -214.9376603034325, -219.51903774915263, -201.15799891669303, 0.1600000075995922, 0.11200000531971455, 1.008000047877431, 0.0, 0.0, 0.0, 0.0, 0.0, 1.6518363857738202E9, 0.0, 2022-05-06 12:26:25.773
14.0, -241.19175799237564, -95.77696791524068, -139.91526719229296, -166.43676772806793, 0.1600000075995922, 0.11200000531971455, 1.008000047877431, 0.0, 0.0, 0.0, 0.0, 0.0, 1.651836385788818E9, 0.0, 2022-05-06 12:26:25.788
14.0, -217.50697157299146, -81.82340118056163, -129.28273161826655, -147.08652535732836, 0.1600000075995922, 0.11200000531971455, 1.008000047877431, 0.0, 0.0, 0.0, 0.0, 0.0, 1.651836385788818E9, 0.0, 2022-05-06 12:26:25.788
15.0, -263.0028545339592, -192.00833367509767, -209.0024390737526, -192.78436291590333, 0.1600000075995922, 0.11200000531971455, 1.008000047877431, 0.0, 0.0, 0.0, 0.0, 0.0, 1.6518363857897675E9, 0.0, 2022-05-06 12:26:25.789
15.0, -290.5247783078812, -214.84042290458456, -219.59383574826643, -203.17754489276558, 0.1600000075995922, 0.11200000531971455, 1.008000047877431, 0.0, 0.0, 0.0, 0.0, 0.0, 1.6518363857897675E9, 0.0, 2022-05-06 12:26:25.789
16.0, -241.6181065873243, -93.06928034732118, -132.72717947745696, -173.43786044511944, 0.1600000075995922, 0.11200000531971455, 1.008000047877431, 0.0, 0.0, 0.0, 0.0, 0.0, 1.651836385803914E9, 0.0, 2022-05-06 12:26:25.803
16.0, -196.35409742360935, -69.76222382346168, -119.56273163342848, -142.1049786163494, 0.1600000075995922, 0.11200000531971455, 1.008000047877431, 0.0, 0.0, 0.0, 0.0, 0.0, 1.651836385803914E9, 0.0, 2022-05-06 12:26:25.803
17.0, -276.23836047714576, -205.45701391575858, -219.3432624512352, -198.5737280473113, 0.1600000075995922, 0.11200000531971455, 1.008000047877431, 0.0, 0.0, 0.0, 0.0, 0.0, 1.651836385818826E9, 0.0, 2022-05-06 12:26:25.818
17.0, -287.80587104009464, -214.90774110378698, -220.0463636429049, -206.81646754965186, 0.1600000075995922, 0.11200000531971455, 1.008000047877431, 0.0, 0.0, 0.0, 0.0, 0.0, 1.651836385818826E9, 0.0, 2022-05-06 12:26:25.818
18.0, -243.129026169423, -87.70252391090617, -130.1204692083411, -156.9972602399066, 0.1600000075995922, 0.11200000531971455, 1.008000047877431, 0.0, 0.0, 0.0, 0.0, 0.0, 1.6518363858197708E9, 0.0, 2022-05-06 12:26:25.819
18.0, -213.55763721978292, -71.95754509745166, -124.42086167586967, -145.60552497487515, 0.1600000075995922, 0.11200000531971455, 1.008000047877431, 0.0, 0.0, 0.0, 0.0, 0.0, 1.6518363858197708E9, 0.0, 2022-05-06 12:26:25.819
19.0, -267.12422428512946, -197.7042013076134, -213.3070639227517, -196.32604817394167, 0.1600000075995922, 0.11200000531971455, 1.008000047877431, 0.0, 0.0, 0.0, 0.0, 0.0, 1.6518363858339007E9, 0.0, 2022-05-06 12:26:25.833
19.0, -285.6703881653957, -203.40380884008482, -211.9719196385704, -205.48132326547056, 0.1600000075995922, 0.11200000531971455, 1.008000047877431, 0.0, 0.0, 0.0, 0.0, 0.0, 1.6518363858339007E9, 0.0, 2022-05-06 12:26:25.833
20.0, -233.36414738511667, -86.90218532038853, -125.50543266301975, -150.9199228119105, 0.1600000075995922, 0.11200000531971455, 1.008000047877431, 0.0, 0.0, 0.0, 0.0, 0.0, 1.6518363858648212E9, 0.0, 2022-05-06 12:26:25.864
20.0, -214.94514010334387, -84.45629074936733, -128.84890322340652, -150.72544801421463, 0.1600000075995922, 0.11200000531971455, 1.008000047877431, 0.0, 0.0, 0.0, 0.0, 0.0, 1.6518363858648212E9, 0.0, 2022-05-06 12:26:25.864
21.0, -273.28383951215073, -200.06033827969804, -212.1925737359561, -184.09283541888, 0.1600000075995922, 0.11200000531971455, 1.008000047877431, 0.0, 0.0, 0.0, 0.0, 0.0, 1.6518363858657856E9, 0.0, 2022-05-06 12:26:25.865
21.0, -289.2719118227251, -208.16096158372238, -219.309603351634, -204.29951487947255, 0.1600000075995922, 0.11200000531971455, 1.008000047877431, 0.0, 0.0, 0.0, 0.0, 0.0, 1.6518363858657856E9, 0.0, 2022-05-06 12:26:25.865
22.0, -235.04336246522143, -91.88747196132317, -131.83334338804707, -166.4517273278907, 0.1600000075995922, 0.11200000531971455, 1.008000047877431, 0.0, 0.0, 0.0, 0.0, 0.0, 1.651836385866783E9, 0.0, 2022-05-06 12:26:25.866
22.0, -211.22019974747673, -79.55702180741355, -126.79195824777707, -144.31899939011782, 0.1600000075995922, 0.11200000531971455, 1.008000047877431, 0.0, 0.0, 0.0, 0.0, 0.0, 1.651836385866783E9, 0.0, 2022-05-06 12:26:25.866
23.0, -262.31097304215655, -197.18061531381682, -210.80881075235084, -185.44293930288404, 0.1600000075995922, 0.11200000531971455, 1.008000047877431, 0.0, 0.0, 0.0, 0.0, 0.0, 1.651836385879942E9, 0.0, 2022-05-06 12:26:25.879
23.0, -298.80117690982297, -215.4874255969189, -219.2684644521214, -211.27068839687854, 0.1600000075995922, 0.11200000531971455, 1.008000047877431, 0.0, 0.0, 0.0, 0.0, 0.0, 1.651836385879942E9, 0.0, 2022-05-06 12:26:25.879
24.0, -238.03902232972905, -83.48017686093226, -127.83165043545887, -151.24903400801122, 0.1600000075995922, 0.11200000531971455, 1.008000047877431, 0.0, 0.0, 0.0, 0.0, 0.0, 1.6518363858809345E9, 0.0, 2022-05-06 12:26:25.880
24.0, -209.85139636369422, -73.96213147370145, -119.64126953249797, -142.16107711568475, 0.1600000075995922, 0.11200000531971455, 1.008000047877431, 0.0, 0.0, 0.0, 0.0, 0.0, 1.6518363858809345E9, 0.0, 2022-05-06 12:26:25.880
25.0, -272.7004151190631, -201.27206586534157, -218.3484490630217, -204.9502574717626, 0.1600000075995922, 0.11200000531971455, 1.008000047877431, 0.0, 0.0, 0.0, 0.0, 0.0, 1.6518363858938208E9, 0.0, 2022-05-06 12:26:25.893
25.0, -292.1852938882075, -209.87009586347267, -219.99026514356956, -222.15753716789186, 0.1600000075995922, 0.11200000531971455, 1.008000047877431, 0.0, 0.0, 0.0, 0.0, 0.0, 1.6518363858938208E9, 0.0, 2022-05-06 12:26:25.893
26.0, -227.54112315410748, -80.07686790125445, -120.14615602651611, -150.24300091993064, 0.1600000075995922, 0.11200000531971455, 1.008000047877431, 0.0, 0.0, 0.0, 0.0, 0.0, 1.651836385908836E9, 0.0, 2022-05-06 12:26:25.908
26.0, -212.4207076332532, -83.27074246341363, -129.24907251866534, -153.2984991837293, 0.1600000075995922, 0.11200000531971455, 1.008000047877431, 0.0, 0.0, 0.0, 0.0, 0.0, 1.651836385908836E9, 0.0, 2022-05-06 12:26:25.908
27.0, -262.8794378354214, -195.25082693668082, -216.4934586849995, -195.02456298936158, 0.1600000075995922, 0.11200000531971455, 1.008000047877431, 0.0, 0.0, 0.0, 0.0, 0.0, 1.6518363859099262E9, 0.0, 2022-05-06 12:26:25.909
27.0, -281.6425159131177, -210.1954671596177, -219.28716395189986, -204.5052093770355, 0.1600000075995922, 0.11200000531971455, 1.008000047877431, 0.0, 0.0, 0.0, 0.0, 0.0, 1.6518363859099262E9, 0.0, 2022-05-06 12:26:25.909
28.0, -260.0371138690971, -100.78843385586515, -138.045317214448, -155.09739106241614, 0.1600000075995922, 0.11200000531971455, 1.008000047877431, 0.0, 0.0, 0.0, 0.0, 0.0, 1.6518363859238875E9, 0.0, 2022-05-06 12:26:25.923
28.0, -210.0458711613901, -73.6853788769804, -122.59205059753731, -155.83041145373136, 0.1600000075995922, 0.11200000531971455, 1.008000047877431, 0.0, 0.0, 0.0, 0.0, 0.0, 1.6518363859238875E9, 0.0, 2022-05-06 12:26:25.923
29.0, -263.45164252864197, -191.2154748844914, -205.73750641243532, -192.34305472113192, 0.1600000075995922, 0.11200000531971455, 1.008000047877431, 0.0, 0.0, 0.0, 0.0, 0.0, 1.6518363859709E9, 0.0, 2022-05-06 12:26:25.970
29.0, -300.308356591966, -219.76587114622816, -231.34086150908843, -224.7717272369191, 0.1600000075995922, 0.11200000531971455, 1.008000047877431, 0.0, 0.0, 0.0, 0.0, 0.0, 1.6518363859709E9, 0.0, 2022-05-06 12:26:25.970
30.0, -249.68133089179173, -101.14372435165569, -139.61981509579346, -168.75176580064, 0.1600000075995922, 0.11200000531971455, 1.008000047877431, 0.0, 0.0, 0.0, 0.0, 0.0, 1.651836385971844E9, 0.0, 2022-05-06 12:26:25.971
30.0, -215.5323043963872, -87.48934961343184, -132.38684858148918, -154.1848554732278, 0.1600000075995922, 0.11200000531971455, 1.008000047877431, 0.0, 0.0, 0.0, 0.0, 0.0, 1.651836385971844E9, 0.0, 2022-05-06 12:26:25.971
31.0, -269.28214655956253, -206.21247370680794, -216.0446706903167, -199.25064993929118, 0.1600000075995922, 0.11200000531971455, 1.008000047877431, 0.0, 0.0, 0.0, 0.0, 0.0, 1.6518363859728248E9, 0.0, 2022-05-06 12:26:25.972
31.0, -276.6647090720944, -204.8174910233356, -210.92474765097722, -200.85880692023784, 0.1600000075995922, 0.11200000531971455, 1.008000047877431, 0.0, 0.0, 0.0, 0.0, 0.0, 1.6518363859728248E9, 0.0, 2022-05-06 12:26:25.972
32.0, -242.26884917961434, -94.69987672800198, -136.86724872840568, -167.62979581393301, 0.1600000075995922, 0.11200000531971455, 1.008000047877431, 0.0, 0.0, 0.0, 0.0, 0.0, 1.6518363859738564E9, 0.0, 2022-05-06 12:26:25.973
32.0, -221.42638672655448, -83.00520956655964, -126.3356904531829, -143.80289319623262, 0.1600000075995922, 0.11200000531971455, 1.008000047877431, 0.0, 0.0, 0.0, 0.0, 0.0, 1.6518363859738564E9, 0.0, 2022-05-06 12:26:25.973
33.0, -259.8538587712683, -192.43468227004632, -208.3816156811081, -185.04277000762522, 0.1600000075995922, 0.11200000531971455, 1.008000047877431, 0.0, 0.0, 0.0, 0.0, 0.0, 1.6518363859838853E9, 0.0, 2022-05-06 12:26:25.983
33.0, -295.92145394394174, -214.9339204034768, -221.66200042376295, -213.50340867042542, 0.1600000075995922, 0.11200000531971455, 1.008000047877431, 0.0, 0.0, 0.0, 0.0, 0.0, 1.6518363859838853E9, 0.0, 2022-05-06 12:26:25.983
34.0, -218.77105775801465, -77.40283943293616, -110.68420913862064, -140.3285261373967, 0.1600000075995922, 0.11200000531971455, 1.008000047877431, 0.0, 0.0, 0.0, 0.0, 0.0, 1.6518363859848373E9, 0.0, 2022-05-06 12:26:25.984
34.0, -204.55195812648162, -68.98806453263387, -114.83549808943644, -122.71359734609723, 0.1600000075995922, 0.11200000531971455, 1.008000047877431, 0.0, 0.0, 0.0, 0.0, 0.0, 1.6518363859848373E9, 0.0, 2022-05-06 12:26:25.984
35.0, -262.0678795450367, -187.94306242326275, -205.3709962167777, -183.81234292220324, 0.1600000075995922, 0.11200000531971455, 1.008000047877431, 0.0, 0.0, 0.0, 0.0, 0.0, 1.6518363859988575E9, 0.0, 2022-05-06 12:26:25.998
35.0, -301.7930968743749, -217.24517857609317, -227.9786914489232, -224.37903774157166, 0.1600000075995922, 0.11200000531971455, 1.008000047877431, 0.0, 0.0, 0.0, 0.0, 0.0, 1.6518363859988575E9, 0.0, 2022-05-06 12:26:25.998
36.0, -238.90293921949342, -93.79856083868071, -129.57444381481037, -156.9224622407928, 0.1600000075995922, 0.11200000531971455, 1.008000047877431, 0.0, 0.0, 0.0, 0.0, 0.0, 1.6518363859998095E9, 0.0, 2022-05-06 12:26:25.999
36.0, -210.87986885150895, -83.85416685650125, -129.10695632034913, -155.8154518539086, 0.1600000075995922, 0.11200000531971455, 1.008000047877431, 0.0, 0.0, 0.0, 0.0, 0.0, 1.6518363859998095E9, 0.0, 2022-05-06 12:26:25.999
37.0, -266.839991888497, -207.87672918708995, -221.92379342066124, -207.87111933715641, 0.1600000075995922, 0.11200000531971455, 1.008000047877431, 0.0, 0.0, 0.0, 0.0, 0.0, 1.6518363860138447E9, 0.0, 2022-05-06 12:26:26.013
37.0, -297.62684832373634, -210.53205815562978, -217.3835548744537, -213.72032286785543, 0.1600000075995922, 0.11200000531971455, 1.008000047877431, 0.0, 0.0, 0.0, 0.0, 0.0, 1.6518363860138447E9, 0.0, 2022-05-06 12:26:26.013
38.0, -239.7593763093464, -92.04454775946215, -130.6328355022706, -158.72135411947966, 0.1600000075995922, 0.11200000531971455, 1.008000047877431, 0.0, 0.0, 0.0, 0.0, 0.0, 1.6518363860288565E9, 0.0, 2022-05-06 12:26:26.028
38.0, -216.4934586849995, -84.71808374626562, -130.374782405328, -150.4748747171834, 0.1600000075995922, 0.11200000531971455, 1.008000047877431, 0.0, 0.0, 0.0, 0.0, 0.0, 1.6518363860288565E9, 0.0, 2022-05-06 12:26:26.028
39.0, -270.7781065418385, -204.3350439290516, -212.6712809302844, -188.68917246442288, 0.1600000075995922, 0.11200000531971455, 1.008000047877431, 0.0, 0.0, 0.0, 0.0, 0.0, 1.651836386029788E9, 0.0, 2022-05-06 12:26:26.029
39.0, -293.62889527110383, -205.9693802096881, -212.47680613258854, -205.71693696267903, 0.1600000075995922, 0.11200000531971455, 1.008000047877431, 0.0, 0.0, 0.0, 0.0, 0.0, 1.651836386029788E9, 0.0, 2022-05-06 12:26:26.029
40.0, -236.40468604909256, -94.13141193473712, -135.4573064451106, -169.0846168966964, 0.1600000075995922, 0.11200000531971455, 1.008000047877431, 0.0, 0.0, 0.0, 0.0, 0.0, 1.651836386043841E9, 0.0, 2022-05-06 12:26:26.043
40.0, -203.35519014066085, -65.68947277171537, -121.24568661348894, -149.47258152905852, 0.1600000075995922, 0.11200000531971455, 1.008000047877431, 0.0, 0.0, 0.0, 0.0, 0.0, 1.651836386043841E9, 0.0, 2022-05-06 12:26:26.043
41.0, -265.12711770879105, -199.21138098975644, -213.87178881606087, -201.59556721150875, 0.1600000075995922, 0.11200000531971455, 1.008000047877431, 0.0, 0.0, 0.0, 0.0, 0.0, 1.6518363860589728E9, 0.0, 2022-05-06 12:26:26.058
41.0, -295.06127695413306, -218.85707545699552, -219.96782574383542, -209.2810616204515, 0.1600000075995922, 0.11200000531971455, 1.008000047877431, 0.0, 0.0, 0.0, 0.0, 0.0, 1.6518363860589728E9, 0.0, 2022-05-06 12:26:26.058
42.0, -235.79134245635942, -92.73642925126478, -129.1892341193743, -155.90520945284516, 0.1600000075995922, 0.11200000531971455, 1.008000047877431, 0.0, 0.0, 0.0, 0.0, 0.0, 1.6518363860598254E9, 0.0, 2022-05-06 12:26:26.059
42.0, -209.3427699697204, -81.9842168786563, -129.09199672052637, -157.31889163609594, 0.1600000075995922, 0.11200000531971455, 1.008000047877431, 0.0, 0.0, 0.0, 0.0, 0.0, 1.6518363860598254E9, 0.0, 2022-05-06 12:26:26.059
43.0, -276.9751207684167, -206.8258172995411, -225.17750638211146, -210.01034211181104, 0.1600000075995922, 0.11200000531971455, 1.008000047877431, 0.0, 0.0, 0.0, 0.0, 0.0, 1.6518363860738387E9, 0.0, 2022-05-06 12:26:26.073
43.0, -295.83917614491656, -213.2285260236822, -218.2287722644396, -211.83167339023203, 0.1600000075995922, 0.11200000531971455, 1.008000047877431, 0.0, 0.0, 0.0, 0.0, 0.0, 1.6518363860738387E9, 0.0, 2022-05-06 12:26:26.073
44.0, -241.65924548683688, -99.62906486960128, -138.40060771023855, -163.83379735890776, 0.1600000075995922, 0.11200000531971455, 1.008000047877431, 0.0, 0.0, 0.0, 0.0, 0.0, 1.65183638608883E9, 0.0, 2022-05-06 12:26:26.088
44.0, -212.28607123484835, -85.49224303709343, -133.6771140662022, -152.01945339888334, 0.1600000075995922, 0.11200000531971455, 1.008000047877431, 0.0, 0.0, 0.0, 0.0, 0.0, 1.65183638608883E9, 0.0, 2022-05-06 12:26:26.088
45.0, -261.3946975530125, -191.23043448431417, -209.16699467180297, -196.49434367194772, 0.1600000075995922, 0.11200000531971455, 1.008000047877431, 0.0, 0.0, 0.0, 0.0, 0.0, 1.6518363860897784E9, 0.0, 2022-05-06 12:26:26.089
45.0, -286.9793531498872, -207.47655989183113, -213.27714472310618, -202.77363569755107, 0.1600000075995922, 0.11200000531971455, 1.008000047877431, 0.0, 0.0, 0.0, 0.0, 0.0, 1.6518363860897784E9, 0.0, 2022-05-06 12:26:26.089
46.0, -246.03866833494976, -95.59745271736756, -133.79305096482858, -167.77565191220492, 0.1600000075995922, 0.11200000531971455, 1.008000047877431, 0.0, 0.0, 0.0, 0.0, 0.0, 1.6518363861038866E9, 0.0, 2022-05-06 12:26:26.103
46.0, -212.57030363148078, -77.8703269273974, -126.75829914817587, -147.78962654899806, 0.1600000075995922, 0.11200000531971455, 1.008000047877431, 0.0, 0.0, 0.0, 0.0, 0.0, 1.6518363861038866E9, 0.0, 2022-05-06 12:26:26.103
47.0, -258.4027775884606, -196.87768341740593, -213.64739481871948, -191.83816822711378, 0.1600000075995922, 0.11200000531971455, 1.008000047877431, 0.0, 0.0, 0.0, 0.0, 0.0, 1.651836386118836E9, 0.0, 2022-05-06 12:26:26.118
47.0, -279.05076524382457, -204.60431672586128, -210.6405152543448, -201.0607615178451, 0.1600000075995922, 0.11200000531971455, 1.008000047877431, 0.0, 0.0, 0.0, 0.0, 0.0, 1.651836386118836E9, 0.0, 2022-05-06 12:26:26.118
48.0, -238.95529781887308, -89.07506719464436, -130.9282875987701, -158.89712941739708, 0.1600000075995922, 0.11200000531971455, 1.008000047877431, 0.0, 0.0, 0.0, 0.0, 0.0, 1.65183638611976E9, 0.0, 2022-05-06 12:26:26.119
48.0, -202.86152334650978, -74.34734116913751, -122.45367429917678, -141.04284702893347, 0.1600000075995922, 0.11200000531971455, 1.008000047877431, 0.0, 0.0, 0.0, 0.0, 0.0, 1.65183638611976E9, 0.0, 2022-05-06 12:26:26.119
49.0, -253.8438395424746, -188.04029982211068, -201.0065329684876, -174.24567883554846, 0.1600000075995922, 0.11200000531971455, 1.008000047877431, 0.0, 0.0, 0.0, 0.0, 0.0, 1.6518363861339312E9, 0.0, 2022-05-06 12:26:26.133
49.0, -278.31400495255366, -191.5184067809023, -193.32103855954483, -169.2267330950126, 0.1600000075995922, 0.11200000531971455, 1.008000047877431, 0.0, 0.0, 0.0, 0.0, 0.0, 1.6518363861339312E9, 0.0, 2022-05-06 12:26:26.133
50.0, -228.47609814302996, -83.42407836159691, -121.43268161127344, -148.35809134226292, 0.1600000075995922, 0.11200000531971455, 1.008000047877431, 0.0, 0.0, 0.0, 0.0, 0.0, 1.65183638614882E9, 0.0, 2022-05-06 12:26:26.148
50.0, -223.03828360745683, -83.82798755681142, -137.63392821932212, -162.86516327038407, 0.1600000075995922, 0.11200000531971455, 1.008000047877431, 0.0, 0.0, 0.0, 0.0, 0.0, 1.65183638614882E9, 0.0, 2022-05-06 12:26:26.148
51.0, -261.5779526508413, -189.31560570700094, -213.194866924081, -199.96871073078364, 0.1600000075995922, 0.11200000531971455, 1.008000047877431, 0.0, 0.0, 0.0, 0.0, 0.0, 1.6518363861498396E9, 0.0, 2022-05-06 12:26:26.149
51.0, -290.83519000420347, -205.03066532080993, -215.9736125911586, -215.93060374166816, 0.1600000075995922, 0.11200000531971455, 1.008000047877431, 0.0, 0.0, 0.0, 0.0, 0.0, 1.6518363861498396E9, 0.0, 2022-05-06 12:26:26.149
52.0, -246.38647903082892, -95.04394752392545, -134.6756673543714, -169.10331639647484, 0.1600000075995922, 0.11200000531971455, 1.008000047877431, 0.0, 0.0, 0.0, 0.0, 0.0, 1.6518363861639452E9, 0.0, 2022-05-06 12:26:26.163
52.0, -210.4909192561172, -70.78321651136503, -118.80353194242343, -130.97129644826055, 0.1600000075995922, 0.11200000531971455, 1.008000047877431, 0.0, 0.0, 0.0, 0.0, 0.0, 1.6518363861639452E9, 0.0, 2022-05-06 12:26:26.163
53.0, -269.6561365551315, -206.5228854031302, -220.20343944104388, -195.3910731850192, 0.1600000075995922, 0.11200000531971455, 1.008000047877431, 0.0, 0.0, 0.0, 0.0, 0.0, 1.6518363861788507E9, 0.0, 2022-05-06 12:26:26.178
53.0, -290.53973790770397, -217.90714086825028, -223.5730893011205, -220.51946098729968, 0.1600000075995922, 0.11200000531971455, 1.008000047877431, 0.0, 0.0, 0.0, 0.0, 0.0, 1.6518363861788507E9, 0.0, 2022-05-06 12:26:26.178
54.0, -230.54426281852648, -87.79602140979841, -129.80257771210745, -169.13323559612036, 0.1600000075995922, 0.11200000531971455, 1.008000047877431, 0.0, 0.0, 0.0, 0.0, 0.0, 1.6518363861797993E9, 0.0, 2022-05-06 12:26:26.179
54.0, -224.2313116933219, -90.59720647661015, -139.5300574968569, -160.0003999043256, 0.1600000075995922, 0.11200000531971455, 1.008000047877431, 0.0, 0.0, 0.0, 0.0, 0.0, 1.6518363861797993E9, 0.0, 2022-05-06 12:26:26.179
55.0, -261.6265713502653, -196.3690570234321, -209.81025746418163, -194.78146949224174, 0.1600000075995922, 0.11200000531971455, 1.008000047877431, 0.0, 0.0, 0.0, 0.0, 0.0, 1.651836386193856E9, 0.0, 2022-05-06 12:26:26.193
55.0, -287.8582296394743, -199.28617898887023, -214.54871070804074, -204.19105778075755, 0.1600000075995922, 0.11200000531971455, 1.008000047877431, 0.0, 0.0, 0.0, 0.0, 0.0, 1.651836386193856E9, 0.0, 2022-05-06 12:26:26.193
56.0, -225.61507467692718, -85.59696023585275, -126.90041534649208, -163.8936357581988, 0.1600000075995922, 0.11200000531971455, 1.008000047877431, 0.0, 0.0, 0.0, 0.0, 0.0, 1.6518363862088158E9, 0.0, 2022-05-06 12:26:26.208
56.0, -209.35398966958746, -77.30186213413253, -129.51460541551933, -151.19667540863156, 0.1600000075995922, 0.11200000531971455, 1.008000047877431, 0.0, 0.0, 0.0, 0.0, 0.0, 1.6518363862088158E9, 0.0, 2022-05-06 12:26:26.208
57.0, -280.1203766311519, -205.9656403097324, -222.77275071060285, -203.7235702862963, 0.1600000075995922, 0.11200000531971455, 1.008000047877431, 0.0, 0.0, 0.0, 0.0, 0.0, 1.651836386209779E9, 0.0, 2022-05-06 12:26:26.209
57.0, -287.47675984399393, -205.05310472054407, -208.86406277539209, -199.70691773388535, 0.1600000075995922, 0.11200000531971455, 1.008000047877431, 0.0, 0.0, 0.0, 0.0, 0.0, 1.651836386209779E9, 0.0, 2022-05-06 12:26:26.209
58.0, -226.43411276722327, -91.95853006048128, -133.31808367045596, -158.8185915183276, 0.1600000075995922, 0.11200000531971455, 1.008000047877431, 0.0, 0.0, 0.0, 0.0, 0.0, 1.6518363862398353E9, 0.0, 2022-05-06 12:26:26.239
58.0, -217.84730246895924, -73.33756818110123, -123.97955348109826, -140.48560193553567, 0.1600000075995922, 0.11200000531971455, 1.008000047877431, 0.0, 0.0, 0.0, 0.0, 0.0, 1.6518363862398353E9, 0.0, 2022-05-06 12:26:26.239
59.0, -262.60268523870036, -195.42286233464256, -210.8985683512874, -192.39541332051158, 0.1600000075995922, 0.11200000531971455, 1.008000047877431, 0.0, 0.0, 0.0, 0.0, 0.0, 1.6518363862407749E9, 0.0, 2022-05-06 12:26:26.240
59.0, -282.16610190691426, -205.32985731726512, -210.1169292605482, -199.5760212354362, 0.1600000075995922, 0.11200000531971455, 1.008000047877431, 0.0, 0.0, 0.0, 0.0, 0.0, 1.6518363862407749E9, 0.0, 2022-05-06 12:26:26.240
60.0, -212.90315472753718, -71.09736810764298, -110.93104253569618, -137.5796996699646, 0.1600000075995922, 0.11200000531971455, 1.008000047877431, 0.0, 0.0, 0.0, 0.0, 0.0, 1.6518363862417655E9, 0.0, 2022-05-06 12:26:26.241
60.0, -217.46583267347887, -76.12379364809021, -128.20564043102786, -161.54123868606985, 0.1600000075995922, 0.11200000531971455, 1.008000047877431, 0.0, 0.0, 0.0, 0.0, 0.0, 1.6518363862417655E9, 0.0, 2022-05-06 12:26:26.241
61.0, -263.9602689226158, -192.80493236565962, -200.13139637885615, -177.70134639460593, 0.1600000075995922, 0.11200000531971455, 1.008000047877431, 0.0, 0.0, 0.0, 0.0, 0.0, 1.6518363862538512E9, 0.0, 2022-05-06 12:26:26.253
61.0, -276.223400877323, -193.4407153581269, -204.79879152355716, -192.354274420999, 0.1600000075995922, 0.11200000531971455, 1.008000047877431, 0.0, 0.0, 0.0, 0.0, 0.0, 1.6518363862538512E9, 0.0, 2022-05-06 12:26:26.253
62.0, -233.48756408365443, -90.5411079772748, -137.2000998244621, -171.92320096306503, 0.1600000075995922, 0.11200000531971455, 1.008000047877431, 0.0, 0.0, 0.0, 0.0, 0.0, 1.651836386268816E9, 0.0, 2022-05-06 12:26:26.268
62.0, -212.31599043449387, -80.55183519562706, -130.53559810342267, -148.1112579451874, 0.1600000075995922, 0.11200000531971455, 1.008000047877431, 0.0, 0.0, 0.0, 0.0, 0.0, 1.651836386268816E9, 0.0, 2022-05-06 12:26:26.268
63.0, -255.22760252607986, -184.39389736531302, -205.88336251070723, -188.08330867160112, 0.1600000075995922, 0.11200000531971455, 1.008000047877431, 0.0, 0.0, 0.0, 0.0, 0.0, 1.651836386269838E9, 0.0, 2022-05-06 12:26:26.269
63.0, -271.32039203541353, -193.75860685436055, -201.8180912588723, -194.06340870074928, 0.1600000075995922, 0.11200000531971455, 1.008000047877431, 0.0, 0.0, 0.0, 0.0, 0.0, 1.651836386269838E9, 0.0, 2022-05-06 12:26:26.269
64.0, -228.07592884777114, -85.23792984010652, -125.598930161912, -163.38874926418066, 0.1600000075995922, 0.11200000531971455, 1.008000047877431, 0.0, 0.0, 0.0, 0.0, 0.0, 1.6518363862838304E9, 0.0, 2022-05-06 12:26:26.283
64.0, -211.80736404052004, -78.4649710203521, -126.05519795650616, -148.34313174244016, 0.1600000075995922, 0.11200000531971455, 1.008000047877431, 0.0, 0.0, 0.0, 0.0, 0.0, 1.6518363862838304E9, 0.0, 2022-05-06 12:26:26.283
65.0, -264.82418581238016, -198.87852989370003, -208.17592118354514, -191.67361262906343, 0.1600000075995922, 0.11200000531971455, 1.008000047877431, 0.0, 0.0, 0.0, 0.0, 0.0, 1.6518363862988217E9, 0.0, 2022-05-06 12:26:26.298
65.0, -297.0471638306044, -219.4517195499502, -224.63522088853642, -217.07875302806497, 0.1600000075995922, 0.11200000531971455, 1.008000047877431, 0.0, 0.0, 0.0, 0.0, 0.0, 1.6518363862988217E9, 0.0, 2022-05-06 12:26:26.298
66.0, -226.9464790611528, -83.63351275911555, -122.50977279851213, -148.960215235129, 0.1600000075995922, 0.11200000531971455, 1.008000047877431, 0.0, 0.0, 0.0, 0.0, 0.0, 1.6518363862998483E9, 0.0, 2022-05-06 12:26:26.299
66.0, -211.1603613481857, -82.07771437754855, -130.81609060009941, -152.35230449493974, 0.1600000075995922, 0.11200000531971455, 1.008000047877431, 0.0, 0.0, 0.0, 0.0, 0.0, 1.6518363862998483E9, 0.0, 2022-05-06 12:26:26.299
