%OpenBCI Raw EEG Data
%Number of channels = 4
%Sample Rate = 200 Hz
%Board = OpenBCI_GUI$BoardGanglionBLE
Sample Index, EXG Channel 0, EXG Channel 1, EXG Channel 2, EXG Channel 3, Accel Channel 0, Accel Channel 1, Accel Channel 2, Other, Other, Other, Other, Other, Timestamp, Other, Timestamp (Formatted)
35.0, 37.04744896106422, 86.73949967231601, 82.71162742003798, 36.879153463058174, 0.0, 0.0, 0.0, 0.0, 0.0, 0.0, 0.0, 0.0, 1.6518360198255725E9, 0.0, 2022-05-06 12:20:19.825
35.0, 85.67362818494439, 160.38186969980597, 127.4296111902222, 64.37115803733468, 0.0, 0.0, 0.0, 0.0, 0.0, 0.0, 0.0, 0.0, 1.6518360198255725E9, 0.0, 2022-05-06 12:20:19.825
0.0, -248.79684455227107, -166.68360112514347, -182.27898394037038, -173.57249684352428, 0.0, 0.0, 0.0, 0.0, 0.0, 0.0, 0.0, 0.0, 1.6518360198595784E9, 0.0, 2022-05-06 12:20:19.859
1.0, -292.8416463304311, -211.8391531901434, -219.80140019580722, -197.85192735586315, 0.0, 0.06400000303983688, 0.0, 0.0, 0.0, 0.0, 0.0, 0.0, 1.6518360198718152E9, 0.0, 2022-05-06 12:20:19.871
1.0, -231.0360596626997, -79.82816455420107, -115.37591363303363, -154.73462076671422, 0.0, 0.06400000303983688, 0.0, 0.0, 0.0, 0.0, 0.0, 0.0, 1.6518360198718152E9, 0.0, 2022-05-06 12:20:19.871
2.0, -186.09742179512978, -34.63895338959992, -75.07849161047488, -124.80420142132789, 0.0800000037997961, 0.06400000303983688, 0.0, 0.0, 0.0, 0.0, 0.0, 0.0, 1.6518360199055471E9, 0.0, 2022-05-06 12:20:19.905
2.0, -226.20410891994834, -162.2293802779168, -182.95590583235025, -170.3038242822513, 0.0800000037997961, 0.06400000303983688, 0.0, 0.0, 0.0, 0.0, 0.0, 0.0, 1.6518360199055471E9, 0.0, 2022-05-06 12:20:19.905
3.0, -295.9457632936537, -208.88463222514838, -213.7726814672351, -196.8010154683143, 0.0800000037997961, 0.06400000303983688, 0.0, 0.0, 0.0, 0.0, 0.0, 0.0, 1.65183601990655E9, 0.0, 2022-05-06 12:20:19.906
3.0, -257.6117887478322, -104.19361276552081, -134.77851460315287, -173.0040320502594, 0.0800000037997961, 0.06400000303983688, 0.0, 0.0, 0.0, 0.0, 0.0, 0.0, 1.65183601990655E9, 0.0, 2022-05-06 12:20:19.906
4.0, -198.5737280473113, -45.39864556211978, -87.5585377626121, -133.1740975221619, 0.0800000037997961, 0.06400000303983688, 0.0, 0.0, 0.0, 0.0, 0.0, 0.0, 1.6518360199076705E9, 0.0, 2022-05-06 12:20:19.907
4.0, -241.55265833809972, -158.60541722085327, -182.17800664156675, -174.5299112321809, 0.0800000037997961, 0.06400000303983688, 0.0, 0.0, 0.0, 0.0, 0.0, 0.0, 1.6518360199076705E9, 0.0, 2022-05-06 12:20:19.907
5.0, -281.2516963677481, -207.9459173362702, -216.24475533794612, -196.62150027044117, 0.0800000037997961, 0.06400000303983688, 0.0, 0.0, 0.0, 0.0, 0.0, 0.0, 1.6518360199176717E9, 0.0, 2022-05-06 12:20:19.917
5.0, -242.73072682414204, -104.11881476640701, -131.89131183736026, -169.25291239470243, 0.0800000037997961, 0.06400000303983688, 0.0, 0.0, 0.0, 0.0, 0.0, 0.0, 1.6518360199176717E9, 0.0, 2022-05-06 12:20:19.917
6.0, -195.66408588178456, -43.60723348334432, -92.0090187098831, -133.21897632163018, 0.0800000037997961, 0.06400000303983688, 0.0, 0.0, 0.0, 0.0, 0.0, 0.0, 1.6518360199186296E9, 0.0, 2022-05-06 12:20:19.918
6.0, -241.14500924292952, -162.08352417964488, -181.99475154373795, -170.8236703760922, 0.0800000037997961, 0.06400000303983688, 0.0, 0.0, 0.0, 0.0, 0.0, 0.0, 1.6518360199186296E9, 0.0, 2022-05-06 12:20:19.918
7.0, -281.4760903650895, -207.912258236669, -207.70656373910606, -181.4973448496312, 0.0800000037997961, 0.06400000303983688, 0.0, 0.0, 0.0, 0.0, 0.0, 0.0, 1.6518360199318583E9, 0.0, 2022-05-06 12:20:19.931
7.0, -236.93762179277837, -91.9304808108136, -123.11750654131174, -148.33939184248447, 0.0800000037997961, 0.06400000303983688, 0.0, 0.0, 0.0, 0.0, 0.0, 0.0, 1.6518360199318583E9, 0.0, 2022-05-06 12:20:19.931
8.0, -194.56081539485604, -48.62991912383586, -95.07947657350451, -143.83281239587814, 0.0800000037997961, 0.06400000303983688, 0.0, 0.0, 0.0, 0.0, 0.0, 0.0, 1.6518360199636078E9, 0.0, 2022-05-06 12:20:19.963
8.0, -243.97985340934247, -168.77046530041844, -193.25933021027595, -187.2754902811721, 0.0800000037997961, 0.06400000303983688, 0.0, 0.0, 0.0, 0.0, 0.0, 0.0, 1.6518360199636078E9, 0.0, 2022-05-06 12:20:19.963
9.0, -276.33372792601585, -207.0221620472148, -210.08140021096915, -192.8666407149285, 0.0800000037997961, 0.06400000303983688, 0.0, 0.0, 0.0, 0.0, 0.0, 0.0, 1.651836019964632E9, 0.0, 2022-05-06 12:20:19.964
9.0, -249.7879180405289, -102.55553658492863, -132.51961502991617, -161.189688090235, 0.0800000037997961, 0.06400000303983688, 0.0, 0.0, 0.0, 0.0, 0.0, 0.0, 1.651836019964632E9, 0.0, 2022-05-06 12:20:19.964
10.0, -200.15944562852383, -49.94262400828302, -95.90599446371198, -136.30439378507435, 0.0800000037997961, 0.06400000303983688, 0.5120000243186951, 0.0, 0.0, 0.0, 0.0, 0.0, 1.651836019965594E9, 0.0, 2022-05-06 12:20:19.965
10.0, -232.4048630464822, -145.366171377711, -171.03684467356652, -165.13528254348785, 0.0800000037997961, 0.06400000303983688, 0.5120000243186951, 0.0, 0.0, 0.0, 0.0, 0.0, 1.651836019965594E9, 0.0, 2022-05-06 12:20:19.965
11.0, -277.9082258073613, -201.3188146147877, -210.4292109068483, -196.28490927442908, 0.0800000037997961, 0.09600000455975533, 0.5120000243186951, 0.0, 0.0, 0.0, 0.0, 0.0, 1.6518360199777029E9, 0.0, 2022-05-06 12:20:19.977
11.0, -243.86765641067177, -104.22727186512202, -134.56160040572286, -171.77360496483743, 0.0800000037997961, 0.09600000455975533, 0.5120000243186951, 0.0, 0.0, 0.0, 0.0, 0.0, 1.6518360199777029E9, 0.0, 2022-05-06 12:20:19.977
12.0, -201.098160517402, -55.1747440462932, -89.05075784493238, -126.19170430488884, 0.11200000531971455, 0.09600000455975533, 0.5120000243186951, 0.0, 0.0, 0.0, 0.0, 0.0, 1.6518360199785664E9, 0.0, 2022-05-06 12:20:19.978
12.0, -246.58282377850264, -164.5593379503116, -189.5306499544531, -184.41072691511363, 0.11200000531971455, 0.09600000455975533, 0.5120000243186951, 0.0, 0.0, 0.0, 0.0, 0.0, 1.6518360199785664E9, 0.0, 2022-05-06 12:20:19.978
13.0, -283.4694570414722, -200.75408972147852, -212.16826438624412, -210.57132710516453, 0.11200000531971455, 0.09600000455975533, 0.5120000243186951, 0.0, 0.0, 0.0, 0.0, 0.0, 1.6518360199916494E9, 0.0, 2022-05-06 12:20:19.991
13.0, -241.86680993437767, -103.62140807230026, -130.3168139560148, -165.8159443354234, 0.11200000531971455, 0.09600000455975533, 0.5120000243186951, 0.0, 0.0, 0.0, 0.0, 0.0, 1.6518360199916494E9, 0.0, 2022-05-06 12:20:19.991
14.0, -201.9433779073879, -69.20684868004173, -102.94822608027607, -140.55666003469378, 0.11200000531971455, 0.09600000455975533, 0.5120000243186951, 0.0, 0.0, 0.0, 0.0, 0.0, 1.651836020022722E9, 0.0, 2022-05-06 12:20:20.022
14.0, -240.10531705524772, -155.86407055333257, -186.5013309903443, -179.3805614747107, 0.11200000531971455, 0.09600000455975533, 0.5120000243186951, 0.0, 0.0, 0.0, 0.0, 0.0, 1.651836020022722E9, 0.0, 2022-05-06 12:20:20.022
15.0, -253.39318159781396, -171.36969576962292, -192.26077692210674, -176.23904551193118, 0.11200000531971455, 0.09600000455975533, 0.5120000243186951, 0.0, 0.0, 0.0, 0.0, 0.0, 1.6518360200236385E9, 0.0, 2022-05-06 12:20:20.023
15.0, -240.10531705524772, -97.57024994399399, -121.34853386227041, -146.0318735698238, 0.11200000531971455, 0.09600000455975533, 0.5120000243186951, 0.0, 0.0, 0.0, 0.0, 0.0, 1.6518360200236385E9, 0.0, 2022-05-06 12:20:20.023
16.0, -209.8383067138493, -64.59181213472039, -98.68474013078958, -136.93269697763026, 0.11200000531971455, 0.09600000455975533, 0.5120000243186951, 0.0, 0.0, 0.0, 0.0, 0.0, 1.6518360200246832E9, 0.0, 2022-05-06 12:20:20.024
16.0, -239.99685995653272, -147.35205825418234, -170.79375117644668, -159.4057558113709, 0.11200000531971455, 0.09600000455975533, 0.5120000243186951, 0.0, 0.0, 0.0, 0.0, 0.0, 1.6518360200246832E9, 0.0, 2022-05-06 12:20:20.024
17.0, -261.0861558066681, -187.32410898059607, -201.6142667112872, -186.39287389162928, 0.11200000531971455, 0.09600000455975533, 0.5120000243186951, 0.0, 0.0, 0.0, 0.0, 0.0, 1.6518360200536764E9, 0.0, 2022-05-06 12:20:20.053
17.0, -227.12038440909237, -96.38844155799598, -124.51248922478408, -163.23167346604168, 0.11200000531971455, 0.09600000455975533, 0.5120000243186951, 0.0, 0.0, 0.0, 0.0, 0.0, 1.6518360200536764E9, 0.0, 2022-05-06 12:20:20.053
18.0, -216.56638673413545, -71.55550585221499, -107.35008832812309, -154.75706016644835, 0.11200000531971455, 0.09600000455975533, 0.5120000243186951, 0.0, 0.0, 0.0, 0.0, 0.0, 1.651836020054674E9, 0.0, 2022-05-06 12:20:20.054
18.0, -233.53805273305625, -150.3701575184241, -170.84610977582633, -158.61289702076465, 0.11200000531971455, 0.09600000455975533, 0.5120000243186951, 0.0, 0.0, 0.0, 0.0, 0.0, 1.651836020054674E9, 0.0, 2022-05-06 12:20:20.054
19.0, -262.4250399908051, -180.10236216615885, -194.36634059716016, -180.4613925619051, 0.11200000531971455, 0.09600000455975533, 0.5120000243186951, 0.0, 0.0, 0.0, 0.0, 0.0, 1.6518360200856552E9, 0.0, 2022-05-06 12:20:20.085
19.0, -225.28409353084862, -91.24607911892235, -120.33502097427845, -160.598783897236, 0.11200000531971455, 0.09600000455975533, 0.5120000243186951, 0.0, 0.0, 0.0, 0.0, 0.0, 1.6518360200856552E9, 0.0, 2022-05-06 12:20:20.085
20.0, -220.83735248353332, -79.20360126160085, -116.66243921779096, -157.08327793888748, 0.11200000531971455, 0.09600000455975533, 0.7680000364780426, 0.0, 0.0, 0.0, 0.0, 0.0, 1.6518360200866067E9, 0.0, 2022-05-06 12:20:20.086
20.0, -244.95970719773322, -162.95866076927632, -179.68723327107728, -174.05494393780828, 0.11200000531971455, 0.09600000455975533, 0.7680000364780426, 0.0, 0.0, 0.0, 0.0, 0.0, 1.6518360200866067E9, 0.0, 2022-05-06 12:20:20.086
21.0, -261.5611231010407, -180.0836626663804, -193.5734818065539, -171.47815286833793, 0.11200000531971455, 0.11200000531971455, 0.7680000364780426, 0.0, 0.0, 0.0, 0.0, 0.0, 1.6518360200876715E9, 0.0, 2022-05-06 12:20:20.087
21.0, -223.82179264817387, -91.1525816200301, -120.71275086980313, -156.97108094021678, 0.11200000531971455, 0.11200000531971455, 0.7680000364780426, 0.0, 0.0, 0.0, 0.0, 0.0, 1.6518360200876715E9, 0.0, 2022-05-06 12:20:20.087
22.0, -218.39145791251212, -75.27670630812645, -108.46831841487437, -152.65149649139494, 0.144000006839633, 0.11200000531971455, 0.7680000364780426, 0.0, 0.0, 0.0, 0.0, 0.0, 1.6518360200886693E9, 0.0, 2022-05-06 12:20:20.088
22.0, -236.77306619472802, -153.1788223851472, -177.02442450262606, -176.21660611219704, 0.144000006839633, 0.11200000531971455, 0.7680000364780426, 0.0, 0.0, 0.0, 0.0, 0.0, 1.6518360200886693E9, 0.0, 2022-05-06 12:20:20.088
23.0, -269.59068830590695, -183.6851863237098, -205.94133096002042, -187.42882617935538, 0.144000006839633, 0.11200000531971455, 0.7680000364780426, 0.0, 0.0, 0.0, 0.0, 0.0, 1.6518360201127248E9, 0.0, 2022-05-06 12:20:20.112
23.0, -242.21088073030114, -111.17974588274956, -132.654251428321, -163.87493625842035, 0.144000006839633, 0.11200000531971455, 0.7680000364780426, 0.0, 0.0, 0.0, 0.0, 0.0, 1.6518360201127248E9, 0.0, 2022-05-06 12:20:20.112
24.0, -203.86568648461252, -61.05760667659342, -91.54527111537755, -127.7288031866774, 0.144000006839633, 0.11200000531971455, 0.7680000364780426, 0.0, 0.0, 0.0, 0.0, 0.0, 1.6518360201136703E9, 0.0, 2022-05-06 12:20:20.113
24.0, -233.01446673925966, -152.80109248962253, -176.65791430696845, -165.38959574047476, 0.144000006839633, 0.11200000531971455, 0.7680000364780426, 0.0, 0.0, 0.0, 0.0, 0.0, 1.6518360201136703E9, 0.0, 2022-05-06 12:20:20.113
25.0, -262.9411461846903, -187.22687158174813, -205.35042676702142, -184.26113091688603, 0.144000006839633, 0.11200000531971455, 0.7680000364780426, 0.0, 0.0, 0.0, 0.0, 0.0, 1.651836020114673E9, 0.0, 2022-05-06 12:20:20.114
25.0, -232.4759211456403, -93.17212759610265, -121.46073086094111, -148.46654844097793, 0.144000006839633, 0.11200000531971455, 0.7680000364780426, 0.0, 0.0, 0.0, 0.0, 0.0, 1.651836020114673E9, 0.0, 2022-05-06 12:20:20.114
26.0, -208.15161183383316, -67.49771440029144, -99.51873782090843, -150.98724101111293, 0.144000006839633, 0.11200000531971455, 0.7680000364780426, 0.0, 0.0, 0.0, 0.0, 0.0, 1.6518360201276336E9, 0.0, 2022-05-06 12:20:20.127
26.0, -230.72190806642175, -156.60457074455917, -178.51664458494633, -179.46657917369157, 0.144000006839633, 0.11200000531971455, 0.7680000364780426, 0.0, 0.0, 0.0, 0.0, 0.0, 1.6518360201276336E9, 0.0, 2022-05-06 12:20:20.127
27.0, -250.6780142299831, -171.48189276829362, -197.10394736472517, -178.85323558095843, 0.144000006839633, 0.11200000531971455, 0.7680000364780426, 0.0, 0.0, 0.0, 0.0, 0.0, 1.651836020128588E9, 0.0, 2022-05-06 12:20:20.128
27.0, -241.10387034341693, -107.04341653175652, -136.8765984782949, -173.57997664343566, 0.144000006839633, 0.11200000531971455, 0.7680000364780426, 0.0, 0.0, 0.0, 0.0, 0.0, 1.651836020128588E9, 0.0, 2022-05-06 12:20:20.128
28.0, -226.5182605162263, -83.893435806036, -114.80744883976877, -159.50673311017454, 0.144000006839633, 0.11200000531971455, 0.7680000364780426, 0.0, 0.0, 0.0, 0.0, 0.0, 1.6518360201417112E9, 0.0, 2022-05-06 12:20:20.141
28.0, -234.54782572109252, -156.00992665160447, -171.40335486922413, -164.61543644964695, 0.144000006839633, 0.11200000531971455, 0.7680000364780426, 0.0, 0.0, 0.0, 0.0, 0.0, 1.6518360201417112E9, 0.0, 2022-05-06 12:20:20.141
29.0, -268.7866098154336, -193.15461301151663, -211.29686769656837, -188.24412436969578, 0.144000006839633, 0.11200000531971455, 0.7680000364780426, 0.0, 0.0, 0.0, 0.0, 0.0, 1.651836020157746E9, 0.0, 2022-05-06 12:20:20.157
29.0, -254.70588648226112, -112.4999305671081, -142.98011520598084, -177.47321249730885, 0.144000006839633, 0.11200000531971455, 0.7680000364780426, 0.0, 0.0, 0.0, 0.0, 0.0, 1.651836020157746E9, 0.0, 2022-05-06 12:20:20.157
30.0, -202.73623669799417, -63.09959205240011, -96.13038846105337, -141.8469255194068, 0.144000006839633, 0.11200000531971455, 0.8800000417977571, 0.0, 0.0, 0.0, 0.0, 0.0, 1.65183602015857E9, 0.0, 2022-05-06 12:20:20.158
30.0, -232.80877224169672, -142.5874257106334, -170.80871077626944, -157.72280083131045, 0.144000006839633, 0.11200000531971455, 0.8800000417977571, 0.0, 0.0, 0.0, 0.0, 0.0, 1.65183602015857E9, 0.0, 2022-05-06 12:20:20.158
31.0, -256.77779105771333, -186.5349900899455, -201.4983298126608, -184.10405511874706, 0.144000006839633, 0.11200000531971455, 0.8800000417977571, 0.0, 0.0, 0.0, 0.0, 0.0, 1.6518360201716623E9, 0.0, 2022-05-06 12:20:20.171
31.0, -242.2594994297251, -104.85183515772223, -130.10737955849618, -156.51107324566692, 0.144000006839633, 0.11200000531971455, 0.8800000417977571, 0.0, 0.0, 0.0, 0.0, 0.0, 1.6518360201716623E9, 0.0, 2022-05-06 12:20:20.171
32.0, -213.01722167618573, -67.6248709987849, -96.16778746061027, -143.55979969911277, 0.144000006839633, 0.11200000531971455, 0.8800000417977571, 0.0, 0.0, 0.0, 0.0, 0.0, 1.6518360201876695E9, 0.0, 2022-05-06 12:20:20.187
32.0, -228.90805658791214, -141.2186223268509, -169.29405129421502, -167.12864921987057, 0.144000006839633, 0.11200000531971455, 0.8800000417977571, 0.0, 0.0, 0.0, 0.0, 0.0, 1.6518360201876695E9, 0.0, 2022-05-06 12:20:20.187
33.0, -254.03270449023694, -172.86939565185457, -189.70642525237054, -176.25774501170963, 0.144000006839633, 0.11200000531971455, 0.8800000417977571, 0.0, 0.0, 0.0, 0.0, 0.0, 1.651836020188628E9, 0.0, 2022-05-06 12:20:20.188
33.0, -237.5958441849798, -109.02182360831648, -137.2917273733765, -158.83355111815035, 0.144000006839633, 0.11200000531971455, 0.8800000417977571, 0.0, 0.0, 0.0, 0.0, 0.0, 1.651836020188628E9, 0.0, 2022-05-06 12:20:20.188
34.0, -213.27901467308402, -74.16595602128655, -104.73215835914016, -141.0690263286233, 0.144000006839633, 0.11200000531971455, 0.8800000417977571, 0.0, 0.0, 0.0, 0.0, 0.0, 1.6518360202176113E9, 0.0, 2022-05-06 12:20:20.217
34.0, -231.19313546083868, -144.70420908555388, -174.54861073195934, -178.36704858671874, 0.144000006839633, 0.11200000531971455, 0.8800000417977571, 0.0, 0.0, 0.0, 0.0, 0.0, 1.6518360202176113E9, 0.0, 2022-05-06 12:20:20.217
35.0, -250.15068833623081, -175.4499266212806, -195.2751362863928, -182.7202921351418, 0.144000006839633, 0.11200000531971455, 0.8800000417977571, 0.0, 0.0, 0.0, 0.0, 0.0, 1.6518360202185678E9, 0.0, 2022-05-06 12:20:20.218
35.0, -223.75821434892714, -96.08550966158509, -120.29388207476586, -149.19956883229315, 0.144000006839633, 0.11200000531971455, 0.8800000417977571, 0.0, 0.0, 0.0, 0.0, 0.0, 1.6518360202185678E9, 0.0, 2022-05-06 12:20:20.218
36.0, -208.00201583560556, -64.67408993374556, -96.36600215826184, -139.72640224453062, 0.144000006839633, 0.11200000531971455, 0.8800000417977571, 0.0, 0.0, 0.0, 0.0, 0.0, 1.6518360202195697E9, 0.0, 2022-05-06 12:20:20.219
36.0, -246.12281608395278, -158.71761421952397, -184.46682541444898, -182.4173602387309, 0.144000006839633, 0.11200000531971455, 0.8800000417977571, 0.0, 0.0, 0.0, 0.0, 0.0, 1.6518360202195697E9, 0.0, 2022-05-06 12:20:20.219
37.0, -260.44289301428944, -188.14314707089216, -206.86882614903152, -183.74128482304513, 0.144000006839633, 0.11200000531971455, 0.8800000417977571, 0.0, 0.0, 0.0, 0.0, 0.0, 1.6518360202317271E9, 0.0, 2022-05-06 12:20:20.231
37.0, -232.75641364231706, -105.43151965085417, -130.08868005871773, -161.04757189191878, 0.144000006839633, 0.11200000531971455, 0.8800000417977571, 0.0, 0.0, 0.0, 0.0, 0.0, 1.6518360202317271E9, 0.0, 2022-05-06 12:20:20.231
38.0, -203.2411231920123, -57.60941891744733, -93.11228919681162, -130.5486877532676, 0.144000006839633, 0.11200000531971455, 0.8800000417977571, 0.0, 0.0, 0.0, 0.0, 0.0, 1.6518360202477145E9, 0.0, 2022-05-06 12:20:20.247
38.0, -240.45686765108258, -150.35519791860133, -169.09583659656346, -165.7112271366641, 0.144000006839633, 0.11200000531971455, 0.8800000417977571, 0.0, 0.0, 0.0, 0.0, 0.0, 1.6518360202477145E9, 0.0, 2022-05-06 12:20:20.247
39.0, -259.55653672479093, -175.0086184265092, -194.3139819977805, -180.4913117615506, 0.144000006839633, 0.11200000531971455, 0.8800000417977571, 0.0, 0.0, 0.0, 0.0, 0.0, 1.65183602024869E9, 0.0, 2022-05-06 12:20:20.248
39.0, -241.78827203530818, -110.54022299032658, -133.3648324199021, -160.8493571942672, 0.144000006839633, 0.11200000531971455, 0.8800000417977571, 0.0, 0.0, 0.0, 0.0, 0.0, 1.65183602024869E9, 0.0, 2022-05-06 12:20:20.248
40.0, -215.41449754778296, -85.74094638414681, -120.51827607210726, -170.84984967578202, 0.144000006839633, 0.11200000531971455, 0.944000044837594, 0.0, 0.0, 0.0, 0.0, 0.0, 1.6518360202777915E9, 0.0, 2022-05-06 12:20:20.277
40.0, -246.86705617513508, -161.27196588926017, -184.70243911165744, -185.9066868973896, 0.144000006839633, 0.11200000531971455, 0.944000044837594, 0.0, 0.0, 0.0, 0.0, 0.0, 1.6518360202777915E9, 0.0, 2022-05-06 12:20:20.277
41.0, -273.7569368565455, -203.95544408354908, -225.16815663222224, -201.11686001718044, 0.144000006839633, 0.11200000531971455, 0.944000044837594, 0.0, 0.0, 0.0, 0.0, 0.0, 1.6518360202785556E9, 0.0, 2022-05-06 12:20:20.278
41.0, -243.17203501891345, -118.31921489816159, -139.3972910484299, -157.5919043328613, 0.144000006839633, 0.11200000531971455, 0.944000044837594, 0.0, 0.0, 0.0, 0.0, 0.0, 1.6518360202785556E9, 0.0, 2022-05-06 12:20:20.278
42.0, -207.86363953724504, -73.86302412487566, -106.15706024225801, -151.76888010185212, 0.1600000075995922, 0.11200000531971455, 0.944000044837594, 0.0, 0.0, 0.0, 0.0, 0.0, 1.6518360202926962E9, 0.0, 2022-05-06 12:20:20.292
42.0, -237.0759980911389, -151.45472850557417, -177.8285029930994, -178.3072101874277, 0.1600000075995922, 0.11200000531971455, 0.944000044837594, 0.0, 0.0, 0.0, 0.0, 0.0, 1.6518360202926962E9, 0.0, 2022-05-06 12:20:20.292
43.0, -261.59104230068624, -181.99475154373795, -201.8349208086729, -190.1290339473635, 0.1600000075995922, 0.11200000531971455, 0.944000044837594, 0.0, 0.0, 0.0, 0.0, 0.0, 1.651836020293633E9, 0.0, 2022-05-06 12:20:20.293
43.0, -230.10108467377722, -106.02990364376456, -128.40946497861296, -158.54557882156223, 0.1600000075995922, 0.11200000531971455, 0.944000044837594, 0.0, 0.0, 0.0, 0.0, 0.0, 1.651836020293633E9, 0.0, 2022-05-06 12:20:20.293
44.0, -219.4760288996622, -78.4818005701527, -109.1265408070758, -153.63883007969707, 0.1600000075995922, 0.11200000531971455, 0.944000044837594, 0.0, 0.0, 0.0, 0.0, 0.0, 1.651836020307718E9, 0.0, 2022-05-06 12:20:20.307
44.0, -232.45722164586186, -145.0295803816989, -165.92440143413842, -167.2632856182754, 0.1600000075995922, 0.11200000531971455, 0.944000044837594, 0.0, 0.0, 0.0, 0.0, 0.0, 1.651836020307718E9, 0.0, 2022-05-06 12:20:20.307
45.0, -236.5150130977854, -162.57345107384026, -186.54994968976825, -168.16460150759667, 0.1600000075995922, 0.11200000531971455, 0.944000044837594, 0.0, 0.0, 0.0, 0.0, 0.0, 1.6518360203086712E9, 0.0, 2022-05-06 12:20:20.308
45.0, -234.89563641697168, -110.59258158970624, -142.90905710682273, -170.87228907551616, 0.1600000075995922, 0.11200000531971455, 0.944000044837594, 0.0, 0.0, 0.0, 0.0, 0.0, 1.6518360203086712E9, 0.0, 2022-05-06 12:20:20.308
46.0, -226.11435132101178, -79.50653315801173, -105.76063084695488, -156.01740645151585, 0.1600000075995922, 0.11200000531971455, 0.944000044837594, 0.0, 0.0, 0.0, 0.0, 0.0, 1.6518360203376207E9, 0.0, 2022-05-06 12:20:20.337
46.0, -223.71333554945886, -129.80818756204098, -159.51421291008592, -163.57948416192085, 0.1600000075995922, 0.11200000531971455, 0.944000044837594, 0.0, 0.0, 0.0, 0.0, 0.0, 1.6518360203376207E9, 0.0, 2022-05-06 12:20:20.337
47.0, -250.95102692674845, -175.51350492052734, -197.51159645989537, -180.7194456588477, 0.1600000075995922, 0.11200000531971455, 0.944000044837594, 0.0, 0.0, 0.0, 0.0, 0.0, 1.6518360203385825E9, 0.0, 2022-05-06 12:20:20.338
47.0, -245.10182339604944, -122.44058464933187, -137.86393206659704, -166.76587892416865, 0.1600000075995922, 0.11200000531971455, 0.944000044837594, 0.0, 0.0, 0.0, 0.0, 0.0, 1.6518360203385825E9, 0.0, 2022-05-06 12:20:20.338
48.0, -220.08937249239534, -69.31156587880105, -98.64360123127699, -146.00195437017828, 0.1600000075995922, 0.11200000531971455, 0.944000044837594, 0.0, 0.0, 0.0, 0.0, 0.0, 1.6518360203395457E9, 0.0, 2022-05-06 12:20:20.339
48.0, -223.45902235247195, -131.6182991405949, -159.2636396130547, -164.61543644964695, 0.1600000075995922, 0.11200000531971455, 0.944000044837594, 0.0, 0.0, 0.0, 0.0, 0.0, 1.6518360203395457E9, 0.0, 2022-05-06 12:20:20.339
49.0, -250.8201304282993, -182.70533253531903, -200.33522092644125, -178.54282388463616, 0.1600000075995922, 0.11200000531971455, 0.944000044837594, 0.0, 0.0, 0.0, 0.0, 0.0, 1.6518360203676808E9, 0.0, 2022-05-06 12:20:20.367
49.0, -246.77355867624283, -115.55542883090675, -140.13031143974513, -154.8131586657837, 0.1600000075995922, 0.11200000531971455, 0.944000044837594, 0.0, 0.0, 0.0, 0.0, 0.0, 1.6518360203676808E9, 0.0, 2022-05-06 12:20:20.367
50.0, -206.8426468493417, -58.166664010845125, -90.22134653106332, -128.71239687502384, 0.1600000075995922, 0.11200000531971455, 0.9760000463575125, 0.0, 0.0, 0.0, 0.0, 0.0, 1.651836020368618E9, 0.0, 2022-05-06 12:20:20.368
50.0, -230.97996116336435, -138.27906096167862, -168.7816850002855, -169.27161189448088, 0.1600000075995922, 0.11200000531971455, 0.9760000463575125, 0.0, 0.0, 0.0, 0.0, 0.0, 1.651836020368618E9, 0.0, 2022-05-06 12:20:20.368
51.0, -254.6722273826599, -180.90644065663218, -197.4293186608702, -182.41362033877522, 0.1600000075995922, 0.12800000607967377, 0.9760000463575125, 0.0, 0.0, 0.0, 0.0, 0.0, 1.6518360203695817E9, 0.0, 2022-05-06 12:20:20.369
51.0, -241.60875683743507, -119.69549808185548, -142.37425141315907, -161.16724869050086, 0.1600000075995922, 0.12800000607967377, 0.9760000463575125, 0.0, 0.0, 0.0, 0.0, 0.0, 1.6518360203695817E9, 0.0, 2022-05-06 12:20:20.369
52.0, -216.74590193200856, -80.1497959503904, -109.93809909746051, -160.34821060020477, 0.1600000075995922, 0.12800000607967377, 0.9760000463575125, 0.0, 0.0, 0.0, 0.0, 0.0, 1.6518360203986304E9, 0.0, 2022-05-06 12:20:20.398
52.0, -228.7435009898618, -138.04718716442585, -166.39936872851104, -167.05385122075677, 0.1600000075995922, 0.12800000607967377, 0.9760000463575125, 0.0, 0.0, 0.0, 0.0, 0.0, 1.6518360203986304E9, 0.0, 2022-05-06 12:20:20.398
53.0, -258.4570061378181, -181.21685235295445, -206.93614434823394, -194.73285079281777, 0.1600000075995922, 0.12800000607967377, 0.9760000463575125, 0.0, 0.0, 0.0, 0.0, 0.0, 1.6518360203996084E9, 0.0, 2022-05-06 12:20:20.399
53.0, -244.0396918086335, -119.74411678127944, -145.474628476426, -164.5630778502673, 0.1600000075995922, 0.12800000607967377, 0.9760000463575125, 0.0, 0.0, 0.0, 0.0, 0.0, 1.6518360203996084E9, 0.0, 2022-05-06 12:20:20.399
54.0, -200.12578652892262, -64.22904183901846, -90.88330882322043, -139.22525565046817, 0.1600000075995922, 0.12800000607967377, 0.9760000463575125, 0.0, 0.0, 0.0, 0.0, 0.0, 1.651836020400632E9, 0.0, 2022-05-06 12:20:20.400
54.0, -228.75098078977317, -135.81072699092329, -162.1845014784485, -166.02911863289773, 0.1600000075995922, 0.12800000607967377, 0.9760000463575125, 0.0, 0.0, 0.0, 0.0, 0.0, 1.651836020400632E9, 0.0, 2022-05-06 12:20:20.400
55.0, -245.02702539693564, -176.62425520736724, -194.88618669100106, -175.53968422021717, 0.1600000075995922, 0.12800000607967377, 0.9760000463575125, 0.0, 0.0, 0.0, 0.0, 0.0, 1.6518360204117184E9, 0.0, 2022-05-06 12:20:20.411
55.0, -231.93737555202097, -100.03484401479363, -122.79213524516672, -148.33939184248447, 0.1600000075995922, 0.12800000607967377, 0.9760000463575125, 0.0, 0.0, 0.0, 0.0, 0.0, 1.6518360204117184E9, 0.0, 2022-05-06 12:20:20.411
56.0, -210.62742560449988, -70.13434386905283, -100.71176590677351, -145.64292397443205, 0.1600000075995922, 0.12800000607967377, 0.9760000463575125, 0.0, 0.0, 0.0, 0.0, 0.0, 1.651836020427677E9, 0.0, 2022-05-06 12:20:20.427
56.0, -224.6296110386029, -140.34722563717514, -170.13178888428956, -168.0411848090589, 0.1600000075995922, 0.12800000607967377, 0.9760000463575125, 0.0, 0.0, 0.0, 0.0, 0.0, 1.651836020427677E9, 0.0, 2022-05-06 12:20:20.427
57.0, -244.65303540136665, -163.20175426639616, -186.48637139052153, -166.45920712780207, 0.1600000075995922, 0.12800000607967377, 0.9760000463575125, 0.0, 0.0, 0.0, 0.0, 0.0, 1.6518360204286344E9, 0.0, 2022-05-06 12:20:20.428
57.0, -248.13488226011395, -113.79767585173249, -137.78165426757187, -157.35629063565284, 0.1600000075995922, 0.12800000607967377, 0.9760000463575125, 0.0, 0.0, 0.0, 0.0, 0.0, 1.6518360204286344E9, 0.0, 2022-05-06 12:20:20.428
58.0, -213.9933355646208, -70.68036926258355, -97.71984594222158, -137.8751517664641, 0.1600000075995922, 0.12800000607967377, 0.9760000463575125, 0.0, 0.0, 0.0, 0.0, 0.0, 1.6518360204576862E9, 0.0, 2022-05-06 12:20:20.457
58.0, -229.6298572793603, -142.6958828093484, -171.0779835730791, -171.2313194712624, 0.1600000075995922, 0.12800000607967377, 0.9760000463575125, 0.0, 0.0, 0.0, 0.0, 0.0, 1.6518360204576862E9, 0.0, 2022-05-06 12:20:20.457
59.0, -265.2823235569522, -187.15581348259002, -208.19275073334575, -186.33677539229393, 0.1600000075995922, 0.12800000607967377, 0.9760000463575125, 0.0, 0.0, 0.0, 0.0, 0.0, 1.651836020458629E9, 0.0, 2022-05-06 12:20:20.458
59.0, -259.9305267203599, -136.59236608166248, -156.08472465071827, -172.7871178528294, 0.1600000075995922, 0.12800000607967377, 0.9760000463575125, 0.0, 0.0, 0.0, 0.0, 0.0, 1.651836020458629E9, 0.0, 2022-05-06 12:20:20.458
60.0, -217.9202305180952, -76.69038849137723, -102.44707948621362, -147.11270465701818, 0.1600000075995922, 0.12800000607967377, 0.9920000471174717, 0.0, 0.0, 0.0, 0.0, 0.0, 1.6518360204595628E9, 0.0, 2022-05-06 12:20:20.459
60.0, -226.18914932012558, -136.35301248449832, -158.65029602032155, -157.1505961380899, 0.1600000075995922, 0.12800000607967377, 0.9920000471174717, 0.0, 0.0, 0.0, 0.0, 0.0, 1.6518360204595628E9, 0.0, 2022-05-06 12:20:20.459
61.0, -266.6436471408233, -186.16847989428788, -214.2102497620508, -189.0556826600805, 0.1600000075995922, 0.11200000531971455, 0.9920000471174717, 0.0, 0.0, 0.0, 0.0, 0.0, 1.6518360204717193E9, 0.0, 2022-05-06 12:20:20.471
61.0, -256.51599806081504, -124.29557502735406, -156.57839144486934, -187.54476307798177, 0.1600000075995922, 0.11200000531971455, 0.9920000471174717, 0.0, 0.0, 0.0, 0.0, 0.0, 1.6518360204717193E9, 0.0, 2022-05-06 12:20:20.471
62.0, -224.16960334405303, -77.93951507657766, -109.07792210765183, -162.35279697645456, 0.1600000075995922, 0.11200000531971455, 0.9920000471174717, 0.0, 0.0, 0.0, 0.0, 0.0, 1.6518360204877348E9, 0.0, 2022-05-06 12:20:20.487
62.0, -235.91288920491934, -136.18471698649228, -173.01899165008217, -172.09523636102676, 0.1600000075995922, 0.11200000531971455, 0.9920000471174717, 0.0, 0.0, 0.0, 0.0, 0.0, 1.6518360204877348E9, 0.0, 2022-05-06 12:20:20.487
63.0, -257.0582835543901, -179.1935664769262, -204.41545177809894, -181.66564034763724, 0.1600000075995922, 0.11200000531971455, 0.9920000471174717, 0.0, 0.0, 0.0, 0.0, 0.0, 1.651836020488573E9, 0.0, 2022-05-06 12:20:20.488
63.0, -252.8247168045491, -126.11690630577505, -147.97288164682686, -162.479953574948, 0.1600000075995922, 0.11200000531971455, 0.9920000471174717, 0.0, 0.0, 0.0, 0.0, 0.0, 1.651836020488573E9, 0.0, 2022-05-06 12:20:20.488
64.0, -219.5096879992634, -82.81260471884161, -112.67570586502552, -160.71472079586238, 0.1600000075995922, 0.11200000531971455, 0.9920000471174717, 0.0, 0.0, 0.0, 0.0, 0.0, 1.6518360205176384E9, 0.0, 2022-05-06 12:20:20.517
64.0, -239.7836856590584, -137.6245784694329, -166.66490162536502, -170.49455917999148, 0.1600000075995922, 0.11200000531971455, 0.9920000471174717, 0.0, 0.0, 0.0, 0.0, 0.0, 1.6518360205176384E9, 0.0, 2022-05-06 12:20:20.517
65.0, -255.69695997051895, -183.58794892486185, -205.96003045979887, -181.95735254418105, 0.1600000075995922, 0.11200000531971455, 0.9920000471174717, 0.0, 0.0, 0.0, 0.0, 0.0, 1.6518360205187795E9, 0.0, 2022-05-06 12:20:20.518
65.0, -257.0882027540356, -130.45145035441965, -151.38367040641606, -171.2687184708193, 0.1600000075995922, 0.11200000531971455, 0.9920000471174717, 0.0, 0.0, 0.0, 0.0, 0.0, 1.6518360205187795E9, 0.0, 2022-05-06 12:20:20.518
66.0, -214.03447446413338, -63.49602144770324, -89.33125034160912, -131.66317794006318, 0.1600000075995922, 0.11200000531971455, 0.9920000471174717, 0.0, 0.0, 0.0, 0.0, 0.0, 1.6518360205195572E9, 0.0, 2022-05-06 12:20:20.519
66.0, -231.46988805755973, -130.45893015433103, -159.80218520667404, -161.35050378832966, 0.1600000075995922, 0.11200000531971455, 0.9920000471174717, 0.0, 0.0, 0.0, 0.0, 0.0, 1.6518360205195572E9, 0.0, 2022-05-06 12:20:20.519
67.0, -266.0452631479129, -193.93251220230013, -210.90417820122093, -185.68977269995958, 0.1600000075995922, 0.11200000531971455, 0.9920000471174717, 0.0, 0.0, 0.0, 0.0, 0.0, 1.651836020531599E9, 0.0, 2022-05-06 12:20:20.531
67.0, -249.64954174216837, -124.5760675240308, -148.12621754501015, -171.36595586966723, 0.1600000075995922, 0.11200000531971455, 0.9920000471174717, 0.0, 0.0, 0.0, 0.0, 0.0, 1.651836020531599E9, 0.0, 2022-05-06 12:20:20.531
68.0, -222.04160026926547, -73.93408222403377, -99.11108872573823, -148.17109634447843, 0.1600000075995922, 0.11200000531971455, 0.9920000471174717, 0.0, 0.0, 0.0, 0.0, 0.0, 1.6518360205476732E9, 0.0, 2022-05-06 12:20:20.547
68.0, -216.12881843931973, -120.03208907786757, -146.9182298593223, -154.46908786986023, 0.1600000075995922, 0.11200000531971455, 0.9920000471174717, 0.0, 0.0, 0.0, 0.0, 0.0, 1.6518360205476732E9, 0.0, 2022-05-06 12:20:20.547
69.0, -239.71262755990028, -160.32203130051494, -180.50627136137336, -161.43652148731053, 0.1600000075995922, 0.11200000531971455, 0.9920000471174717, 0.0, 0.0, 0.0, 0.0, 0.0, 1.651836020548634E9, 0.0, 2022-05-06 12:20:20.548
69.0, -231.53346635680646, -118.04994210135192, -138.26036146190017, -155.38162345904857, 0.1600000075995922, 0.11200000531971455, 0.9920000471174717, 0.0, 0.0, 0.0, 0.0, 0.0, 1.651836020548634E9, 0.0, 2022-05-06 12:20:20.548
70.0, -234.86571721732616, -97.18130034860224, -127.78490168601274, -166.68360112514347, 0.1600000075995922, 0.11200000531971455, 1.008000047877431, 0.0, 0.0, 0.0, 0.0, 0.0, 1.6518360205776181E9, 0.0, 2022-05-06 12:20:20.577
70.0, -239.46205426286906, -130.77682165056467, -165.81220443546772, -170.13178888428956, 0.1600000075995922, 0.11200000531971455, 1.008000047877431, 0.0, 0.0, 0.0, 0.0, 0.0, 1.6518360205776181E9, 0.0, 2022-05-06 12:20:20.577
71.0, -255.40898767393082, -174.07738333754241, -196.92817206680775, -170.68155417777598, 0.1600000075995922, 0.11200000531971455, 1.008000047877431, 0.0, 0.0, 0.0, 0.0, 0.0, 1.651836020578555E9, 0.0, 2022-05-06 12:20:20.578
71.0, -246.05549788475037, -118.63336649443954, -145.78878007270396, -168.13468230795115, 0.1600000075995922, 0.11200000531971455, 1.008000047877431, 0.0, 0.0, 0.0, 0.0, 0.0, 1.651836020578555E9, 0.0, 2022-05-06 12:20:20.578
72.0, -218.74674840830266, -68.70944198593497, -96.72129265405238, -155.26942646037787, 0.1600000075995922, 0.11200000531971455, 1.008000047877431, 0.0, 0.0, 0.0, 0.0, 0.0, 1.6518360205795777E9, 0.0, 2022-05-06 12:20:20.579
72.0, -236.91144249308854, -137.51612137071788, -171.29115787055343, -176.5681567080319, 0.1600000075995922, 0.11200000531971455, 1.008000047877431, 0.0, 0.0, 0.0, 0.0, 0.0, 1.6518360205795777E9, 0.0, 2022-05-06 12:20:20.579
73.0, -249.83653673995286, -180.36041526310146, -204.32943407911807, -183.66274692397565, 0.1600000075995922, 0.11200000531971455, 1.008000047877431, 0.0, 0.0, 0.0, 0.0, 0.0, 1.6518360206077175E9, 0.0, 2022-05-06 12:20:20.607
73.0, -268.80530931521207, -135.81446689087898, -153.49671388138086, -170.87602897547185, 0.1600000075995922, 0.11200000531971455, 1.008000047877431, 0.0, 0.0, 0.0, 0.0, 0.0, 1.6518360206077175E9, 0.0, 2022-05-06 12:20:20.607
74.0, -235.09759101457894, -83.60172360949218, -115.86210062727332, -162.7043475722894, 0.1600000075995922, 0.11200000531971455, 1.008000047877431, 0.0, 0.0, 0.0, 0.0, 0.0, 1.651836020608549E9, 0.0, 2022-05-06 12:20:20.608
74.0, -232.73023434262723, -130.5823468528688, -159.20380121376365, -173.7482721414417, 0.1600000075995922, 0.11200000531971455, 1.008000047877431, 0.0, 0.0, 0.0, 0.0, 0.0, 1.651836020608549E9, 0.0, 2022-05-06 12:20:20.608
75.0, -262.81024968624115, -182.52207743749022, -210.23473610915244, -187.51858377829194, 0.1600000075995922, 0.11200000531971455, 1.008000047877431, 0.0, 0.0, 0.0, 0.0, 0.0, 1.6518360206095738E9, 0.0, 2022-05-06 12:20:20.609
75.0, -250.99590572621673, -134.37460540793836, -152.17652919702232, -176.36994201038033, 0.1600000075995922, 0.11200000531971455, 1.008000047877431, 0.0, 0.0, 0.0, 0.0, 0.0, 1.6518360206095738E9, 0.0, 2022-05-06 12:20:20.609
76.0, -222.03786036930978, -74.43148891814053, -97.31593674700707, -132.53457462973893, 0.1600000075995922, 0.11200000531971455, 1.008000047877431, 0.0, 0.0, 0.0, 0.0, 0.0, 1.6518360206217148E9, 0.0, 2022-05-06 12:20:20.621
76.0, -228.33959179464728, -119.0933741889894, -149.38282393012196, -156.31659844797105, 0.1600000075995922, 0.11200000531971455, 1.008000047877431, 0.0, 0.0, 0.0, 0.0, 0.0, 1.6518360206217148E9, 0.0, 2022-05-06 12:20:20.621
77.0, -256.1532277651131, -175.7079797182232, -197.08150796499103, -175.74163881782442, 0.1600000075995922, 0.11200000531971455, 1.008000047877431, 0.0, 0.0, 0.0, 0.0, 0.0, 1.6518360206377463E9, 0.0, 2022-05-06 12:20:20.637
77.0, -241.69851443637162, -122.41066544968635, -141.1363445278257, -154.13623677380383, 0.1600000075995922, 0.11200000531971455, 1.008000047877431, 0.0, 0.0, 0.0, 0.0, 0.0, 1.6518360206377463E9, 0.0, 2022-05-06 12:20:20.637
78.0, -223.79935324843973, -72.27356664370745, -106.69934573583305, -151.1106577096507, 0.1600000075995922, 0.11200000531971455, 1.008000047877431, 0.0, 0.0, 0.0, 0.0, 0.0, 1.65183602063869E9, 0.0, 2022-05-06 12:20:20.638
78.0, -234.17009582556784, -131.74545573908836, -166.54896472673863, -178.02671769075096, 0.1600000075995922, 0.11200000531971455, 1.008000047877431, 0.0, 0.0, 0.0, 0.0, 0.0, 1.65183602063869E9, 0.0, 2022-05-06 12:20:20.638
79.0, -261.74063829891384, -182.93346643261611, -204.46033057756722, -181.46368575002998, 0.1600000075995922, 0.11200000531971455, 1.008000047877431, 0.0, 0.0, 0.0, 0.0, 0.0, 1.6518360206686723E9, 0.0, 2022-05-06 12:20:20.668
79.0, -241.28338554129004, -122.44806444924325, -135.55641379393637, -142.53880701120943, 0.1600000075995922, 0.11200000531971455, 1.008000047877431, 0.0, 0.0, 0.0, 0.0, 0.0, 1.6518360206686723E9, 0.0, 2022-05-06 12:20:20.668
80.0, -220.19034979119897, -70.12686406914145, -101.18299330119044, -142.07505941670388, 0.1600000075995922, 0.11200000531971455, 1.008000047877431, 0.0, 0.0, 0.0, 0.0, 0.0, 1.6518360206695552E9, 0.0, 2022-05-06 12:20:20.669
80.0, -244.34636360500008, -141.20740262698382, -175.34894932247698, -186.0114040961489, 0.1600000075995922, 0.11200000531971455, 1.008000047877431, 0.0, 0.0, 0.0, 0.0, 0.0, 1.6518360206695552E9, 0.0, 2022-05-06 12:20:20.669
81.0, -265.3459018561989, -186.62848758883774, -214.25886846147478, -194.77024979237467, 0.1600000075995922, 0.11200000531971455, 1.008000047877431, 0.0, 0.0, 0.0, 0.0, 0.0, 1.6518360206705399E9, 0.0, 2022-05-06 12:20:20.670
81.0, -261.3928276030347, -140.57161963451654, -152.34482469502836, -175.02357802633196, 0.1600000075995922, 0.11200000531971455, 1.008000047877431, 0.0, 0.0, 0.0, 0.0, 0.0, 1.6518360206705399E9, 0.0, 2022-05-06 12:20:20.670
82.0, -218.31665991339833, -76.02094639930874, -101.29145039990544, -145.42600977700204, 0.1600000075995922, 0.11200000531971455, 1.008000047877431, 0.0, 0.0, 0.0, 0.0, 0.0, 1.6518360206816983E9, 0.0, 2022-05-06 12:20:20.681
82.0, -216.1437780391425, -114.9084261385724, -150.37763731833547, -152.97312788758427, 0.1600000075995922, 0.11200000531971455, 1.008000047877431, 0.0, 0.0, 0.0, 0.0, 0.0, 1.6518360206816983E9, 0.0, 2022-05-06 12:20:20.681
83.0, -256.69925315864384, -176.265224811621, -199.79293543286622, -174.02876463811845, 0.1600000075995922, 0.11200000531971455, 1.008000047877431, 0.0, 0.0, 0.0, 0.0, 0.0, 1.6518360206977177E9, 0.0, 2022-05-06 12:20:20.697
83.0, -239.2264405656606, -126.86488629691303, -140.13031143974513, -141.0989455282688, 0.1600000075995922, 0.11200000531971455, 1.008000047877431, 0.0, 0.0, 0.0, 0.0, 0.0, 1.6518360206977177E9, 0.0, 2022-05-06 12:20:20.697
84.0, -211.64093849249184, -67.23592140339315, -103.70742577128112, -160.86431679408997, 0.1600000075995922, 0.11200000531971455, 1.008000047877431, 0.0, 0.0, 0.0, 0.0, 0.0, 1.651836020698686E9, 0.0, 2022-05-06 12:20:20.698
84.0, -235.50898000970483, -121.86464005615562, -157.8536973297596, -163.7066407604143, 0.1600000075995922, 0.11200000531971455, 1.008000047877431, 0.0, 0.0, 0.0, 0.0, 0.0, 1.651836020698686E9, 0.0, 2022-05-06 12:20:20.698
85.0, -267.17471293453127, -182.054589943029, -204.42293157801032, -187.09971498325467, 0.1600000075995922, 0.11200000531971455, 1.008000047877431, 0.0, 0.0, 0.0, 0.0, 0.0, 1.6518360207116337E9, 0.0, 2022-05-06 12:20:20.711
85.0, -265.76851055119187, -145.15673698019236, -163.8225776590407, -179.3843013746664, 0.1600000075995922, 0.11200000531971455, 1.008000047877431, 0.0, 0.0, 0.0, 0.0, 0.0, 1.6518360207116337E9, 0.0, 2022-05-06 12:20:20.711
86.0, -218.69064990896732, -73.42171593010426, -95.05329727381468, -127.25009599234909, 0.1600000075995922, 0.11200000531971455, 1.008000047877431, 0.0, 0.0, 0.0, 0.0, 0.0, 1.6518360207277617E9, 0.0, 2022-05-06 12:20:20.727
86.0, -220.22774879075587, -113.3862868566066, -143.8141128960997, -151.4061098061502, 0.1600000075995922, 0.11200000531971455, 1.008000047877431, 0.0, 0.0, 0.0, 0.0, 0.0, 1.6518360207277617E9, 0.0, 2022-05-06 12:20:20.727
87.0, -249.17457444779575, -172.1214156607166, -202.870873096399, -182.17052684165537, 0.1600000075995922, 0.11200000531971455, 1.008000047877431, 0.0, 0.0, 0.0, 0.0, 0.0, 1.651836020728541E9, 0.0, 2022-05-06 12:20:20.728
87.0, -244.4136818042025, -139.01956115290523, -157.51336643379182, -170.12804898433387, 0.1600000075995922, 0.11200000531971455, 1.008000047877431, 0.0, 0.0, 0.0, 0.0, 0.0, 1.651836020728541E9, 0.0, 2022-05-06 12:20:20.728
88.0, -235.66231590788811, -87.12844926770777, -117.73953040502965, -161.15602899063379, 0.1600000075995922, 0.11200000531971455, 1.008000047877431, 0.0, 0.0, 0.0, 0.0, 0.0, 1.6518360207417104E9, 0.0, 2022-05-06 12:20:20.741
88.0, -229.01277378667146, -111.66219297703356, -149.79421292524785, -157.90231602918357, 0.1600000075995922, 0.11200000531971455, 1.008000047877431, 0.0, 0.0, 0.0, 0.0, 0.0, 1.6518360207417104E9, 0.0, 2022-05-06 12:20:20.741
89.0, -261.8565751975402, -179.44787967391312, -200.63815282285213, -177.01694470271468, 0.1600000075995922, 0.11200000531971455, 1.008000047877431, 0.0, 0.0, 0.0, 0.0, 0.0, 1.6518360207576587E9, 0.0, 2022-05-06 12:20:20.757
89.0, -269.65800650510937, -153.36207748297602, -167.38670231681317, -180.96253915596753, 0.1600000075995922, 0.11200000531971455, 1.008000047877431, 0.0, 0.0, 0.0, 0.0, 0.0, 1.6518360207576587E9, 0.0, 2022-05-06 12:20:20.757
90.0, -224.83156563621014, -76.56323189288378, -104.28711026441306, -156.72050764318556, 0.1600000075995922, 0.11200000531971455, 1.008000047877431, 0.0, 0.0, 0.0, 0.0, 0.0, 1.651836020772686E9, 0.0, 2022-05-06 12:20:20.772
90.0, -231.12581726163626, -124.08988052979112, -158.05565192736685, -171.27619827073067, 0.1600000075995922, 0.11200000531971455, 1.008000047877431, 0.0, 0.0, 0.0, 0.0, 0.0, 1.651836020772686E9, 0.0, 2022-05-06 12:20:20.772
91.0, -264.5642627654597, -183.74128482304513, -208.05437443498522, -181.789057046175, 0.1600000075995922, 0.11200000531971455, 1.008000047877431, 0.0, 0.0, 0.0, 0.0, 0.0, 1.6518360207736857E9, 0.0, 2022-05-06 12:20:20.773
91.0, -258.5243243370205, -142.38547111302614, -156.29041914828122, -165.0829239441082, 0.1600000075995922, 0.11200000531971455, 1.008000047877431, 0.0, 0.0, 0.0, 0.0, 0.0, 1.6518360207736857E9, 0.0, 2022-05-06 12:20:20.773
92.0, -206.248002756387, -67.43413610104471, -101.22787210065871, -148.26459384337068, 0.1600000075995922, 0.11200000531971455, 1.008000047877431, 0.0, 0.0, 0.0, 0.0, 0.0, 1.651836020787675E9, 0.0, 2022-05-06 12:20:20.787
92.0, -227.438275905326, -117.85546730365604, -154.83559806551784, -161.8965291818604, 0.1600000075995922, 0.11200000531971455, 1.008000047877431, 0.0, 0.0, 0.0, 0.0, 0.0, 1.651836020787675E9, 0.0, 2022-05-06 12:20:20.787
93.0, -270.81737549137324, -179.1973063768819, -210.19733710959554, -192.5749285183847, 0.1600000075995922, 0.11200000531971455, 1.008000047877431, 0.0, 0.0, 0.0, 0.0, 0.0, 1.6518360207885723E9, 0.0, 2022-05-06 12:20:20.788
93.0, -253.9691261909902, -136.48390898294747, -153.28727948386222, -167.4091417165473, 0.1600000075995922, 0.11200000531971455, 1.008000047877431, 0.0, 0.0, 0.0, 0.0, 0.0, 1.6518360207885723E9, 0.0, 2022-05-06 12:20:20.788
94.0, -220.63165798597038, -70.90476325992495, -102.17780668940395, -139.00460155308247, 0.1600000075995922, 0.11200000531971455, 1.008000047877431, 0.0, 0.0, 0.0, 0.0, 0.0, 1.6518360208017502E9, 0.0, 2022-05-06 12:20:20.801
94.0, -213.8437395663932, -103.0492033790797, -134.8046939028427, -138.78394745569676, 0.1600000075995922, 0.11200000531971455, 1.008000047877431, 0.0, 0.0, 0.0, 0.0, 0.0, 1.6518360208017502E9, 0.0, 2022-05-06 12:20:20.801
95.0, -248.80806425213814, -167.20718711894006, -192.95639831386507, -175.31903012283146, 0.1600000075995922, 0.11200000531971455, 1.008000047877431, 0.0, 0.0, 0.0, 0.0, 0.0, 1.6518360208176253E9, 0.0, 2022-05-06 12:20:20.817
95.0, -246.95681377407163, -145.35121177788824, -162.8202844709158, -177.14410130120814, 0.1600000075995922, 0.11200000531971455, 1.008000047877431, 0.0, 0.0, 0.0, 0.0, 0.0, 1.6518360208176253E9, 0.0, 2022-05-06 12:20:20.817
96.0, -205.03627517074347, -69.83889177255332, -97.19999984838068, -143.93378969468176, 0.1600000075995922, 0.11200000531971455, 1.008000047877431, 0.0, 0.0, 0.0, 0.0, 0.0, 1.6518360208326023E9, 0.0, 2022-05-06 12:20:20.832
96.0, -237.62202348466963, -116.82325491588563, -149.05371273402125, -154.68974196724594, 0.1600000075995922, 0.11200000531971455, 1.008000047877431, 0.0, 0.0, 0.0, 0.0, 0.0, 1.6518360208326023E9, 0.0, 2022-05-06 12:20:20.832
97.0, -247.77211196441203, -178.37078848667443, -196.1689723758027, -168.04866460897028, 0.1600000075995922, 0.11200000531971455, 1.008000047877431, 0.0, 0.0, 0.0, 0.0, 0.0, 1.65183602083364E9, 0.0, 2022-05-06 12:20:20.833
97.0, -250.51719853188843, -144.42745648883283, -156.1857019495219, -173.50517864432186, 0.1600000075995922, 0.11200000531971455, 1.008000047877431, 0.0, 0.0, 0.0, 0.0, 0.0, 1.65183602083364E9, 0.0, 2022-05-06 12:20:20.833
98.0, -220.57929938659072, -69.25172747951001, -96.98682555090636, -139.00460155308247, 0.1600000075995922, 0.11200000531971455, 1.008000047877431, 0.0, 0.0, 0.0, 0.0, 0.0, 1.6518360208476028E9, 0.0, 2022-05-06 12:20:20.847
98.0, -233.36227743513882, -126.70033069886267, -158.97192741651088, -174.06242373771966, 0.1600000075995922, 0.11200000531971455, 1.008000047877431, 0.0, 0.0, 0.0, 0.0, 0.0, 1.6518360208476028E9, 0.0, 2022-05-06 12:20:20.847
99.0, -255.11353557743132, -171.05554417334497, -198.12120015267283, -179.70967267081141, 0.1600000075995922, 0.11200000531971455, 1.008000047877431, 0.0, 0.0, 0.0, 0.0, 0.0, 1.6518360208485887E9, 0.0, 2022-05-06 12:20:20.848
99.0, -258.6888799350709, -147.74474774952978, -163.14565576706082, -176.81499010510743, 0.1600000075995922, 0.11200000531971455, 1.008000047877431, 0.0, 0.0, 0.0, 0.0, 0.0, 1.6518360208485887E9, 0.0, 2022-05-06 12:20:20.848
100.0, -219.6966829970479, -72.28104644361883, -104.88923415727913, -153.7024083789438, 0.1600000075995922, 0.11200000531971455, 1.008000047877431, 0.0, 0.0, 0.0, 0.0, 0.0, 1.6518360208927455E9, 0.0, 2022-05-06 12:20:20.892
100.0, -220.3623851891607, -110.77957658749074, -144.2180220913142, -164.76503244787455, 0.1600000075995922, 0.11200000531971455, 1.008000047877431, 0.0, 0.0, 0.0, 0.0, 0.0, 1.6518360208927455E9, 0.0, 2022-05-06 12:20:20.892
0.0, -256.47485916130245, -184.4051170651801, -205.78986501181498, -184.96049220860004, 0.1600000075995922, 0.11200000531971455, 1.008000047877431, 0.0, 0.0, 0.0, 0.0, 0.0, 1.6518360209096148E9, 0.0, 2022-05-06 12:20:20.909
1.0, -266.58754864148796, -154.7551902164705, -174.4719427828677, -178.87567498069257, 0.1600000075995922, 0.11200000531971455, 1.008000047877431, 0.0, 0.0, 0.0, 0.0, 0.0, 1.6518360209105487E9, 0.0, 2022-05-06 12:20:20.910
1.0, -220.63539788592607, -70.46532501513138, -105.24265470309183, -153.57151188049465, 0.1600000075995922, 0.11200000531971455, 1.008000047877431, 0.0, 0.0, 0.0, 0.0, 0.0, 1.6518360209105487E9, 0.0, 2022-05-06 12:20:20.910
2.0, -220.83735248353332, -112.42700251797214, -145.58869542507455, -156.30911864805967, 0.1600000075995922, 0.11200000531971455, 1.008000047877431, 0.0, 0.0, 0.0, 0.0, 0.0, 1.651836020911618E9, 0.0, 2022-05-06 12:20:20.911
2.0, -250.14694843627512, -179.33755262522027, -201.25336636556312, -179.4590993737802, 0.1600000075995922, 0.11200000531971455, 1.008000047877431, 0.0, 0.0, 0.0, 0.0, 0.0, 1.651836020911618E9, 0.0, 2022-05-06 12:20:20.911
3.0, -256.3888414623216, -147.74287779955193, -158.85412056790665, -172.24857225921005, 0.1600000075995922, 0.11200000531971455, 1.008000047877431, 0.0, 0.0, 0.0, 0.0, 0.0, 1.6518360209126163E9, 0.0, 2022-05-06 12:20:20.912
3.0, -221.8508653715253, -81.239976787474, -109.78663314925507, -151.09195820987225, 0.1600000075995922, 0.11200000531971455, 1.008000047877431, 0.0, 0.0, 0.0, 0.0, 0.0, 1.6518360209126163E9, 0.0, 2022-05-06 12:20:20.912
4.0, -217.9875487172976, -109.68565585045144, -141.65058077173308, -153.4032163824886, 0.1600000075995922, 0.11200000531971455, 1.008000047877431, 0.0, 0.0, 0.0, 0.0, 0.0, 1.6518360209236615E9, 0.0, 2022-05-06 12:20:20.923
4.0, -252.7461789054796, -172.5421544057317, -198.50079999817535, -173.96144643891603, 0.1600000075995922, 0.11200000531971455, 1.008000047877431, 0.0, 0.0, 0.0, 0.0, 0.0, 1.6518360209236615E9, 0.0, 2022-05-06 12:20:20.923
5.0, -253.73351249378175, -144.81827603420243, -159.9798304545693, -167.23336641862988, 0.1600000075995922, 0.11200000531971455, 1.008000047877431, 0.0, 0.0, 0.0, 0.0, 0.0, 1.651836020924621E9, 0.0, 2022-05-06 12:20:20.924
5.0, -208.81731402594596, -69.24237772962078, -98.54075398249552, -148.01028064638376, 0.1600000075995922, 0.11200000531971455, 1.008000047877431, 0.0, 0.0, 0.0, 0.0, 0.0, 1.651836020924621E9, 0.0, 2022-05-06 12:20:20.924
6.0, -207.64298543985933, -93.79482093872502, -128.19816063111648, -134.03801441192627, 0.1600000075995922, 0.11200000531971455, 1.008000047877431, 0.0, 0.0, 0.0, 0.0, 0.0, 1.6518360209256103E9, 0.0, 2022-05-06 12:20:20.925
6.0, -264.8223158624023, -183.38786427723244, -207.79819128802046, -180.49879156146199, 0.1600000075995922, 0.11200000531971455, 1.008000047877431, 0.0, 0.0, 0.0, 0.0, 0.0, 1.6518360209256103E9, 0.0, 2022-05-06 12:20:20.925
7.0, -261.871534797363, -147.9448323971592, -161.52440913626924, -177.51435139682144, 0.1600000075995922, 0.11200000531971455, 1.008000047877431, 0.0, 0.0, 0.0, 0.0, 0.0, 1.6518360209526672E9, 0.0, 2022-05-06 12:20:20.952
7.0, -213.2864944729954, -60.19929963676259, -90.31671397993341, -127.27253539208323, 0.1600000075995922, 0.11200000531971455, 1.008000047877431, 0.0, 0.0, 0.0, 0.0, 0.0, 1.6518360209526672E9, 0.0, 2022-05-06 12:20:20.952
8.0, -204.7258634744212, -96.32673320872709, -134.03614446194842, -149.56607902795076, 0.1600000075995922, 0.11200000531971455, 1.008000047877431, 0.0, 0.0, 0.0, 0.0, 0.0, 1.6518360209536085E9, 0.0, 2022-05-06 12:20:20.953
8.0, -253.6400149948895, -184.8426853599958, -207.38306239293888, -196.80475536826998, 0.1600000075995922, 0.11200000531971455, 1.008000047877431, 0.0, 0.0, 0.0, 0.0, 0.0, 1.6518360209536085E9, 0.0, 2022-05-06 12:20:20.953
9.0, -265.92184644937515, -158.4689108724706, -173.0993994991295, -190.77603663969785, 0.1600000075995922, 0.11200000531971455, 1.008000047877431, 0.0, 0.0, 0.0, 0.0, 0.0, 1.6518360209546149E9, 0.0, 2022-05-06 12:20:20.954
9.0, -215.83710624277592, -68.99554433254525, -104.12068471638486, -159.24494011327624, 0.1600000075995922, 0.11200000531971455, 1.008000047877431, 0.0, 0.0, 0.0, 0.0, 0.0, 1.6518360209546149E9, 0.0, 2022-05-06 12:20:20.954
10.0, -213.71284306794405, -110.74404753791168, -147.57832220150158, -161.406602287665, 0.1600000075995922, 0.11200000531971455, 1.008000047877431, 0.0, 0.0, 0.0, 0.0, 0.0, 1.6518360209836757E9, 0.0, 2022-05-06 12:20:20.983
10.0, -257.54073064867407, -180.22390891471878, -199.73122708359733, -183.13168113026768, 0.1600000075995922, 0.11200000531971455, 1.008000047877431, 0.0, 0.0, 0.0, 0.0, 0.0, 1.6518360209836757E9, 0.0, 2022-05-06 12:20:20.983
11.0, -272.88554016686976, -157.47409748425707, -174.7262559798546, -184.8333356101066, 0.1600000075995922, 0.11200000531971455, 1.008000047877431, 0.0, 0.0, 0.0, 0.0, 0.0, 1.6518360209845417E9, 0.0, 2022-05-06 12:20:20.984
11.0, -220.97572878189385, -81.43445158516988, -105.75876089697704, -149.05371273402125, 0.1600000075995922, 0.11200000531971455, 1.008000047877431, 0.0, 0.0, 0.0, 0.0, 0.0, 1.6518360209845417E9, 0.0, 2022-05-06 12:20:20.984
12.0, -216.24101543799043, -92.4708963544108, -133.58735646726564, -146.34976506605744, 0.1600000075995922, 0.11200000531971455, 1.008000047877431, 0.0, 0.0, 0.0, 0.0, 0.0, 1.651836021013664E9, 0.0, 2022-05-06 12:20:21.013
12.0, -258.1278949417174, -182.50150798773393, -199.6713886843063, -184.25365111697465, 0.1600000075995922, 0.11200000531971455, 1.008000047877431, 0.0, 0.0, 0.0, 0.0, 0.0, 1.651836021013664E9, 0.0, 2022-05-06 12:20:21.013
13.0, -253.43058059737086, -149.3136357809417, -159.79283545678481, -165.47561343945563, 0.1600000075995922, 0.11200000531971455, 1.008000047877431, 0.0, 0.0, 0.0, 0.0, 0.0, 1.6518360210146148E9, 0.0, 2022-05-06 12:20:21.014
13.0, -216.02036134060472, -70.18109261849895, -99.95817606570199, -145.97577507048845, 0.1600000075995922, 0.11200000531971455, 1.008000047877431, 0.0, 0.0, 0.0, 0.0, 0.0, 1.6518360210146148E9, 0.0, 2022-05-06 12:20:21.014
14.0, -209.41195811890066, -91.73413606313989, -122.6668485966511, -138.9597227536142, 0.1600000075995922, 0.11200000531971455, 1.008000047877431, 0.0, 0.0, 0.0, 0.0, 0.0, 1.651836021015558E9, 0.0, 2022-05-06 12:20:21.015
14.0, -238.39244287554175, -176.33441296080127, -196.51117322174832, -168.75176580064, 0.1600000075995922, 0.11200000531971455, 1.008000047877431, 0.0, 0.0, 0.0, 0.0, 0.0, 1.651836021015558E9, 0.0, 2022-05-06 12:20:21.015
15.0, -254.77320468146354, -148.59931488940492, -168.71997665101662, -177.91826059203595, 0.1600000075995922, 0.11200000531971455, 1.008000047877431, 0.0, 0.0, 0.0, 0.0, 0.0, 1.6518360210165584E9, 0.0, 2022-05-06 12:20:21.016
15.0, -217.56120012234896, -68.53553663799539, -98.46595598338172, -154.966494563967, 0.1600000075995922, 0.11200000531971455, 1.008000047877431, 0.0, 0.0, 0.0, 0.0, 0.0, 1.6518360210165584E9, 0.0, 2022-05-06 12:20:21.016
16.0, -207.42233134247363, -92.42975745489821, -125.32217756519094, -140.216329138726, 0.1600000075995922, 0.11200000531971455, 1.008000047877431, 0.0, 0.0, 0.0, 0.0, 0.0, 1.6518360210426452E9, 0.0, 2022-05-06 12:20:21.042
16.0, -264.7849168628454, -186.8846707358025, -207.4915194916539, -178.3857480864972, 0.1600000075995922, 0.11200000531971455, 1.008000047877431, 0.0, 0.0, 0.0, 0.0, 0.0, 1.6518360210426452E9, 0.0, 2022-05-06 12:20:21.042
17.0, -258.5766829364002, -157.2833625865169, -174.34852608432993, -176.73645220603794, 0.1600000075995922, 0.11200000531971455, 1.008000047877431, 0.0, 0.0, 0.0, 0.0, 0.0, 1.6518360210436385E9, 0.0, 2022-05-06 12:20:21.043
17.0, -212.68811048008502, -72.17819919483736, -96.41649080766365, -138.86248535476625, 0.1600000075995922, 0.11200000531971455, 1.008000047877431, 0.0, 0.0, 0.0, 0.0, 0.0, 1.6518360210436385E9, 0.0, 2022-05-06 12:20:21.043
18.0, -212.63201198074967, -92.07446695910767, -129.2976912180893, -149.2893264312297, 0.1600000075995922, 0.11200000531971455, 1.008000047877431, 0.0, 0.0, 0.0, 0.0, 0.0, 1.6518360210446298E9, 0.0, 2022-05-06 12:20:21.044
18.0, -262.43625969067216, -187.9954210226424, -214.58236980764195, -197.9042859552428, 0.1600000075995922, 0.11200000531971455, 1.008000047877431, 0.0, 0.0, 0.0, 0.0, 0.0, 1.6518360210446298E9, 0.0, 2022-05-06 12:20:21.044
19.0, -266.7221850398928, -170.15983813395724, -186.08059224532917, -192.2757365219295, 0.1600000075995922, 0.11200000531971455, 1.008000047877431, 0.0, 0.0, 0.0, 0.0, 0.0, 1.65183602107469E9, 0.0, 2022-05-06 12:20:21.074
19.0, -211.74191579129547, -64.66100028390065, -94.26230843318626, -140.9194303303957, 0.1600000075995922, 0.11200000531971455, 1.008000047877431, 0.0, 0.0, 0.0, 0.0, 0.0, 1.65183602107469E9, 0.0, 2022-05-06 12:20:21.074
20.0, -211.15849139820784, -92.83740655006841, -126.73585974844173, -146.4769216645509, 0.1600000075995922, 0.11200000531971455, 1.008000047877431, 0.0, 0.0, 0.0, 0.0, 0.0, 1.6518360210756319E9, 0.0, 2022-05-06 12:20:21.075
20.0, -248.99505924992263, -184.34153876593336, -204.559437926393, -178.32964958716184, 0.1600000075995922, 0.11200000531971455, 1.008000047877431, 0.0, 0.0, 0.0, 0.0, 0.0, 1.6518360210756319E9, 0.0, 2022-05-06 12:20:21.075
21.0, -269.3812539083883, -156.52042299555615, -179.4385299240239, -193.45006510801613, 0.1600000075995922, 0.11200000531971455, 1.008000047877431, 0.0, 0.0, 0.0, 0.0, 0.0, 1.6518360210766149E9, 0.0, 2022-05-06 12:20:21.076
21.0, -218.5485337106511, -69.38823382789269, -100.60891865799204, -149.21078853216022, 0.1600000075995922, 0.11200000531971455, 1.008000047877431, 0.0, 0.0, 0.0, 0.0, 0.0, 1.6518360210766149E9, 0.0, 2022-05-06 12:20:21.076
22.0, -206.4349977541715, -90.88517877319828, -132.51026528002694, -141.989041717723, 0.1600000075995922, 0.11200000531971455, 1.008000047877431, 0.0, 0.0, 0.0, 0.0, 0.0, 1.6518360211036184E9, 0.0, 2022-05-06 12:20:21.103
22.0, -239.93702155724168, -170.765701926779, -199.7387068835087, -177.27873769961298, 0.1600000075995922, 0.11200000531971455, 1.008000047877431, 0.0, 0.0, 0.0, 0.0, 0.0, 1.6518360211036184E9, 0.0, 2022-05-06 12:20:21.103
23.0, -258.7973370337859, -151.50521715497598, -172.9946823003702, -172.69362035393715, 0.1600000075995922, 0.11200000531971455, 1.008000047877431, 0.0, 0.0, 0.0, 0.0, 0.0, 1.6518360211046107E9, 0.0, 2022-05-06 12:20:21.104
23.0, -209.05292772315443, -66.11956126661971, -99.584186070133, -145.93837607093155, 0.1600000075995922, 0.11200000531971455, 1.008000047877431, 0.0, 0.0, 0.0, 0.0, 0.0, 1.6518360211046107E9, 0.0, 2022-05-06 12:20:21.104
24.0, -211.5773601932451, -87.23129651648924, -122.14326260285452, -141.9591225180775, 0.1600000075995922, 0.11200000531971455, 1.008000047877431, 0.0, 0.0, 0.0, 0.0, 0.0, 1.6518360211055665E9, 0.0, 2022-05-06 12:20:21.105
24.0, -247.8581296633929, -164.0264022066258, -182.83061918383464, -152.98808748740703, 0.1600000075995922, 0.11200000531971455, 1.008000047877431, 0.0, 0.0, 0.0, 0.0, 0.0, 1.6518360211055665E9, 0.0, 2022-05-06 12:20:21.105
25.0, -249.49620584398508, -155.06560191279277, -161.58798743551597, -151.697822002694, 0.1600000075995922, 0.11200000531971455, 1.008000047877431, 0.0, 0.0, 0.0, 0.0, 0.0, 1.6518360211336572E9, 0.0, 2022-05-06 12:20:21.133
25.0, -215.97922244109213, -62.95934580406174, -104.64053081022575, -153.72110787872225, 0.1600000075995922, 0.11200000531971455, 1.008000047877431, 0.0, 0.0, 0.0, 0.0, 0.0, 1.6518360211336572E9, 0.0, 2022-05-06 12:20:21.133
26.0, -209.12398582231253, -87.48186981352046, -130.78991130040959, -148.7358212377876, 0.1600000075995922, 0.11200000531971455, 1.008000047877431, 0.0, 0.0, 0.0, 0.0, 0.0, 1.6518360211346476E9, 0.0, 2022-05-06 12:20:21.134
26.0, -267.96757172513753, -189.8840705002658, -212.49924553232267, -194.63935329392552, 0.1600000075995922, 0.11200000531971455, 1.008000047877431, 0.0, 0.0, 0.0, 0.0, 0.0, 1.6518360211346476E9, 0.0, 2022-05-06 12:20:21.134
27.0, -255.02003807853907, -157.92288547893986, -169.583893540781, -175.52098472043872, 0.1600000075995922, 0.11200000531971455, 1.008000047877431, 0.0, 0.0, 0.0, 0.0, 0.0, 1.6518360211476598E9, 0.0, 2022-05-06 12:20:21.147
27.0, -221.08044598065317, -74.24262397037819, -108.88905715988949, -152.9955672873184, 0.1600000075995922, 0.11200000531971455, 1.008000047877431, 0.0, 0.0, 0.0, 0.0, 0.0, 1.6518360211476598E9, 0.0, 2022-05-06 12:20:21.147
28.0, -218.49243521131575, -102.36667163716629, -133.46767966868356, -148.4441090412438, 0.1600000075995922, 0.11200000531971455, 1.008000047877431, 0.0, 0.0, 0.0, 0.0, 0.0, 1.6518360211636555E9, 0.0, 2022-05-06 12:20:21.163
28.0, -245.84232358727604, -181.01302780536935, -200.5577449738048, -172.33085005823523, 0.1600000075995922, 0.11200000531971455, 1.008000047877431, 0.0, 0.0, 0.0, 0.0, 0.0, 1.6518360211636555E9, 0.0, 2022-05-06 12:20:21.163
29.0, -272.6499264696613, -179.22535562654957, -191.90735637629405, -188.15436677075922, 0.1600000075995922, 0.11200000531971455, 1.008000047877431, 0.0, 0.0, 0.0, 0.0, 0.0, 1.6518360211645782E9, 0.0, 2022-05-06 12:20:21.164
29.0, -234.50668682157993, -98.15928418701515, -128.04856463288888, -173.2994841467589, 0.1600000075995922, 0.11200000531971455, 1.008000047877431, 0.0, 0.0, 0.0, 0.0, 0.0, 1.6518360211645782E9, 0.0, 2022-05-06 12:20:21.164
30.0, -214.01951486431062, -96.30429380899295, -133.5611771675758, -158.78867231868207, 0.1600000075995922, 0.11200000531971455, 1.008000047877431, 0.0, 0.0, 0.0, 0.0, 0.0, 1.6518360211655667E9, 0.0, 2022-05-06 12:20:21.165
30.0, -247.21486687101424, -176.70092315645888, -199.2637395891361, -177.978098991327, 0.1600000075995922, 0.11200000531971455, 1.008000047877431, 0.0, 0.0, 0.0, 0.0, 0.0, 1.6518360211655667E9, 0.0, 2022-05-06 12:20:21.165
31.0, -251.44095382094383, -162.34344722656533, -175.04788737604395, -175.80895701702684, 0.1600000075995922, 0.11200000531971455, 1.008000047877431, 0.0, 0.0, 0.0, 0.0, 0.0, 1.6518360211767244E9, 0.0, 2022-05-06 12:20:21.176
31.0, -204.89041907247156, -66.58330886112526, -94.79337422689423, -136.16227758675814, 0.1600000075995922, 0.11200000531971455, 1.008000047877431, 0.0, 0.0, 0.0, 0.0, 0.0, 1.6518360211767244E9, 0.0, 2022-05-06 12:20:21.176
32.0, -210.64612510427833, -85.21175054041669, -123.33255078876391, -141.97408211790025, 0.1600000075995922, 0.11200000531971455, 1.008000047877431, 0.0, 0.0, 0.0, 0.0, 0.0, 1.651836021192731E9, 0.0, 2022-05-06 12:20:21.192
32.0, -249.484986144118, -176.82433985499665, -198.23152720136568, -183.94697932060808, 0.1600000075995922, 0.11200000531971455, 1.008000047877431, 0.0, 0.0, 0.0, 0.0, 0.0, 1.651836021192731E9, 0.0, 2022-05-06 12:20:21.192
33.0, -268.3415617207065, -164.9501574956812, -179.15055762743577, -188.28900316916406, 0.1600000075995922, 0.11200000531971455, 1.008000047877431, 0.0, 0.0, 0.0, 0.0, 0.0, 1.6518360212236683E9, 0.0, 2022-05-06 12:20:21.223
33.0, -215.77726784348488, -64.8292957819067, -95.73956891568378, -145.3325122781098, 0.1600000075995922, 0.11200000531971455, 1.008000047877431, 0.0, 0.0, 0.0, 0.0, 0.0, 1.6518360212236683E9, 0.0, 2022-05-06 12:20:21.223
34.0, -202.21639060415328, -83.29692176310346, -114.85419758921489, -139.34119254909456, 0.1600000075995922, 0.11200000531971455, 1.008000047877431, 0.0, 0.0, 0.0, 0.0, 0.0, 1.6518360212246325E9, 0.0, 2022-05-06 12:20:21.224
34.0, -242.1921812305227, -169.6586915398948, -181.68246989743784, -157.3001921363175, 0.1600000075995922, 0.11200000531971455, 1.008000047877431, 0.0, 0.0, 0.0, 0.0, 0.0, 1.6518360212246325E9, 0.0, 2022-05-06 12:20:21.224
35.0, -247.8169907638803, -156.34090779768303, -170.67220442788675, -165.7860251357779, 0.1600000075995922, 0.11200000531971455, 1.008000047877431, 0.0, 0.0, 0.0, 0.0, 0.0, 1.6518360212256143E9, 0.0, 2022-05-06 12:20:21.225
35.0, -231.780299753882, -87.74366281041875, -120.60616372106597, -174.73560572974384, 0.1600000075995922, 0.11200000531971455, 1.008000047877431, 0.0, 0.0, 0.0, 0.0, 0.0, 1.6518360212256143E9, 0.0, 2022-05-06 12:20:21.225
36.0, -219.6181450979784, -89.23588289273903, -124.23012677812949, -156.64944954402745, 0.1600000075995922, 0.11200000531971455, 1.008000047877431, 0.0, 0.0, 0.0, 0.0, 0.0, 1.6518360212266505E9, 0.0, 2022-05-06 12:20:21.226
36.0, -259.193766429089, -187.94680232321844, -207.10256989626214, -187.2717503812164, 0.1600000075995922, 0.11200000531971455, 1.008000047877431, 0.0, 0.0, 0.0, 0.0, 0.0, 1.6518360212266505E9, 0.0, 2022-05-06 12:20:21.226
37.0, -261.3442089036107, -167.26515556825325, -177.8116734432988, -184.08161571901292, 0.1600000075995922, 0.11200000531971455, 1.008000047877431, 0.0, 0.0, 0.0, 0.0, 0.0, 1.651836021236761E9, 0.0, 2022-05-06 12:20:21.236
37.0, -208.66397812776268, -64.79937658226117, -93.13285864656791, -134.78225450310856, 0.1600000075995922, 0.11200000531971455, 1.008000047877431, 0.0, 0.0, 0.0, 0.0, 0.0, 1.651836021236761E9, 0.0, 2022-05-06 12:20:21.236
38.0, -212.51607508212328, -93.0281414478086, -128.54223142703995, -150.11584432143718, 0.1600000075995922, 0.11200000531971455, 1.008000047877431, 0.0, 0.0, 0.0, 0.0, 0.0, 1.651836021268659E9, 0.0, 2022-05-06 12:20:21.268
38.0, -257.32381645124406, -193.0704652625136, -215.9698726912029, -198.73828364536166, 0.1600000075995922, 0.11200000531971455, 1.008000047877431, 0.0, 0.0, 0.0, 0.0, 0.0, 1.651836021268659E9, 0.0, 2022-05-06 12:20:21.268
39.0, -260.3419157154858, -165.63829908752814, -176.07635986385867, -177.00198510289192, 0.1600000075995922, 0.11200000531971455, 1.008000047877431, 0.0, 0.0, 0.0, 0.0, 0.0, 1.6518360212695506E9, 0.0, 2022-05-06 12:20:21.269
39.0, -221.53297387529165, -76.66981904162094, -101.79820684390143, -147.5465330518782, 0.1600000075995922, 0.11200000531971455, 1.008000047877431, 0.0, 0.0, 0.0, 0.0, 0.0, 1.6518360212695506E9, 0.0, 2022-05-06 12:20:21.269
40.0, -201.29263531509787, -81.01184289017692, -115.77421297831461, -142.90531720686704, 0.1600000075995922, 0.11200000531971455, 1.008000047877431, 0.0, 0.0, 0.0, 0.0, 0.0, 1.651836021283606E9, 0.0, 2022-05-06 12:20:21.283
40.0, -241.1936279423535, -166.59945337614045, -191.57076538028196, -165.8944822344929, 0.1600000075995922, 0.11200000531971455, 1.008000047877431, 0.0, 0.0, 0.0, 0.0, 0.0, 1.651836021283606E9, 0.0, 2022-05-06 12:20:21.283
41.0, -265.4954978544265, -169.20242374530062, -184.04982656938955, -188.62933406513184, 0.1600000075995922, 0.11200000531971455, 1.008000047877431, 0.0, 0.0, 0.0, 0.0, 0.0, 1.6518360212846055E9, 0.0, 2022-05-06 12:20:21.284
41.0, -206.44247755408287, -71.04126960830763, -97.93863008962944, -137.27676777355373, 0.1600000075995922, 0.11200000531971455, 1.008000047877431, 0.0, 0.0, 0.0, 0.0, 0.0, 1.6518360212846055E9, 0.0, 2022-05-06 12:20:21.284
42.0, -193.62210050597787, -79.29522881051525, -109.97362814703956, -142.33685241360217, 0.1600000075995922, 0.11200000531971455, 1.008000047877431, 0.0, 0.0, 0.0, 0.0, 0.0, 1.6518360212856717E9, 0.0, 2022-05-06 12:20:21.285
42.0, -255.5623235721141, -180.13041141582653, -202.69696774845943, -184.85577500984073, 0.1600000075995922, 0.11200000531971455, 1.008000047877431, 0.0, 0.0, 0.0, 0.0, 0.0, 1.6518360212856717E9, 0.0, 2022-05-06 12:20:21.285
43.0, -267.455205431208, -170.79562112642452, -177.97622904134914, -180.66334715951234, 0.1600000075995922, 0.11200000531971455, 1.008000047877431, 0.0, 0.0, 0.0, 0.0, 0.0, 1.6518360212967012E9, 0.0, 2022-05-06 12:20:21.296
43.0, -211.79053449071944, -64.02895719138905, -96.15469781076536, -140.27242763806134, 0.1600000075995922, 0.11200000531971455, 1.008000047877431, 0.0, 0.0, 0.0, 0.0, 0.0, 1.6518360212967012E9, 0.0, 2022-05-06 12:20:21.296
44.0, -215.29482074920088, -85.56704103620723, -124.06183128012344, -156.4474949464202, 0.1600000075995922, 0.11200000531971455, 1.008000047877431, 0.0, 0.0, 0.0, 0.0, 0.0, 1.651836021327688E9, 0.0, 2022-05-06 12:20:21.327
44.0, -254.87044208031148, -179.90975731844082, -196.1521428260021, -184.52292391378433, 0.1600000075995922, 0.11200000531971455, 1.008000047877431, 0.0, 0.0, 0.0, 0.0, 0.0, 1.651836021327688E9, 0.0, 2022-05-06 12:20:21.327
45.0, -251.4858326204121, -167.81118096178398, -175.92676386563107, -176.0819697137922, 0.1600000075995922, 0.11200000531971455, 1.008000047877431, 0.0, 0.0, 0.0, 0.0, 0.0, 1.6518360213286388E9, 0.0, 2022-05-06 12:20:21.328
45.0, -225.90117702353746, -82.85935346828774, -115.98364737583324, -156.79156574234366, 0.1600000075995922, 0.11200000531971455, 1.008000047877431, 0.0, 0.0, 0.0, 0.0, 0.0, 1.6518360213286388E9, 0.0, 2022-05-06 12:20:21.328
46.0, -223.2869869545102, -95.9153442136012, -124.61907637352124, -147.47173505276442, 0.1600000075995922, 0.11200000531971455, 1.008000047877431, 0.0, 0.0, 0.0, 0.0, 0.0, 1.6518360213295603E9, 0.0, 2022-05-06 12:20:21.329
46.0, -246.47062677983195, -175.94546336540952, -195.57993813278154, -181.65068074781448, 0.1600000075995922, 0.11200000531971455, 1.008000047877431, 0.0, 0.0, 0.0, 0.0, 0.0, 1.6518360213295603E9, 0.0, 2022-05-06 12:20:21.329
47.0, -251.82990341633558, -162.01433603046462, -174.0642936876975, -171.51555186789483, 0.1600000075995922, 0.11200000531971455, 1.008000047877431, 0.0, 0.0, 0.0, 0.0, 0.0, 1.6518360213426912E9, 0.0, 2022-05-06 12:20:21.342
47.0, -225.53466682787985, -78.13585982425138, -103.8102730200626, -152.65897629130632, 0.1600000075995922, 0.11200000531971455, 1.008000047877431, 0.0, 0.0, 0.0, 0.0, 0.0, 1.6518360213426912E9, 0.0, 2022-05-06 12:20:21.342
48.0, -210.60124630481005, -82.99024996673688, -120.2994919246994, -148.4029701417312, 0.1600000075995922, 0.11200000531971455, 1.008000047877431, 0.0, 0.0, 0.0, 0.0, 0.0, 1.6518360213436666E9, 0.0, 2022-05-06 12:20:21.343
48.0, -266.9353593373671, -184.1844629677944, -205.65148871345446, -186.70702548790723, 0.1600000075995922, 0.11200000531971455, 1.008000047877431, 0.0, 0.0, 0.0, 0.0, 0.0, 1.6518360213436666E9, 0.0, 2022-05-06 12:20:21.343
49.0, -258.39342783857137, -171.74181581521407, -183.3317657778971, -182.39118093904108, 0.1600000075995922, 0.11200000531971455, 1.008000047877431, 0.0, 0.0, 0.0, 0.0, 0.0, 1.6518360213567235E9, 0.0, 2022-05-06 12:20:21.356
49.0, -226.2228084197268, -81.14647928858176, -110.2915196432732, -152.1840089969337, 0.1600000075995922, 0.11200000531971455, 1.008000047877431, 0.0, 0.0, 0.0, 0.0, 0.0, 1.6518360213567235E9, 0.0, 2022-05-06 12:20:21.356
50.0, -225.16815663222224, -90.40647157886997, -130.14290860807523, -154.59998436830938, 0.1600000075995922, 0.11200000531971455, 1.0240000486373901, 0.0, 0.0, 0.0, 0.0, 0.0, 1.6518360213727186E9, 0.0, 2022-05-06 12:20:21.372
50.0, -247.3008845699951, -175.2087030741386, -195.04513243911788, -171.39587506931275, 0.1600000075995922, 0.11200000531971455, 1.0240000486373901, 0.0, 0.0, 0.0, 0.0, 0.0, 1.6518360213727186E9, 0.0, 2022-05-06 12:20:21.372
51.0, -260.6785067114979, -171.00505552394316, -189.06503240996972, -178.18753338884562, 0.1600000075995922, 0.11200000531971455, 1.0240000486373901, 0.0, 0.0, 0.0, 0.0, 0.0, 1.6518360213877127E9, 0.0, 2022-05-06 12:20:21.387
51.0, -230.79296616557986, -84.26929575158283, -117.91717565292493, -161.83295088261366, 0.1600000075995922, 0.11200000531971455, 1.0240000486373901, 0.0, 0.0, 0.0, 0.0, 0.0, 1.6518360213877127E9, 0.0, 2022-05-06 12:20:21.387
52.0, -217.75193502008915, -85.9111118321307, -129.81379741197452, -153.8183452775702, 0.1600000075995922, 0.11200000531971455, 1.0240000486373901, 0.0, 0.0, 0.0, 0.0, 0.0, 1.6518360213886755E9, 0.0, 2022-05-06 12:20:21.388
52.0, -259.7510115224868, -180.37350491294637, -199.1141435909085, -177.604108995758, 0.1600000075995922, 0.11200000531971455, 1.0240000486373901, 0.0, 0.0, 0.0, 0.0, 0.0, 1.6518360213886755E9, 0.0, 2022-05-06 12:20:21.388
53.0, -256.0896494658664, -165.93749108398333, -179.61056532198563, -179.1262482777238, 0.1600000075995922, 0.11200000531971455, 1.0240000486373901, 0.0, 0.0, 0.0, 0.0, 0.0, 1.651836021402602E9, 0.0, 2022-05-06 12:20:21.402
53.0, -231.0024005630985, -80.29378209868446, -115.25436688447371, -153.79216597788036, 0.1600000075995922, 0.11200000531971455, 1.0240000486373901, 0.0, 0.0, 0.0, 0.0, 0.0, 1.651836021402602E9, 0.0, 2022-05-06 12:20:21.402
54.0, -232.38242364674807, -95.5824931175448, -139.59363579610363, -168.83404359966516, 0.1600000075995922, 0.11200000531971455, 1.0240000486373901, 0.0, 0.0, 0.0, 0.0, 0.0, 1.6518360214036171E9, 0.0, 2022-05-06 12:20:21.403
54.0, -265.62639435287565, -189.54373960429803, -209.66440136590973, -195.22651758696884, 0.1600000075995922, 0.11200000531971455, 1.0240000486373901, 0.0, 0.0, 0.0, 0.0, 0.0, 1.6518360214036171E9, 0.0, 2022-05-06 12:20:21.403
55.0, -273.5063635595143, -177.46012284746394, -199.26747948909178, -194.55707549490035, 0.1600000075995922, 0.11200000531971455, 1.0240000486373901, 0.0, 0.0, 0.0, 0.0, 0.0, 1.6518360214496272E9, 0.0, 2022-05-06 12:20:21.449
55.0, -238.54203887376934, -86.26640232792124, -117.8872564532794, -159.57031140942127, 0.1600000075995922, 0.11200000531971455, 1.0240000486373901, 0.0, 0.0, 0.0, 0.0, 0.0, 1.6518360214496272E9, 0.0, 2022-05-06 12:20:21.449
56.0, -214.96570955310017, -84.46003064932302, -123.79255848331377, -150.8451248127967, 0.1600000075995922, 0.11200000531971455, 1.0240000486373901, 0.0, 0.0, 0.0, 0.0, 0.0, 1.65183602145056E9, 0.0, 2022-05-06 12:20:21.450
56.0, -227.91324319969863, -165.0997534939088, -178.73916863230988, -161.3355441885069, 0.1600000075995922, 0.11200000531971455, 1.0240000486373901, 0.0, 0.0, 0.0, 0.0, 0.0, 1.65183602145056E9, 0.0, 2022-05-06 12:20:21.450
57.0, -275.3463943377137, -176.40921095991507, -194.97033444000408, -185.274643804878, 0.1600000075995922, 0.11200000531971455, 1.0240000486373901, 0.0, 0.0, 0.0, 0.0, 0.0, 1.6518360214515548E9, 0.0, 2022-05-06 12:20:21.451
57.0, -213.9147976655513, -70.7944362112321, -109.08727185754105, -148.1823160443455, 0.1600000075995922, 0.11200000531971455, 1.0240000486373901, 0.0, 0.0, 0.0, 0.0, 0.0, 1.6518360214515548E9, 0.0, 2022-05-06 12:20:21.451
58.0, -205.21953026857227, -80.58175439527258, -116.03226607525721, -143.57849919889122, 0.1600000075995922, 0.11200000531971455, 1.0240000486373901, 0.0, 0.0, 0.0, 0.0, 0.0, 1.6518360214526207E9, 0.0, 2022-05-06 12:20:21.452
58.0, -258.77115773409605, -173.8025006907992, -199.68260838417336, -181.8227161457762, 0.1600000075995922, 0.11200000531971455, 1.0240000486373901, 0.0, 0.0, 0.0, 0.0, 0.0, 1.6518360214526207E9, 0.0, 2022-05-06 12:20:21.452
59.0, -268.88758711423725, -176.57002665800974, -192.42720247013494, -183.43087312672287, 0.1600000075995922, 0.11200000531971455, 1.0240000486373901, 0.0, 0.0, 0.0, 0.0, 0.0, 1.6518360214626956E9, 0.0, 2022-05-06 12:20:21.462
59.0, -225.52344712801278, -77.8329279278405, -107.62871087482199, -150.7703268136829, 0.1600000075995922, 0.11200000531971455, 1.0240000486373901, 0.0, 0.0, 0.0, 0.0, 0.0, 1.6518360214626956E9, 0.0, 2022-05-06 12:20:21.462
60.0, -210.05148101132363, -72.3502345927991, -114.23337419657037, -142.03766041714698, 0.1600000075995922, 0.11200000531971455, 1.0240000486373901, 0.0, 0.0, 0.0, 0.0, 0.0, 1.6518360214636786E9, 0.0, 2022-05-06 12:20:21.463
60.0, -244.7502728002146, -172.33645990816876, -187.8159058247693, -174.39901473373175, 0.1600000075995922, 0.11200000531971455, 1.0240000486373901, 0.0, 0.0, 0.0, 0.0, 0.0, 1.6518360214636786E9, 0.0, 2022-05-06 12:20:21.463
61.0, -259.54157712496817, -172.23548260936514, -185.32139255432412, -171.32481697015464, 0.1600000075995922, 0.11200000531971455, 1.0240000486373901, 0.0, 0.0, 0.0, 0.0, 0.0, 1.65183602147662E9, 0.0, 2022-05-06 12:20:21.476
61.0, -232.50958024524152, -75.84330115141347, -114.32687169546261, -156.90750264097005, 0.1600000075995922, 0.11200000531971455, 1.0240000486373901, 0.0, 0.0, 0.0, 0.0, 0.0, 1.65183602147662E9, 0.0, 2022-05-06 12:20:21.476
62.0, -220.6615771856159, -83.9476643553935, -118.57913794508204, -152.93946878798306, 0.1600000075995922, 0.11200000531971455, 1.0240000486373901, 0.0, 0.0, 0.0, 0.0, 0.0, 1.6518360215227172E9, 0.0, 2022-05-06 12:20:21.522
62.0, -251.50453212019056, -177.8789916425012, -197.479807310272, -187.0099573843181, 0.1600000075995922, 0.11200000531971455, 1.0240000486373901, 0.0, 0.0, 0.0, 0.0, 0.0, 1.6518360215227172E9, 0.0, 2022-05-06 12:20:21.522
63.0, -265.0167906600982, -175.8033471670933, -189.7718735015951, -186.69206588808447, 0.1600000075995922, 0.11200000531971455, 1.0240000486373901, 0.0, 0.0, 0.0, 0.0, 0.0, 1.6518360215396426E9, 0.0, 2022-05-06 12:20:21.539
63.0, -217.7743744198233, -77.67959202965721, -114.20345499692485, -151.26773350778967, 0.1600000075995922, 0.11200000531971455, 1.0240000486373901, 0.0, 0.0, 0.0, 0.0, 0.0, 1.6518360215396426E9, 0.0, 2022-05-06 12:20:21.539
64.0, -203.618853087537, -73.00845698500052, -104.43483631266281, -125.1707116169855, 0.1600000075995922, 0.11200000531971455, 1.0240000486373901, 0.0, 0.0, 0.0, 0.0, 0.0, 1.6518360215406375E9, 0.0, 2022-05-06 12:20:21.540
64.0, -255.80915696918964, -174.85715247830376, -202.1920812544413, -182.40988043881953, 0.1600000075995922, 0.11200000531971455, 1.0240000486373901, 0.0, 0.0, 0.0, 0.0, 0.0, 1.6518360215406375E9, 0.0, 2022-05-06 12:20:21.540
65.0, -270.3087490973994, -175.72480926802382, -189.483901205007, -186.6471870886162, 0.1600000075995922, 0.11200000531971455, 1.0240000486373901, 0.0, 0.0, 0.0, 0.0, 0.0, 1.6518360215416727E9, 0.0, 2022-05-06 12:20:21.541
65.0, -218.2904806137085, -75.54036925500259, -108.48514796467498, -132.3251402322203, 0.1600000075995922, 0.11200000531971455, 1.0240000486373901, 0.0, 0.0, 0.0, 0.0, 0.0, 1.6518360215416727E9, 0.0, 2022-05-06 12:20:21.541
66.0, -220.3287260895595, -78.019922925625, -118.4071025471203, -153.69492857903242, 0.1600000075995922, 0.11200000531971455, 1.0240000486373901, 0.0, 0.0, 0.0, 0.0, 0.0, 1.6518360215426698E9, 0.0, 2022-05-06 12:20:21.542
66.0, -253.46797959692776, -163.9142052079551, -189.42406280571595, -183.7861636225134, 0.1600000075995922, 0.11200000531971455, 1.0240000486373901, 0.0, 0.0, 0.0, 0.0, 0.0, 1.6518360215426698E9, 0.0, 2022-05-06 12:20:21.542
67.0, -265.7572908513248, -172.3551594079472, -193.2574602602981, -189.05942256003618, 0.1600000075995922, 0.11200000531971455, 1.0240000486373901, 0.0, 0.0, 0.0, 0.0, 0.0, 1.651836021569652E9, 0.0, 2022-05-06 12:20:21.569
67.0, -232.61055754404515, -75.88070015097037, -113.0366062107496, -156.09594435058534, 0.1600000075995922, 0.11200000531971455, 1.0240000486373901, 0.0, 0.0, 0.0, 0.0, 0.0, 1.651836021569652E9, 0.0, 2022-05-06 12:20:21.569
68.0, -230.38531707040966, -96.86153890239075, -132.88051537564024, -169.1519350958988, 0.1600000075995922, 0.11200000531971455, 1.0240000486373901, 0.0, 0.0, 0.0, 0.0, 0.0, 1.6518360215706074E9, 0.0, 2022-05-06 12:20:21.570
68.0, -262.69805268757045, -184.4051170651801, -206.81085769971833, -189.17161955870688, 0.1600000075995922, 0.11200000531971455, 1.0240000486373901, 0.0, 0.0, 0.0, 0.0, 0.0, 1.6518360215706074E9, 0.0, 2022-05-06 12:20:21.570
69.0, -272.3095955736935, -179.15803742734715, -198.0033933040686, -187.37646757997572, 0.1600000075995922, 0.11200000531971455, 1.0240000486373901, 0.0, 0.0, 0.0, 0.0, 0.0, 1.6518360215715723E9, 0.0, 2022-05-06 12:20:21.571
69.0, -233.3734971350059, -79.29896871047094, -115.06363198673353, -154.64112326782197, 0.1600000075995922, 0.11200000531971455, 1.0240000486373901, 0.0, 0.0, 0.0, 0.0, 0.0, 1.6518360215715723E9, 0.0, 2022-05-06 12:20:21.571
70.0, -204.69968417473137, -76.06395524879918, -106.8844707836397, -146.1066715689376, 0.1600000075995922, 0.11200000531971455, 1.0240000486373901, 0.0, 0.0, 0.0, 0.0, 0.0, 1.651836021572585E9, 0.0, 2022-05-06 12:20:21.572
70.0, -242.83170412294567, -163.47289701318368, -187.74858762556687, -166.6013233261183, 0.1600000075995922, 0.11200000531971455, 1.0240000486373901, 0.0, 0.0, 0.0, 0.0, 0.0, 1.651836021572585E9, 0.0, 2022-05-06 12:20:21.572
71.0, -266.2359980456531, -177.03751415247098, -202.84282384673133, -189.0108038606122, 0.1600000075995922, 0.11200000531971455, 1.0240000486373901, 0.0, 0.0, 0.0, 0.0, 0.0, 1.6518360215825927E9, 0.0, 2022-05-06 12:20:21.582
71.0, -223.35430515371263, -89.20596369309351, -118.99800674011931, -156.0323660513386, 0.1600000075995922, 0.11200000531971455, 1.0240000486373901, 0.0, 0.0, 0.0, 0.0, 0.0, 1.6518360215825927E9, 0.0, 2022-05-06 12:20:21.582
72.0, -207.4672101419419, -71.34046160476282, -111.18909563263878, -147.75596744939685, 0.1600000075995922, 0.11200000531971455, 1.0240000486373901, 0.0, 0.0, 0.0, 0.0, 0.0, 1.6518360215976696E9, 0.0, 2022-05-06 12:20:21.597
72.0, -260.7869638102129, -172.78898780280724, -202.21452065417543, -195.23025748692453, 0.1600000075995922, 0.11200000531971455, 1.0240000486373901, 0.0, 0.0, 0.0, 0.0, 0.0, 1.6518360215976696E9, 0.0, 2022-05-06 12:20:21.597
73.0, -271.74487068038434, -185.624324450735, -201.4515810632147, -190.316028945148, 0.1600000075995922, 0.11200000531971455, 1.0240000486373901, 0.0, 0.0, 0.0, 0.0, 0.0, 1.6518360215986176E9, 0.0, 2022-05-06 12:20:21.598
73.0, -242.20340093038976, -90.01752198347822, -124.09175047976896, -159.08786431513727, 0.1600000075995922, 0.11200000531971455, 1.0240000486373901, 0.0, 0.0, 0.0, 0.0, 0.0, 1.6518360215986176E9, 0.0, 2022-05-06 12:20:21.598
74.0, -227.99178109876812, -89.19848389318213, -130.0419313092716, -166.16001513134688, 0.1600000075995922, 0.11200000531971455, 1.0240000486373901, 0.0, 0.0, 0.0, 0.0, 0.0, 1.6518360216277146E9, 0.0, 2022-05-06 12:20:21.627
74.0, -248.4565136563033, -178.1445245393552, -195.63603663211688, -184.00681771989912, 0.1600000075995922, 0.11200000531971455, 1.0240000486373901, 0.0, 0.0, 0.0, 0.0, 0.0, 1.6518360216277146E9, 0.0, 2022-05-06 12:20:21.627
75.0, -245.17662139516324, -166.63311247574165, -181.68994969734922, -157.28523253649473, 0.1600000075995922, 0.11200000531971455, 1.0240000486373901, 0.0, 0.0, 0.0, 0.0, 0.0, 1.6518360216427116E9, 0.0, 2022-05-06 12:20:21.642
75.0, -238.111950378865, -83.2408232637681, -119.66370893223211, -156.78782584238797, 0.1600000075995922, 0.11200000531971455, 1.0240000486373901, 0.0, 0.0, 0.0, 0.0, 0.0, 1.6518360216427116E9, 0.0, 2022-05-06 12:20:21.642
76.0, -221.56289307493716, -87.62772591179237, -122.01984590431675, -158.29126562457532, 0.1600000075995922, 0.11200000531971455, 1.0240000486373901, 0.0, 0.0, 0.0, 0.0, 0.0, 1.6518360216596467E9, 0.0, 2022-05-06 12:20:21.659
76.0, -247.21486687101424, -163.37939951429144, -182.2920735902153, -166.65742182545364, 0.1600000075995922, 0.11200000531971455, 1.0240000486373901, 0.0, 0.0, 0.0, 0.0, 0.0, 1.6518360216596467E9, 0.0, 2022-05-06 12:20:21.659
77.0, -267.3766675321385, -182.59500548662618, -198.88226979365572, -187.91501317359507, 0.1600000075995922, 0.11200000531971455, 1.0240000486373901, 0.0, 0.0, 0.0, 0.0, 0.0, 1.651836021660673E9, 0.0, 2022-05-06 12:20:21.660
77.0, -237.0797379910946, -93.79856083868071, -126.55260465061292, -167.46524021588266, 0.1600000075995922, 0.11200000531971455, 1.0240000486373901, 0.0, 0.0, 0.0, 0.0, 0.0, 1.651836021660673E9, 0.0, 2022-05-06 12:20:21.660
78.0, -215.03676765225828, -74.40343966847286, -111.15917643299326, -160.1836550021544, 0.1600000075995922, 0.11200000531971455, 1.0240000486373901, 0.0, 0.0, 0.0, 0.0, 0.0, 1.651836021661672E9, 0.0, 2022-05-06 12:20:21.661
78.0, -245.92460138630122, -164.3592533026822, -189.7382144019939, -177.121661901474, 0.1600000075995922, 0.11200000531971455, 1.0240000486373901, 0.0, 0.0, 0.0, 0.0, 0.0, 1.651836021661672E9, 0.0, 2022-05-06 12:20:21.661
79.0, -262.02487069554627, -184.2592609669082, -196.75800661882386, -187.15207358263433, 0.1600000075995922, 0.11200000531971455, 1.0240000486373901, 0.0, 0.0, 0.0, 0.0, 0.0, 1.651836021662674E9, 0.0, 2022-05-06 12:20:21.662
79.0, -239.14042286667973, -93.33481324417517, -123.34377048863098, -158.25012672506273, 0.1600000075995922, 0.11200000531971455, 1.0240000486373901, 0.0, 0.0, 0.0, 0.0, 0.0, 1.651836021662674E9, 0.0, 2022-05-06 12:20:21.662
80.0, -212.79282767884433, -76.00785674946383, -115.09355118637905, -152.69263539090753, 0.1600000075995922, 0.11200000531971455, 1.008000047877431, 0.0, 0.0, 0.0, 0.0, 0.0, 1.651836021702613E9, 0.0, 2022-05-06 12:20:21.702
80.0, -237.2929122885689, -163.7982683093287, -189.13235060917214, -179.76203127019107, 0.1600000075995922, 0.11200000531971455, 1.008000047877431, 0.0, 0.0, 0.0, 0.0, 0.0, 1.651836021702613E9, 0.0, 2022-05-06 12:20:21.702
81.0, -260.5363905131817, -173.394851595629, -189.46894160518423, -171.14156187232584, 0.1600000075995922, 0.11200000531971455, 1.008000047877431, 0.0, 0.0, 0.0, 0.0, 0.0, 1.6518360217195966E9, 0.0, 2022-05-06 12:20:21.719
81.0, -225.3626314299181, -79.75523650506511, -111.89967662421986, -147.7335280496627, 0.1600000075995922, 0.11200000531971455, 1.008000047877431, 0.0, 0.0, 0.0, 0.0, 0.0, 1.6518360217195966E9, 0.0, 2022-05-06 12:20:21.719
82.0, -217.38542482443154, -74.86344736302271, -110.43737574154511, -155.0712117627263, 0.1600000075995922, 0.11200000531971455, 1.008000047877431, 0.0, 0.0, 0.0, 0.0, 0.0, 1.6518360217205825E9, 0.0, 2022-05-06 12:20:21.720
82.0, -244.600676801987, -158.66338567016646, -182.26589429052547, -172.82825675234199, 0.1600000075995922, 0.11200000531971455, 1.008000047877431, 0.0, 0.0, 0.0, 0.0, 0.0, 1.6518360217205825E9, 0.0, 2022-05-06 12:20:21.720
83.0, -264.9120734613389, -176.45782965933904, -195.46774113411084, -188.73779116384685, 0.1600000075995922, 0.11200000531971455, 1.008000047877431, 0.0, 0.0, 0.0, 0.0, 0.0, 1.6518360217216227E9, 0.0, 2022-05-06 12:20:21.721
83.0, -240.9617541451007, -103.1034319284372, -128.74044612469152, -169.08835679665208, 0.1600000075995922, 0.11200000531971455, 1.008000047877431, 0.0, 0.0, 0.0, 0.0, 0.0, 1.6518360217216227E9, 0.0, 2022-05-06 12:20:21.721
84.0, -213.6156056690961, -69.13392063090578, -104.96590210637078, -143.19702940341085, 0.1600000075995922, 0.11200000531971455, 1.008000047877431, 0.0, 0.0, 0.0, 0.0, 0.0, 1.6518360217225964E9, 0.0, 2022-05-06 12:20:21.722
84.0, -237.01615969184786, -158.4689108724706, -178.9897419293411, -164.88096934650093, 0.1600000075995922, 0.11200000531971455, 1.008000047877431, 0.0, 0.0, 0.0, 0.0, 0.0, 1.6518360217225964E9, 0.0, 2022-05-06 12:20:21.722
85.0, -244.58945710211992, -163.85436680866405, -174.2176295858808, -150.70674851443619, 0.1600000075995922, 0.11200000531971455, 1.008000047877431, 0.0, 0.0, 0.0, 0.0, 0.0, 1.6518360217476532E9, 0.0, 2022-05-06 12:20:21.747
85.0, -217.4340435238555, -75.90313955070451, -109.11719105718657, -140.71747573278844, 0.1600000075995922, 0.11200000531971455, 1.008000047877431, 0.0, 0.0, 0.0, 0.0, 0.0, 1.6518360217476532E9, 0.0, 2022-05-06 12:20:21.747
86.0, -224.6296110386029, -89.30320109194145, -127.95506713399664, -165.19886084273458, 0.1600000075995922, 0.11200000531971455, 1.008000047877431, 0.0, 0.0, 0.0, 0.0, 0.0, 1.6518360217795959E9, 0.0, 2022-05-06 12:20:21.779
86.0, -254.76572488155216, -173.8062405907549, -193.30233905976638, -182.18922634143382, 0.1600000075995922, 0.11200000531971455, 1.008000047877431, 0.0, 0.0, 0.0, 0.0, 0.0, 1.6518360217795959E9, 0.0, 2022-05-06 12:20:21.779
87.0, -258.51310463715345, -177.5498804464005, -195.80059223016724, -174.5635703317821, 0.1600000075995922, 0.11200000531971455, 1.008000047877431, 0.0, 0.0, 0.0, 0.0, 0.0, 1.6518360217805674E9, 0.0, 2022-05-06 12:20:21.780
87.0, -225.22799503151327, -84.06360125401989, -115.890149876941, -147.54279315192252, 0.1600000075995922, 0.11200000531971455, 1.008000047877431, 0.0, 0.0, 0.0, 0.0, 0.0, 1.6518360217805674E9, 0.0, 2022-05-06 12:20:21.780
88.0, -224.83156563621014, -84.81532114511356, -115.83031147764996, -156.68684854358435, 0.1600000075995922, 0.11200000531971455, 1.008000047877431, 0.0, 0.0, 0.0, 0.0, 0.0, 1.6518360217815714E9, 0.0, 2022-05-06 12:20:21.781
88.0, -237.54348558560014, -161.22521713981405, -184.2218619673513, -178.02671769075096, 0.1600000075995922, 0.11200000531971455, 1.008000047877431, 0.0, 0.0, 0.0, 0.0, 0.0, 1.6518360217815714E9, 0.0, 2022-05-06 12:20:21.781
89.0, -268.33408192079514, -185.16057685622945, -205.13538251956925, -193.4238858083263, 0.1600000075995922, 0.11200000531971455, 1.008000047877431, 0.0, 0.0, 0.0, 0.0, 0.0, 1.6518360217825646E9, 0.0, 2022-05-06 12:20:21.782
89.0, -225.66930322628468, -91.70795676345006, -124.30866467719898, -158.24264692515135, 0.1600000075995922, 0.11200000531971455, 1.008000047877431, 0.0, 0.0, 0.0, 0.0, 0.0, 1.6518360217825646E9, 0.0, 2022-05-06 12:20:21.782
90.0, -224.07610584516078, -80.73883019341156, -116.3314580717124, -150.49357421696186, 0.1600000075995922, 0.11200000531971455, 1.008000047877431, 0.0, 0.0, 0.0, 0.0, 0.0, 1.6518360217926636E9, 0.0, 2022-05-06 12:20:21.792
90.0, -242.1847014306113, -153.00491703720763, -174.55796048184857, -164.46958035137504, 0.1600000075995922, 0.11200000531971455, 1.008000047877431, 0.0, 0.0, 0.0, 0.0, 0.0, 1.6518360217926636E9, 0.0, 2022-05-06 12:20:21.792
91.0, -260.5027314135805, -177.5872794459574, -193.30233905976638, -179.4964983733371, 0.1600000075995922, 0.12800000607967377, 1.008000047877431, 0.0, 0.0, 0.0, 0.0, 0.0, 1.6518360218096044E9, 0.0, 2022-05-06 12:20:21.809
91.0, -230.34043827094138, -86.77128882193938, -117.78253925452009, -157.3375911358744, 0.1600000075995922, 0.12800000607967377, 1.008000047877431, 0.0, 0.0, 0.0, 0.0, 0.0, 1.6518360218096044E9, 0.0, 2022-05-06 12:20:21.809
92.0, -206.9548438480124, -66.62070786068216, -98.36871858453378, -142.29571351408958, 0.1600000075995922, 0.12800000607967377, 1.008000047877431, 0.0, 0.0, 0.0, 0.0, 0.0, 1.65183602181067E9, 0.0, 2022-05-06 12:20:21.810
92.0, -239.60791036114097, -157.84808747982606, -179.91349721839651, -165.748626136221, 0.1600000075995922, 0.12800000607967377, 1.008000047877431, 0.0, 0.0, 0.0, 0.0, 0.0, 1.65183602181067E9, 0.0, 2022-05-06 12:20:21.810
93.0, -255.59224277175963, -174.8459327784367, -196.15962262591347, -174.24941873550415, 0.1600000075995922, 0.12800000607967377, 1.008000047877431, 0.0, 0.0, 0.0, 0.0, 0.0, 1.651836021811666E9, 0.0, 2022-05-06 12:20:21.811
93.0, -238.89732936955988, -102.71448233304545, -132.81319717643782, -165.58781043812633, 0.1600000075995922, 0.12800000607967377, 1.008000047877431, 0.0, 0.0, 0.0, 0.0, 0.0, 1.651836021811666E9, 0.0, 2022-05-06 12:20:21.811
94.0, -210.41425130702555, -68.57667553750798, -97.1008924995549, -129.14622526988387, 0.1600000075995922, 0.12800000607967377, 1.008000047877431, 0.0, 0.0, 0.0, 0.0, 0.0, 1.651836021812667E9, 0.0, 2022-05-06 12:20:21.812
94.0, -233.2239011367783, -153.5733818304725, -174.359745784197, -156.0361059512943, 0.1600000075995922, 0.12800000607967377, 1.008000047877431, 0.0, 0.0, 0.0, 0.0, 0.0, 1.651836021812667E9, 0.0, 2022-05-06 12:20:21.812
95.0, -246.73615967668593, -174.45698318304494, -194.19243524922058, -177.94817979168147, 0.1600000075995922, 0.12800000607967377, 1.008000047877431, 0.0, 0.0, 0.0, 0.0, 0.0, 1.6518360218226683E9, 0.0, 2022-05-06 12:20:21.822
95.0, -241.3694032402709, -101.50275474740192, -126.88919564662501, -154.19607517309487, 0.1600000075995922, 0.12800000607967377, 1.008000047877431, 0.0, 0.0, 0.0, 0.0, 0.0, 1.6518360218226683E9, 0.0, 2022-05-06 12:20:21.822
96.0, -209.4306576186791, -69.51539042638615, -105.97193519445136, -152.1503498973325, 0.1600000075995922, 0.12800000607967377, 1.008000047877431, 0.0, 0.0, 0.0, 0.0, 0.0, 1.651836021823567E9, 0.0, 2022-05-06 12:20:21.823
96.0, -231.27915315981954, -154.2016850230284, -177.24320865003392, -174.73560572974384, 0.1600000075995922, 0.12800000607967377, 1.008000047877431, 0.0, 0.0, 0.0, 0.0, 0.0, 1.651836021823567E9, 0.0, 2022-05-06 12:20:21.823
97.0, -251.72144631762058, -176.49896855885163, -191.51092698099092, -183.09802203066647, 0.1600000075995922, 0.12800000607967377, 1.008000047877431, 0.0, 0.0, 0.0, 0.0, 0.0, 1.6518360218367107E9, 0.0, 2022-05-06 12:20:21.836
97.0, -251.10810272488743, -99.61036536982283, -138.55768350837752, -166.81075772363693, 0.1600000075995922, 0.12800000607967377, 1.008000047877431, 0.0, 0.0, 0.0, 0.0, 0.0, 1.6518360218367107E9, 0.0, 2022-05-06 12:20:21.836
98.0, -210.44791040662676, -70.84305491065606, -107.74464777344838, -147.97662154678255, 0.1600000075995922, 0.12800000607967377, 1.008000047877431, 0.0, 0.0, 0.0, 0.0, 0.0, 1.6518360218846462E9, 0.0, 2022-05-06 12:20:21.884
98.0, -233.24260063655674, -152.2419774462469, -176.25961496168748, -167.18474771920592, 0.1600000075995922, 0.12800000607967377, 1.008000047877431, 0.0, 0.0, 0.0, 0.0, 0.0, 1.6518360218846462E9, 0.0, 2022-05-06 12:20:21.884
99.0, -261.2619311045855, -177.27312784967944, -196.86646371753886, -181.33278925158083, 0.1600000075995922, 0.12800000607967377, 1.008000047877431, 0.0, 0.0, 0.0, 0.0, 0.0, 1.6518360218855438E9, 0.0, 2022-05-06 12:20:21.885
99.0, -238.88610966969281, -97.3626854964532, -132.35318948188797, -167.17352801933885, 0.1600000075995922, 0.12800000607967377, 1.008000047877431, 0.0, 0.0, 0.0, 0.0, 0.0, 1.6518360218855438E9, 0.0, 2022-05-06 12:20:21.885
100.0, -205.07367417030036, -63.73350509488955, -98.24156198604032, -141.60757192224264, 0.1600000075995922, 0.12800000607967377, 1.0240000486373901, 0.0, 0.0, 0.0, 0.0, 0.0, 1.651836021886678E9, 0.0, 2022-05-06 12:20:21.886
100.0, -241.30956484097987, -153.22183123463765, -175.18252377444878, -168.18330100737512, 0.1600000075995922, 0.12800000607967377, 1.0240000486373901, 0.0, 0.0, 0.0, 0.0, 0.0, 1.651836021886678E9, 0.0, 2022-05-06 12:20:21.886
0.0, -276.6721888720058, -193.16770266136155, -206.88565569883212, -194.18682539928705, 0.1600000075995922, 0.12800000607967377, 1.0240000486373901, 0.0, 0.0, 0.0, 0.0, 0.0, 1.6518360218876014E9, 0.0, 2022-05-06 12:20:21.887
1.0, -242.5418618763797, -111.43592902971432, -129.5968832145445, -158.79989201854914, 0.1600000075995922, 0.12800000607967377, 1.0240000486373901, 0.0, 0.0, 0.0, 0.0, 0.0, 1.6518360218986266E9, 0.0, 2022-05-06 12:20:21.898
1.0, -202.5249323504977, -65.1584069780074, -93.40587134333327, -132.171804334037, 0.1600000075995922, 0.12800000607967377, 1.0240000486373901, 0.0, 0.0, 0.0, 0.0, 0.0, 1.6518360218986266E9, 0.0, 2022-05-06 12:20:21.898
2.0, -229.46717163128778, -149.81104247504845, -175.1787838744931, -162.75296627171338, 0.1600000075995922, 0.12800000607967377, 1.0240000486373901, 0.0, 0.0, 0.0, 0.0, 0.0, 1.651836021899603E9, 0.0, 2022-05-06 12:20:21.899
2.0, -254.79003423126414, -177.53492084657773, -194.46170804603025, -179.01779117900878, 0.1600000075995922, 0.12800000607967377, 1.0240000486373901, 0.0, 0.0, 0.0, 0.0, 0.0, 1.651836021899603E9, 0.0, 2022-05-06 12:20:21.899
3.0, -235.43979186052456, -103.88881091913208, -131.20504019549116, -165.31479774136096, 0.1600000075995922, 0.12800000607967377, 1.0240000486373901, 0.0, 0.0, 0.0, 0.0, 0.0, 1.651836021900623E9, 0.0, 2022-05-06 12:20:21.900
3.0, -215.54726399620995, -70.40548661584035, -107.32577897841111, -147.0005076583475, 0.1600000075995922, 0.12800000607967377, 1.0240000486373901, 0.0, 0.0, 0.0, 0.0, 0.0, 1.651836021900623E9, 0.0, 2022-05-06 12:20:21.900
4.0, -232.0514425006695, -141.8674949691631, -168.510542253498, -164.5929970499128, 0.1600000075995922, 0.12800000607967377, 1.0240000486373901, 0.0, 0.0, 0.0, 0.0, 0.0, 1.6518360219448204E9, 0.0, 2022-05-06 12:20:21.944
4.0, -267.34861828247085, -191.95223517576233, -203.62820283742622, -181.8227161457762, 0.1600000075995922, 0.12800000607967377, 1.0240000486373901, 0.0, 0.0, 0.0, 0.0, 0.0, 1.6518360219448204E9, 0.0, 2022-05-06 12:20:21.944
5.0, -244.56888765236363, -105.27257390273735, -131.82960348809138, -161.90774888172746, 0.1600000075995922, 0.12800000607967377, 1.0240000486373901, 0.0, 0.0, 0.0, 0.0, 0.0, 1.651836021945671E9, 0.0, 2022-05-06 12:20:21.945
5.0, -197.57704470911995, -53.172027620021254, -90.2830548803322, -124.07866082992405, 0.1600000075995922, 0.12800000607967377, 1.0240000486373901, 0.0, 0.0, 0.0, 0.0, 0.0, 1.651836021945671E9, 0.0, 2022-05-06 12:20:21.945
6.0, -217.69770647073165, -133.59109636722133, -162.3210078268312, -165.71496703661978, 0.1600000075995922, 0.12800000607967377, 1.0240000486373901, 0.0, 0.0, 0.0, 0.0, 0.0, 1.65183602194667E9, 0.0, 2022-05-06 12:20:21.946
6.0, -270.5200534448959, -198.4110423992388, -206.14141560764983, -190.641400241293, 0.1600000075995922, 0.12800000607967377, 1.0240000486373901, 0.0, 0.0, 0.0, 0.0, 0.0, 1.65183602194667E9, 0.0, 2022-05-06 12:20:21.946
7.0, -232.99015738954768, -98.37993828440085, -120.03395902784541, -145.76634067296982, 0.1600000075995922, 0.12800000607967377, 1.0240000486373901, 0.0, 0.0, 0.0, 0.0, 0.0, 1.651836021947719E9, 0.0, 2022-05-06 12:20:21.947
7.0, -203.88625593436882, -50.2287263548933, -90.38403217913583, -133.22645612154156, 0.1600000075995922, 0.12800000607967377, 1.0240000486373901, 0.0, 0.0, 0.0, 0.0, 0.0, 1.651836021947719E9, 0.0, 2022-05-06 12:20:21.947
8.0, -236.81981494417414, -148.3150824927725, -177.45638294750825, -180.6409077597782, 0.1600000075995922, 0.12800000607967377, 1.0240000486373901, 0.0, 0.0, 0.0, 0.0, 0.0, 1.6518360219576132E9, 0.0, 2022-05-06 12:20:21.957
8.0, -274.71996109513566, -202.2220004540868, -216.41492078593, -204.5388684766367, 0.1600000075995922, 0.12800000607967377, 1.0240000486373901, 0.0, 0.0, 0.0, 0.0, 0.0, 1.6518360219576132E9, 0.0, 2022-05-06 12:20:21.957
9.0, -239.60230051120743, -108.15977666852996, -132.94409367488697, -164.2638858538121, 0.1600000075995922, 0.12800000607967377, 1.0240000486373901, 0.0, 0.0, 0.0, 0.0, 0.0, 1.6518360219587016E9, 0.0, 2022-05-06 12:20:21.958
9.0, -201.16360876662657, -52.289411230478436, -96.60722570540383, -145.69154267385602, 0.1600000075995922, 0.12800000607967377, 1.0240000486373901, 0.0, 0.0, 0.0, 0.0, 0.0, 1.6518360219587016E9, 0.0, 2022-05-06 12:20:21.958
10.0, -229.5718888300471, -152.11856074770913, -177.74809514405206, -172.98907245043665, 0.1600000075995922, 0.12800000607967377, 1.008000047877431, 0.0, 0.0, 0.0, 0.0, 0.0, 1.651836022004678E9, 0.0, 2022-05-06 12:20:22.004
10.0, -271.5971446321346, -193.0704652625136, -209.64570186613128, -184.2349516171962, 0.1600000075995922, 0.12800000607967377, 1.008000047877431, 0.0, 0.0, 0.0, 0.0, 0.0, 1.651836022004678E9, 0.0, 2022-05-06 12:20:22.004
11.0, -229.07448213594034, -105.86347809573635, -126.96399364573881, -151.94839529972523, 0.1600000075995922, 0.12800000607967377, 1.008000047877431, 0.0, 0.0, 0.0, 0.0, 0.0, 1.6518360220056143E9, 0.0, 2022-05-06 12:20:22.005
11.0, -199.2637395891361, -53.931227311026305, -92.71398985153064, -141.42805672436953, 0.1600000075995922, 0.12800000607967377, 1.008000047877431, 0.0, 0.0, 0.0, 0.0, 0.0, 1.6518360220056143E9, 0.0, 2022-05-06 12:20:22.005
12.0, -227.88893384998664, -134.83274315251037, -159.44502476090565, -160.13503630273044, 0.1600000075995922, 0.12800000607967377, 1.008000047877431, 0.0, 0.0, 0.0, 0.0, 0.0, 1.6518360220066555E9, 0.0, 2022-05-06 12:20:22.006
12.0, -274.2524736006744, -201.94524785736576, -217.9744590674527, -202.1378527050838, 0.1600000075995922, 0.12800000607967377, 1.008000047877431, 0.0, 0.0, 0.0, 0.0, 0.0, 1.6518360220066555E9, 0.0, 2022-05-06 12:20:22.006
13.0, -248.94083070056513, -121.58227760950103, -145.1623468301259, -175.1170755252242, 0.1600000075995922, 0.12800000607967377, 1.008000047877431, 0.0, 0.0, 0.0, 0.0, 0.0, 1.6518360220077112E9, 0.0, 2022-05-06 12:20:22.007
13.0, -207.09509009635076, -56.17142738448456, -94.25856853323057, -144.24794129095972, 0.1600000075995922, 0.12800000607967377, 1.008000047877431, 0.0, 0.0, 0.0, 0.0, 0.0, 1.6518360220077112E9, 0.0, 2022-05-06 12:20:22.007
14.0, -224.84091538609937, -140.00502479122952, -168.19265075726435, -166.2983914297074, 0.1600000075995922, 0.12800000607967377, 1.008000047877431, 0.0, 0.0, 0.0, 0.0, 0.0, 1.6518360220336473E9, 0.0, 2022-05-06 12:20:22.033
14.0, -269.60751785570756, -196.9263021168299, -203.01485924469307, -175.58082311972976, 0.1600000075995922, 0.12800000607967377, 1.008000047877431, 0.0, 0.0, 0.0, 0.0, 0.0, 1.6518360220336473E9, 0.0, 2022-05-06 12:20:22.033
15.0, -234.7179911690764, -99.97313566552475, -127.81295093568042, -159.08412441518158, 0.1600000075995922, 0.12800000607967377, 1.008000047877431, 0.0, 0.0, 0.0, 0.0, 0.0, 1.6518360220345716E9, 0.0, 2022-05-06 12:20:22.034
15.0, -201.32816436467692, -46.14849550323561, -84.72182364622131, -132.87116562575102, 0.1600000075995922, 0.12800000607967377, 1.008000047877431, 0.0, 0.0, 0.0, 0.0, 0.0, 1.6518360220345716E9, 0.0, 2022-05-06 12:20:22.034
16.0, -230.58166181808338, -135.43486704537645, -163.04280851827934, -160.4491878990084, 0.1600000075995922, 0.12800000607967377, 1.008000047877431, 0.0, 0.0, 0.0, 0.0, 0.0, 1.6518360220355976E9, 0.0, 2022-05-06 12:20:22.035
16.0, -270.17224274901673, -196.54857222130522, -216.3027237872593, -199.85277383215725, 0.1600000075995922, 0.12800000607967377, 1.008000047877431, 0.0, 0.0, 0.0, 0.0, 0.0, 1.6518360220355976E9, 0.0, 2022-05-06 12:20:22.035
17.0, -236.32614815002307, -106.63389748660848, -125.92430145805702, -147.82702554855496, 0.1600000075995922, 0.12800000607967377, 1.008000047877431, 0.0, 0.0, 0.0, 0.0, 0.0, 1.6518360220796354E9, 0.0, 2022-05-06 12:20:22.079
17.0, -187.72614822583273, -41.439961459022015, -81.95803757896647, -125.2081106165424, 0.1600000075995922, 0.12800000607967377, 1.008000047877431, 0.0, 0.0, 0.0, 0.0, 0.0, 1.6518360220796354E9, 0.0, 2022-05-06 12:20:22.079
18.0, -221.00003813160583, -126.81439764751121, -156.65879929391667, -158.0706115271896, 0.1600000075995922, 0.12800000607967377, 1.008000047877431, 0.0, 0.0, 0.0, 0.0, 0.0, 1.6518360220806239E9, 0.0, 2022-05-06 12:20:22.080
18.0, -273.50823350949213, -199.49935328634456, -213.53893772000447, -194.17934559937567, 0.1600000075995922, 0.12800000607967377, 1.008000047877431, 0.0, 0.0, 0.0, 0.0, 0.0, 1.6518360220806239E9, 0.0, 2022-05-06 12:20:22.080
19.0, -253.81766024278477, -129.3350902176462, -151.62115405360237, -176.8224699050188, 0.1600000075995922, 0.12800000607967377, 1.008000047877431, 0.0, 0.0, 0.0, 0.0, 0.0, 1.6518360220816128E9, 0.0, 2022-05-06 12:20:22.081
19.0, -209.61952256644145, -61.538183820899576, -99.55426687048748, -146.7013156618923, 0.1600000075995922, 0.12800000607967377, 1.008000047877431, 0.0, 0.0, 0.0, 0.0, 0.0, 1.6518360220816128E9, 0.0, 2022-05-06 12:20:22.081
20.0, -229.91969952592626, -146.4974911143072, -176.30075386120006, -180.80546335782856, 0.1600000075995922, 0.12800000607967377, 1.008000047877431, 0.0, 0.0, 0.0, 0.0, 0.0, 1.6518360220825503E9, 0.0, 2022-05-06 12:20:22.082
20.0, -259.86133857117966, -200.39692927571014, -210.782631452661, -192.82550181541592, 0.1600000075995922, 0.12800000607967377, 1.008000047877431, 0.0, 0.0, 0.0, 0.0, 0.0, 1.6518360220825503E9, 0.0, 2022-05-06 12:20:22.082
21.0, -244.98027664748952, -127.80921103572473, -147.22677160566673, -173.62859534285963, 0.1600000075995922, 0.12800000607967377, 1.008000047877431, 0.0, 0.0, 0.0, 0.0, 0.0, 1.6518360220926723E9, 0.0, 2022-05-06 12:20:22.092
21.0, -196.20450142538175, -54.09204300912097, -88.65993829956278, -141.8132664198056, 0.1600000075995922, 0.12800000607967377, 1.008000047877431, 0.0, 0.0, 0.0, 0.0, 0.0, 1.6518360220926723E9, 0.0, 2022-05-06 12:20:22.092
22.0, -214.4178142095916, -128.65442842571065, -147.9448323971592, -146.22634836751968, 0.1600000075995922, 0.12800000607967377, 1.008000047877431, 0.0, 0.0, 0.0, 0.0, 0.0, 1.6518360220937035E9, 0.0, 2022-05-06 12:20:22.093
22.0, -261.2264020550065, -192.11679077381268, -208.33299698168412, -181.95735254418105, 0.1600000075995922, 0.12800000607967377, 1.008000047877431, 0.0, 0.0, 0.0, 0.0, 0.0, 1.6518360220937035E9, 0.0, 2022-05-06 12:20:22.093
23.0, -240.6120734992437, -112.19886862067506, -136.8261098288931, -165.36341644078493, 0.1600000075995922, 0.12800000607967377, 1.008000047877431, 0.0, 0.0, 0.0, 0.0, 0.0, 1.65183602213769E9, 0.0, 2022-05-06 12:20:22.137
23.0, -195.87165032932535, -53.74423231324181, -87.84838000917807, -135.45543649513274, 0.1600000075995922, 0.12800000607967377, 1.008000047877431, 0.0, 0.0, 0.0, 0.0, 0.0, 1.65183602213769E9, 0.0, 2022-05-06 12:20:22.137
24.0, -210.2627853588201, -113.95288169989362, -146.13472081860527, -146.69009596202523, 0.1600000075995922, 0.12800000607967377, 1.008000047877431, 0.0, 0.0, 0.0, 0.0, 0.0, 1.651836022154664E9, 0.0, 2022-05-06 12:20:22.154
24.0, -266.9222696875222, -189.35674460651353, -201.50019976263866, -175.48358572088182, 0.1600000075995922, 0.12800000607967377, 1.008000047877431, 0.0, 0.0, 0.0, 0.0, 0.0, 1.651836022154664E9, 0.0, 2022-05-06 12:20:22.154
25.0, -250.40687148319557, -122.65936879673973, -142.26392436446622, -168.55355110298842, 0.1600000075995922, 0.12800000607967377, 1.008000047877431, 0.0, 0.0, 0.0, 0.0, 0.0, 1.651836022155615E9, 0.0, 2022-05-06 12:20:22.155
25.0, -205.4495341158472, -47.64071558555588, -92.50081555405632, -144.22550189122558, 0.1600000075995922, 0.12800000607967377, 1.008000047877431, 0.0, 0.0, 0.0, 0.0, 0.0, 1.651836022155615E9, 0.0, 2022-05-06 12:20:22.155
26.0, -220.13612124184147, -131.65382819017395, -160.2752825510688, -162.28547877725214, 0.1600000075995922, 0.12800000607967377, 1.008000047877431, 0.0, 0.0, 0.0, 0.0, 0.0, 1.651836022156613E9, 0.0, 2022-05-06 12:20:22.156
26.0, -276.8965828693472, -203.24299314199015, -218.1577141652815, -195.30131558608264, 0.1600000075995922, 0.12800000607967377, 1.008000047877431, 0.0, 0.0, 0.0, 0.0, 0.0, 1.651836022156613E9, 0.0, 2022-05-06 12:20:22.156
27.0, -244.12009965768084, -119.38321643555537, -138.50906480895355, -161.96010748110712, 0.1600000075995922, 0.12800000607967377, 1.008000047877431, 0.0, 0.0, 0.0, 0.0, 0.0, 1.6518360221575727E9, 0.0, 2022-05-06 12:20:22.157
27.0, -197.58826440898702, -48.13064247975126, -90.5785069768317, -132.26530183292925, 0.1600000075995922, 0.12800000607967377, 1.008000047877431, 0.0, 0.0, 0.0, 0.0, 0.0, 1.6518360221575727E9, 0.0, 2022-05-06 12:20:22.157
28.0, -194.05779885081574, -103.34652542555705, -124.49565967498347, -108.32620221655816, 0.1600000075995922, 0.12800000607967377, 1.008000047877431, 0.0, 0.0, 0.0, 0.0, 0.0, 1.65183602218466E9, 0.0, 2022-05-06 12:20:22.184
28.0, -255.71004962036386, -189.30812590708956, -209.20439367135987, -185.5289570018649, 0.1600000075995922, 0.12800000607967377, 1.008000047877431, 0.0, 0.0, 0.0, 0.0, 0.0, 1.65183602218466E9, 0.0, 2022-05-06 12:20:22.184
29.0, -247.48226971784607, -125.73730646027252, -149.65396667690948, -174.88520172797143, 0.1600000075995922, 0.12800000607967377, 1.008000047877431, 0.0, 0.0, 0.0, 0.0, 0.0, 1.651836022185541E9, 0.0, 2022-05-06 12:20:22.185
29.0, -199.86586348200217, -46.16345510305837, -84.77418224560097, -139.5431471467018, 0.1600000075995922, 0.12800000607967377, 1.008000047877431, 0.0, 0.0, 0.0, 0.0, 0.0, 1.651836022185541E9, 0.0, 2022-05-06 12:20:22.185
30.0, -214.20090001216158, -122.49481319868937, -153.15077313547954, -161.47766038682312, 0.1600000075995922, 0.12800000607967377, 1.0240000486373901, 0.0, 0.0, 0.0, 0.0, 0.0, 1.6518360221866126E9, 0.0, 2022-05-06 12:20:22.186
30.0, -259.3714116769843, -196.4401151225902, -209.80277766427025, -186.1610000943765, 0.1600000075995922, 0.12800000607967377, 1.0240000486373901, 0.0, 0.0, 0.0, 0.0, 0.0, 1.6518360221866126E9, 0.0, 2022-05-06 12:20:22.186
31.0, -232.021523301024, -117.71896095527336, -135.55080394400284, -147.63255075085908, 0.1600000075995922, 0.12800000607967377, 1.0240000486373901, 0.0, 0.0, 0.0, 0.0, 0.0, 1.6518360221876163E9, 0.0, 2022-05-06 12:20:22.187
31.0, -185.80383964860812, -40.75929966708645, -82.05153507785872, -136.59610598161817, 0.1600000075995922, 0.12800000607967377, 1.0240000486373901, 0.0, 0.0, 0.0, 0.0, 0.0, 1.6518360221876163E9, 0.0, 2022-05-06 12:20:22.187
32.0, -227.47380495490506, -130.46827990422025, -156.37082699732855, -166.0814772322774, 0.1600000075995922, 0.12800000607967377, 1.0240000486373901, 0.0, 0.0, 0.0, 0.0, 0.0, 1.6518360221976528E9, 0.0, 2022-05-06 12:20:22.197
32.0, -264.38661751756445, -198.77007279498503, -208.419014680665, -187.41012667957693, 0.1600000075995922, 0.12800000607967377, 1.0240000486373901, 0.0, 0.0, 0.0, 0.0, 0.0, 1.6518360221976528E9, 0.0, 2022-05-06 12:20:22.197
33.0, -234.0522889769636, -121.25316641340032, -138.74467850616202, -158.08183122705668, 0.1600000075995922, 0.12800000607967377, 1.0240000486373901, 0.0, 0.0, 0.0, 0.0, 0.0, 1.651836022198614E9, 0.0, 2022-05-06 12:20:22.198
33.0, -196.03246602742, -44.47302032308653, -85.55582133634016, -133.5032087182626, 0.1600000075995922, 0.12800000607967377, 1.0240000486373901, 0.0, 0.0, 0.0, 0.0, 0.0, 1.651836022198614E9, 0.0, 2022-05-06 12:20:22.198
34.0, -230.3535279207863, -125.42689476395026, -156.6101805944927, -165.77480543591082, 0.1600000075995922, 0.12800000607967377, 1.0240000486373901, 0.0, 0.0, 0.0, 0.0, 0.0, 1.6518360222117033E9, 0.0, 2022-05-06 12:20:22.211
34.0, -262.6999226375483, -188.19737562024966, -205.86840291088447, -183.38973422721028, 0.1600000075995922, 0.12800000607967377, 1.0240000486373901, 0.0, 0.0, 0.0, 0.0, 0.0, 1.6518360222117033E9, 0.0, 2022-05-06 12:20:22.211
35.0, -248.1367522100918, -126.20105405477807, -144.9042937331833, -164.05819135624915, 0.1600000075995922, 0.12800000607967377, 1.0240000486373901, 0.0, 0.0, 0.0, 0.0, 0.0, 1.6518360222276733E9, 0.0, 2022-05-06 12:20:22.227
35.0, -195.3705037352629, -47.909988382365555, -85.14817224116996, -133.67150421626866, 0.1600000075995922, 0.12800000607967377, 1.0240000486373901, 0.0, 0.0, 0.0, 0.0, 0.0, 1.6518360222276733E9, 0.0, 2022-05-06 12:20:22.227
36.0, -208.1123428842984, -119.5215927339159, -148.19166579423472, -154.0689185746014, 0.1600000075995922, 0.12800000607967377, 1.0240000486373901, 0.0, 0.0, 0.0, 0.0, 0.0, 1.6518360222426689E9, 0.0, 2022-05-06 12:20:22.242
36.0, -272.69293531915173, -202.98867994500324, -216.64679458318278, -201.77508240938187, 0.1600000075995922, 0.12800000607967377, 1.0240000486373901, 0.0, 0.0, 0.0, 0.0, 0.0, 1.6518360222426689E9, 0.0, 2022-05-06 12:20:22.242
37.0, -257.49772179918364, -145.124947830569, -160.36130025004968, -168.99111939780414, 0.1600000075995922, 0.12800000607967377, 1.0240000486373901, 0.0, 0.0, 0.0, 0.0, 0.0, 1.6518360222436652E9, 0.0, 2022-05-06 12:20:22.243
37.0, -203.39258914021775, -55.995652086567134, -91.4686031662859, -143.89265079516917, 0.1600000075995922, 0.12800000607967377, 1.0240000486373901, 0.0, 0.0, 0.0, 0.0, 0.0, 1.6518360222436652E9, 0.0, 2022-05-06 12:20:22.243
38.0, -208.88650217512622, -114.41662929439917, -138.74093860620633, -144.45737568847835, 0.1600000075995922, 0.12800000607967377, 1.0240000486373901, 0.0, 0.0, 0.0, 0.0, 0.0, 1.6518360222747133E9, 0.0, 2022-05-06 12:20:22.274
38.0, -255.50435512280092, -193.41827595839277, -207.05021129688248, -181.0522967549041, 0.1600000075995922, 0.12800000607967377, 1.0240000486373901, 0.0, 0.0, 0.0, 0.0, 0.0, 1.6518360222747133E9, 0.0, 2022-05-06 12:20:22.274
39.0, -245.15605194540694, -123.45222758734599, -142.39856076287106, -165.17268154304475, 0.1600000075995922, 0.12800000607967377, 1.0240000486373901, 0.0, 0.0, 0.0, 0.0, 0.0, 1.6518360222755594E9, 0.0, 2022-05-06 12:20:22.275
39.0, -206.49296620348468, -52.371689029503614, -87.5791072123684, -136.30813368503004, 0.1600000075995922, 0.12800000607967377, 1.0240000486373901, 0.0, 0.0, 0.0, 0.0, 0.0, 1.6518360222755594E9, 0.0, 2022-05-06 12:20:22.275
40.0, -229.82246212707832, -133.9015080635436, -167.39979196665809, -172.24857225921005, 0.1600000075995922, 0.12800000607967377, 1.0240000486373901, 0.0, 0.0, 0.0, 0.0, 0.0, 1.651836022276605E9, 0.0, 2022-05-06 12:20:22.276
40.0, -254.2140896380879, -194.04657915094867, -204.54447832657024, -185.8244090983644, 0.1600000075995922, 0.12800000607967377, 1.0240000486373901, 0.0, 0.0, 0.0, 0.0, 0.0, 1.651836022276605E9, 0.0, 2022-05-06 12:20:22.276
41.0, -264.12482452066615, -143.66264694789425, -160.55203514778987, -171.44075386878103, 0.1600000075995922, 0.12800000607967377, 1.0240000486373901, 0.0, 0.0, 0.0, 0.0, 0.0, 1.6518360222777526E9, 0.0, 2022-05-06 12:20:22.277
41.0, -203.38510934030637, -59.25310494797304, -96.70072320429608, -141.9217235185206, 0.1600000075995922, 0.12800000607967377, 1.0240000486373901, 0.0, 0.0, 0.0, 0.0, 0.0, 1.6518360222777526E9, 0.0, 2022-05-06 12:20:22.277
42.0, -214.36919551016763, -107.59131187526509, -132.4840859803371, -132.7701883269474, 0.1600000075995922, 0.12800000607967377, 1.0240000486373901, 0.0, 0.0, 0.0, 0.0, 0.0, 1.6518360222866096E9, 0.0, 2022-05-06 12:20:22.286
42.0, -271.45876833377406, -196.9599612164311, -214.62724860711023, -188.33014206867665, 0.1600000075995922, 0.12800000607967377, 1.0240000486373901, 0.0, 0.0, 0.0, 0.0, 0.0, 1.6518360222866096E9, 0.0, 2022-05-06 12:20:22.286
43.0, -259.8127198717557, -136.14544803695753, -157.1636857879348, -185.62245450075716, 0.1600000075995922, 0.12800000607967377, 1.0240000486373901, 0.0, 0.0, 0.0, 0.0, 0.0, 1.6518360223346767E9, 0.0, 2022-05-06 12:20:22.334
43.0, -216.7926506814547, -58.811796753201634, -100.63509795768186, -154.25217367243022, 0.1600000075995922, 0.12800000607967377, 1.0240000486373901, 0.0, 0.0, 0.0, 0.0, 0.0, 1.6518360223346767E9, 0.0, 2022-05-06 12:20:22.334
44.0, -237.99040363030508, -135.13941494887695, -166.5396149768494, -176.44100010953844, 0.1600000075995922, 0.12800000607967377, 1.0240000486373901, 0.0, 0.0, 0.0, 0.0, 0.0, 1.6518360223355565E9, 0.0, 2022-05-06 12:20:22.335
44.0, -271.57844513235614, -201.61239676130936, -218.06421666638926, -198.42039214912802, 0.1600000075995922, 0.12800000607967377, 1.0240000486373901, 0.0, 0.0, 0.0, 0.0, 0.0, 1.6518360223355565E9, 0.0, 2022-05-06 12:20:22.335
45.0, -264.8802843117155, -138.95037300372496, -165.40642529027537, -178.4194071860984, 0.1600000075995922, 0.12800000607967377, 1.0240000486373901, 0.0, 0.0, 0.0, 0.0, 0.0, 1.6518360223365583E9, 0.0, 2022-05-06 12:20:22.336
45.0, -217.61168877175078, -61.85233541717753, -100.00679476512596, -149.5885184276849, 0.1600000075995922, 0.12800000607967377, 1.0240000486373901, 0.0, 0.0, 0.0, 0.0, 0.0, 1.6518360223365583E9, 0.0, 2022-05-06 12:20:22.336
46.0, -226.65476686460897, -120.30323182465509, -161.26261613937095, -162.21816057804972, 0.1600000075995922, 0.12800000607967377, 1.0240000486373901, 0.0, 0.0, 0.0, 0.0, 0.0, 1.6518360223376057E9, 0.0, 2022-05-06 12:20:22.337
46.0, -268.50050746882334, -192.90216976450756, -211.20898004760966, -180.80172345787287, 0.1600000075995922, 0.12800000607967377, 1.0240000486373901, 0.0, 0.0, 0.0, 0.0, 0.0, 1.6518360223376057E9, 0.0, 2022-05-06 12:20:22.337
47.0, -258.4289568881504, -141.35138877527788, -154.7963291159831, -173.39672154560685, 0.1600000075995922, 0.12800000607967377, 1.0240000486373901, 0.0, 0.0, 0.0, 0.0, 0.0, 1.6518360223476486E9, 0.0, 2022-05-06 12:20:22.347
47.0, -211.59044984309003, -60.29653703561053, -91.3564061676152, -135.4329970953986, 0.1600000075995922, 0.12800000607967377, 1.0240000486373901, 0.0, 0.0, 0.0, 0.0, 0.0, 1.6518360223476486E9, 0.0, 2022-05-06 12:20:22.347
48.0, -226.1611000704579, -115.53859928110614, -147.73539799964055, -150.5496727162972, 0.1600000075995922, 0.12800000607967377, 1.0240000486373901, 0.0, 0.0, 0.0, 0.0, 0.0, 1.6518360223787184E9, 0.0, 2022-05-06 12:20:22.378
48.0, -275.39688298711553, -206.66126170149073, -221.10475533036515, -201.73394350986928, 0.1600000075995922, 0.12800000607967377, 1.0240000486373901, 0.0, 0.0, 0.0, 0.0, 0.0, 1.6518360223787184E9, 0.0, 2022-05-06 12:20:22.378
49.0, -256.2186760143377, -138.47540570935234, -149.95315867336467, -165.95806053373963, 0.1600000075995922, 0.12800000607967377, 1.0240000486373901, 0.0, 0.0, 0.0, 0.0, 0.0, 1.6518360223795419E9, 0.0, 2022-05-06 12:20:22.379
49.0, -202.91762184584513, -48.306417777668685, -82.62747967103496, -134.38208520784974, 0.1600000075995922, 0.12800000607967377, 1.0240000486373901, 0.0, 0.0, 0.0, 0.0, 0.0, 1.6518360223795419E9, 0.0, 2022-05-06 12:20:22.379
50.0, -216.4597995853983, -107.55765277566388, -133.87906866380945, -133.727602715604, 0.1600000075995922, 0.12800000607967377, 1.0240000486373901, 0.0, 0.0, 0.0, 0.0, 0.0, 1.6518360223806827E9, 0.0, 2022-05-06 12:20:22.380
50.0, -265.27671370701864, -194.82821824168786, -207.73461298877373, -182.85118863359094, 0.1600000075995922, 0.12800000607967377, 1.0240000486373901, 0.0, 0.0, 0.0, 0.0, 0.0, 1.6518360223806827E9, 0.0, 2022-05-06 12:20:22.380
51.0, -251.42786417109892, -132.06895708525553, -152.4626315436326, -170.74139257706702, 0.1600000075995922, 0.11200000531971455, 1.0240000486373901, 0.0, 0.0, 0.0, 0.0, 0.0, 1.6518360223816657E9, 0.0, 2022-05-06 12:20:22.381
51.0, -201.90036905789748, -54.24911880725995, -90.88517877319828, -143.93752959463745, 0.1600000075995922, 0.11200000531971455, 1.0240000486373901, 0.0, 0.0, 0.0, 0.0, 0.0, 1.6518360223816657E9, 0.0, 2022-05-06 12:20:22.381
52.0, -204.23780653020367, -112.07545192213729, -141.6804999713786, -142.89409750699997, 0.1600000075995922, 0.11200000531971455, 1.0240000486373901, 0.0, 0.0, 0.0, 0.0, 0.0, 1.6518360223917208E9, 0.0, 2022-05-06 12:20:22.391
52.0, -243.29358176747337, -167.55312786484137, -194.9254556405358, -167.28572501800954, 0.1600000075995922, 0.11200000531971455, 1.0240000486373901, 0.0, 0.0, 0.0, 0.0, 0.0, 1.6518360223917208E9, 0.0, 2022-05-06 12:20:22.391
53.0, -280.9244551216252, -151.2434241580777, -167.84857996134087, -196.8683336675167, 0.1600000075995922, 0.11200000531971455, 1.0240000486373901, 0.0, 0.0, 0.0, 0.0, 0.0, 1.6518360224077559E9, 0.0, 2022-05-06 12:20:22.407
53.0, -228.02357024839148, -61.86729501700029, -101.41299714846537, -158.39972272329032, 0.1600000075995922, 0.11200000531971455, 1.0240000486373901, 0.0, 0.0, 0.0, 0.0, 0.0, 1.6518360224077559E9, 0.0, 2022-05-06 12:20:22.407
54.0, -226.2358980695717, -114.15483629750088, -152.51499014301226, -156.97482084017247, 0.1600000075995922, 0.11200000531971455, 1.0240000486373901, 0.0, 0.0, 0.0, 0.0, 0.0, 1.651836022408586E9, 0.0, 2022-05-06 12:20:22.408
54.0, -273.28383951215073, -192.23272767243907, -212.24119243538007, -181.79653684608638, 0.1600000075995922, 0.11200000531971455, 1.0240000486373901, 0.0, 0.0, 0.0, 0.0, 0.0, 1.651836022408586E9, 0.0, 2022-05-06 12:20:22.408
55.0, -268.5192069686018, -148.14678699476644, -166.0609077825211, -183.3859943272546, 0.1600000075995922, 0.11200000531971455, 1.0240000486373901, 0.0, 0.0, 0.0, 0.0, 0.0, 1.6518360224216235E9, 0.0, 2022-05-06 12:20:22.421
55.0, -212.1888338360004, -51.485332740005106, -90.8739590733312, -135.59007289353758, 0.1600000075995922, 0.11200000531971455, 1.0240000486373901, 0.0, 0.0, 0.0, 0.0, 0.0, 1.6518360224216235E9, 0.0, 2022-05-06 12:20:22.421
56.0, -223.25519780488685, -115.1122506861575, -155.3498343094252, -168.44509400427341, 0.1600000075995922, 0.11200000531971455, 1.0240000486373901, 0.0, 0.0, 0.0, 0.0, 0.0, 1.651836022437626E9, 0.0, 2022-05-06 12:20:22.437
56.0, -272.86497071711347, -200.28847217699513, -213.1911270241253, -189.54560955427587, 0.1600000075995922, 0.11200000531971455, 1.0240000486373901, 0.0, 0.0, 0.0, 0.0, 0.0, 1.651836022437626E9, 0.0, 2022-05-06 12:20:22.437
57.0, -271.8514578291215, -152.50751034310088, -170.53382812952623, -180.1547207655385, 0.1600000075995922, 0.11200000531971455, 1.0240000486373901, 0.0, 0.0, 0.0, 0.0, 0.0, 1.6518360224385626E9, 0.0, 2022-05-06 12:20:22.438
57.0, -214.9750593029894, -58.404147658031434, -94.71109642786905, -141.01666772924364, 0.1600000075995922, 0.11200000531971455, 1.0240000486373901, 0.0, 0.0, 0.0, 0.0, 0.0, 1.6518360224385626E9, 0.0, 2022-05-06 12:20:22.438
58.0, -221.33288922766224, -109.96988824708387, -144.45176583854482, -148.6610232386738, 0.1600000075995922, 0.11200000531971455, 1.0240000486373901, 0.0, 0.0, 0.0, 0.0, 0.0, 1.6518360224517488E9, 0.0, 2022-05-06 12:20:22.451
58.0, -260.27646746626124, -190.5946514918469, -202.84282384673133, -179.0103113790974, 0.1600000075995922, 0.11200000531971455, 1.0240000486373901, 0.0, 0.0, 0.0, 0.0, 0.0, 1.6518360224517488E9, 0.0, 2022-05-06 12:20:22.451
59.0, -268.27237357152626, -151.69595205271617, -168.05427445890382, -185.08016900718212, 0.1600000075995922, 0.11200000531971455, 1.0240000486373901, 0.0, 0.0, 0.0, 0.0, 0.0, 1.651836022467618E9, 0.0, 2022-05-06 12:20:22.467
59.0, -223.21031900541857, -69.48547122674063, -101.63365124585107, -150.53471311647445, 0.1600000075995922, 0.11200000531971455, 1.0240000486373901, 0.0, 0.0, 0.0, 0.0, 0.0, 1.651836022467618E9, 0.0, 2022-05-06 12:20:22.467
60.0, -208.03006508527324, -100.73607525648549, -135.09453614940867, -142.0713195167482, 0.1600000075995922, 0.11200000531971455, 1.0240000486373901, 0.0, 0.0, 0.0, 0.0, 0.0, 1.6518360224685905E9, 0.0, 2022-05-06 12:20:22.468
60.0, -260.86737165926024, -190.26928019570187, -208.79674457618967, -180.07244296651334, 0.1600000075995922, 0.11200000531971455, 1.0240000486373901, 0.0, 0.0, 0.0, 0.0, 0.0, 1.6518360224685905E9, 0.0, 2022-05-06 12:20:22.468
61.0, -245.85915313707665, -136.25764503562823, -157.7994687804021, -170.7488723769784, 0.1600000075995922, 0.11200000531971455, 1.0240000486373901, 0.0, 0.0, 0.0, 0.0, 0.0, 1.6518360224987292E9, 0.0, 2022-05-06 12:20:22.498
61.0, -216.14938788907602, -49.540584763046354, -83.71579055814072, -135.8069870909676, 0.1600000075995922, 0.11200000531971455, 1.0240000486373901, 0.0, 0.0, 0.0, 0.0, 0.0, 1.6518360224987292E9, 0.0, 2022-05-06 12:20:22.498
62.0, -219.55269684875384, -105.02574050566182, -143.62150804838166, -158.43712172284722, 0.1600000075995922, 0.11200000531971455, 1.0240000486373901, 0.0, 0.0, 0.0, 0.0, 0.0, 1.6518360224995835E9, 0.0, 2022-05-06 12:20:22.499
62.0, -276.488933774177, -203.05599814420566, -224.04431669553742, -200.65685232263058, 0.1600000075995922, 0.11200000531971455, 1.0240000486373901, 0.0, 0.0, 0.0, 0.0, 0.0, 1.6518360224995835E9, 0.0, 2022-05-06 12:20:22.499
63.0, -261.8771446472965, -147.85507479822263, -160.26780275115743, -170.69651377759874, 0.1600000075995922, 0.11200000531971455, 1.0240000486373901, 0.0, 0.0, 0.0, 0.0, 0.0, 1.6518360225006063E9, 0.0, 2022-05-06 12:20:22.500
63.0, -198.75885309511796, -39.20350128551945, -73.77887637587264, -110.52152349054813, 0.1600000075995922, 0.11200000531971455, 1.0240000486373901, 0.0, 0.0, 0.0, 0.0, 0.0, 1.6518360225006063E9, 0.0, 2022-05-06 12:20:22.500
64.0, -214.37293541012332, -104.8462253077887, -151.10130795976147, -169.66056148987263, 0.1600000075995922, 0.11200000531971455, 1.0240000486373901, 0.0, 0.0, 0.0, 0.0, 0.0, 1.65183602251166E9, 0.0, 2022-05-06 12:20:22.511
64.0, -270.71826814254746, -189.24080770788714, -208.72568647703156, -190.798476039432, 0.1600000075995922, 0.11200000531971455, 1.0240000486373901, 0.0, 0.0, 0.0, 0.0, 0.0, 1.65183602251166E9, 0.0, 2022-05-06 12:20:22.511
65.0, -264.801746412646, -147.32400900451466, -160.63431294681504, -177.62280849553645, 0.1600000075995922, 0.11200000531971455, 1.0240000486373901, 0.0, 0.0, 0.0, 0.0, 0.0, 1.6518360225276103E9, 0.0, 2022-05-06 12:20:22.527
65.0, -219.69107314711437, -66.66184676019475, -102.6583838337101, -153.3284183833748, 0.1600000075995922, 0.11200000531971455, 1.0240000486373901, 0.0, 0.0, 0.0, 0.0, 0.0, 1.6518360225276103E9, 0.0, 2022-05-06 12:20:22.527
