%OpenBCI Raw EEG Data
%Number of channels = 4
%Sample Rate = 200 Hz
%Board = OpenBCI_GUI$BoardGanglionBLE
Sample Index, EXG Channel 0, EXG Channel 1, EXG Channel 2, EXG Channel 3, Accel Channel 0, Accel Channel 1, Accel Channel 2, Other, Other, Other, Other, Other, Timestamp, Other, Timestamp (Formatted)
29.0, 63.52594064734876, 98.32196983508766, 80.8528971420601, 47.07412074226886, 0.0, 0.0, 0.0, 0.0, 0.0, 0.0, 0.0, 0.0, 1.651835993063642E9, 0.0, 2022-05-06 12:19:53.063
29.0, 74.56612531654537, 65.47068862430751, 47.97917653154582, 65.41459012497216, 0.0, 0.0, 0.0, 0.0, 0.0, 0.0, 0.0, 0.0, 1.651835993063642E9, 0.0, 2022-05-06 12:19:53.063
0.0, -230.7032085666433, -78.6482261181809, -113.46669470565394, -164.15916865505278, 0.0, 0.0, 0.0, 0.0, 0.0, 0.0, 0.0, 0.0, 1.6518359930966547E9, 0.0, 2022-05-06 12:19:53.096
1.0, -209.56903391703963, -71.87900719838217, -116.2566600725986, -145.5905653750524, 0.0, 0.11200000531971455, 0.0, 0.0, 0.0, 0.0, 0.0, 0.0, 1.6518359930976388E9, 0.0, 2022-05-06 12:19:53.097
1.0, -266.1574601465836, -193.38835675874725, -211.68020744202659, -181.20563265308738, 0.0, 0.11200000531971455, 0.0, 0.0, 0.0, 0.0, 0.0, 0.0, 1.6518359930976388E9, 0.0, 2022-05-06 12:19:53.097
2.0, -278.33083450235426, -185.86741794785485, -197.49102701013908, -184.3882875153795, 0.1600000075995922, 0.11200000531971455, 0.0, 0.0, 0.0, 0.0, 0.0, 0.0, 1.6518359931136336E9, 0.0, 2022-05-06 12:19:53.113
2.0, -217.10867222771049, -64.8292957819067, -99.46450927155092, -145.1417773803696, 0.1600000075995922, 0.11200000531971455, 0.0, 0.0, 0.0, 0.0, 0.0, 0.0, 1.6518359931136336E9, 0.0, 2022-05-06 12:19:53.113
3.0, -203.0616079941392, -54.51839160406962, -96.51746810646728, -127.2463560923934, 0.1600000075995922, 0.11200000531971455, 0.0, 0.0, 0.0, 0.0, 0.0, 0.0, 1.6518359931146097E9, 0.0, 2022-05-06 12:19:53.114
3.0, -253.46797959692776, -182.08637909265235, -200.60636367322877, -170.7451324770227, 0.1600000075995922, 0.11200000531971455, 0.0, 0.0, 0.0, 0.0, 0.0, 0.0, 1.6518359931146097E9, 0.0, 2022-05-06 12:19:53.114
4.0, -276.8049553204328, -202.03500545630231, -204.42106162803248, -205.49254296533763, 0.1600000075995922, 0.11200000531971455, 0.0, 0.0, 0.0, 0.0, 0.0, 0.0, 1.6518359931587243E9, 0.0, 2022-05-06 12:19:53.158
4.0, -220.0295340931043, -73.1991918827407, -103.46620222413912, -152.85719098895788, 0.1600000075995922, 0.11200000531971455, 0.0, 0.0, 0.0, 0.0, 0.0, 0.0, 1.6518359931587243E9, 0.0, 2022-05-06 12:19:53.158
5.0, -200.67929172236472, -60.46483253361657, -107.19488247996196, -142.64352420996875, 0.1600000075995922, 0.11200000531971455, 0.0, 0.0, 0.0, 0.0, 0.0, 0.0, 1.6518359931596043E9, 0.0, 2022-05-06 12:19:53.159
5.0, -275.25289683882147, -196.48873382201418, -208.8266637758352, -193.62958030588925, 0.1600000075995922, 0.11200000531971455, 0.0, 0.0, 0.0, 0.0, 0.0, 0.0, 1.6518359931596043E9, 0.0, 2022-05-06 12:19:53.159
6.0, -283.9519041357562, -192.73387426650152, -200.62132327305153, -199.38154643774033, 0.1600000075995922, 0.11200000531971455, 0.0, 0.0, 0.0, 0.0, 0.0, 0.0, 1.6518359931606734E9, 0.0, 2022-05-06 12:19:53.160
6.0, -237.71178108360618, -73.47968437941745, -109.72679474996403, -163.1157365674153, 0.1600000075995922, 0.11200000531971455, 0.0, 0.0, 0.0, 0.0, 0.0, 0.0, 1.6518359931606734E9, 0.0, 2022-05-06 12:19:53.160
7.0, -218.07730631623417, -76.41176594467834, -119.38695633551106, -147.91304324753582, 0.1600000075995922, 0.11200000531971455, 0.0, 0.0, 0.0, 0.0, 0.0, 0.0, 1.6518359931616108E9, 0.0, 2022-05-06 12:19:53.161
7.0, -255.85029586870223, -176.85425905464217, -196.49621362192556, -171.51181196793914, 0.1600000075995922, 0.11200000531971455, 0.0, 0.0, 0.0, 0.0, 0.0, 0.0, 1.6518359931616108E9, 0.0, 2022-05-06 12:19:53.161
8.0, -282.5457017524168, -193.28737945994362, -202.7829854474403, -187.0884952833876, 0.1600000075995922, 0.11200000531971455, 0.0, 0.0, 0.0, 0.0, 0.0, 0.0, 1.651835993172717E9, 0.0, 2022-05-06 12:19:53.172
8.0, -228.69488229043782, -67.87731424579397, -98.00220838887617, -139.16167735122144, 0.1600000075995922, 0.11200000531971455, 0.0, 0.0, 0.0, 0.0, 0.0, 0.0, 1.651835993172717E9, 0.0, 2022-05-06 12:19:53.172
9.0, -199.23195043951273, -59.615875243674964, -102.80050003202632, -138.8811848545447, 0.1600000075995922, 0.11200000531971455, 0.0, 0.0, 0.0, 0.0, 0.0, 0.0, 1.6518359932036898E9, 0.0, 2022-05-06 12:19:53.203
9.0, -257.4173139501363, -190.1084644976072, -208.3778757811524, -193.21819131076336, 0.1600000075995922, 0.11200000531971455, 0.0, 0.0, 0.0, 0.0, 0.0, 0.0, 1.6518359932036898E9, 0.0, 2022-05-06 12:19:53.203
10.0, -289.48695607017726, -204.2602459299378, -209.94863376254216, -195.91465917881578, 0.1600000075995922, 0.11200000531971455, 1.008000047877431, 0.0, 0.0, 0.0, 0.0, 0.0, 1.6518359932046776E9, 0.0, 2022-05-06 12:19:53.204
10.0, -221.6601304737851, -62.27494411217049, -100.81461315555498, -139.57680624630302, 0.1600000075995922, 0.11200000531971455, 1.008000047877431, 0.0, 0.0, 0.0, 0.0, 0.0, 1.6518359932046776E9, 0.0, 2022-05-06 12:19:53.204
11.0, -207.6878642393276, -74.71385136479512, -115.84527107747272, -160.441708099097, 0.1600000075995922, 0.04800000227987766, 1.008000047877431, 0.0, 0.0, 0.0, 0.0, 0.0, 1.6518359932057056E9, 0.0, 2022-05-06 12:19:53.205
11.0, -263.1580603821203, -187.89818362379447, -206.56776420259848, -188.99958416074514, 0.1600000075995922, 0.04800000227987766, 1.008000047877431, 0.0, 0.0, 0.0, 0.0, 0.0, 1.6518359932057056E9, 0.0, 2022-05-06 12:19:53.205
12.0, -281.9510576594621, -191.11823748564348, -203.3364906408824, -197.1637857640162, 0.0800000037997961, 0.04800000227987766, 1.008000047877431, 0.0, 0.0, 0.0, 0.0, 0.0, 1.6518359932066753E9, 0.0, 2022-05-06 12:19:53.206
12.0, -230.79296616557986, -81.75234308140352, -111.59674472780898, -151.37619060650468, 0.0800000037997961, 0.04800000227987766, 1.008000047877431, 0.0, 0.0, 0.0, 0.0, 0.0, 1.6518359932066753E9, 0.0, 2022-05-06 12:19:53.206
13.0, -209.78594811446965, -81.6513657825999, -120.94649461703375, -137.93499016575515, 0.0800000037997961, 0.04800000227987766, 1.008000047877431, 0.0, 0.0, 0.0, 0.0, 0.0, 1.6518359932326846E9, 0.0, 2022-05-06 12:19:53.232
13.0, -257.2377987522632, -172.26540180901065, -194.6674025435932, -179.3394225751981, 0.0800000037997961, 0.04800000227987766, 1.008000047877431, 0.0, 0.0, 0.0, 0.0, 0.0, 1.6518359932326846E9, 0.0, 2022-05-06 12:19:53.232
14.0, -261.3068099040538, -173.55566729372367, -179.8424391192384, -179.30202357564121, 0.0800000037997961, 0.04800000227987766, 1.008000047877431, 0.0, 0.0, 0.0, 0.0, 0.0, 1.6518359932336724E9, 0.0, 2022-05-06 12:19:53.233
14.0, -233.27625973615795, -81.91315877949819, -109.60337805142626, -143.93004979472607, 0.0800000037997961, 0.04800000227987766, 1.008000047877431, 0.0, 0.0, 0.0, 0.0, 0.0, 1.6518359932336724E9, 0.0, 2022-05-06 12:19:53.233
15.0, -207.77762183826417, -71.35542120458558, -112.46440151752904, -124.69200442265719, 0.0800000037997961, 0.04800000227987766, 1.008000047877431, 0.0, 0.0, 0.0, 0.0, 0.0, 1.6518359932346745E9, 0.0, 2022-05-06 12:19:53.234
15.0, -264.47450516652316, -181.56279309885576, -212.03175803786144, -203.81706778518856, 0.0800000037997961, 0.04800000227987766, 1.008000047877431, 0.0, 0.0, 0.0, 0.0, 0.0, 1.6518359932346745E9, 0.0, 2022-05-06 12:19:53.234
16.0, -288.802554378286, -192.4047630704008, -210.92474765097722, -209.52041521761566, 0.0800000037997961, 0.04800000227987766, 1.008000047877431, 0.0, 0.0, 0.0, 0.0, 0.0, 1.6518359932626753E9, 0.0, 2022-05-06 12:19:53.262
16.0, -236.9600611925125, -77.29438233422115, -112.19138882076368, -162.91752186976373, 0.0800000037997961, 0.04800000227987766, 1.008000047877431, 0.0, 0.0, 0.0, 0.0, 0.0, 1.6518359932626753E9, 0.0, 2022-05-06 12:19:53.262
17.0, -222.0341204693541, -92.83366665011272, -131.4930124920793, -160.52772579807788, 0.0800000037997961, 0.04800000227987766, 1.008000047877431, 0.0, 0.0, 0.0, 0.0, 0.0, 1.6518359932636209E9, 0.0, 2022-05-06 12:19:53.263
17.0, -253.36700229812413, -179.98081541759893, -205.13912241952494, -179.73585197050124, 0.0800000037997961, 0.04800000227987766, 1.008000047877431, 0.0, 0.0, 0.0, 0.0, 0.0, 1.6518359932636209E9, 0.0, 2022-05-06 12:19:53.263
18.0, -267.4888645308092, -175.46675617108122, -192.31126557150856, -195.80246218014508, 0.0800000037997961, 0.04800000227987766, 1.008000047877431, 0.0, 0.0, 0.0, 0.0, 0.0, 1.65183599326461E9, 0.0, 2022-05-06 12:19:53.264
18.0, -236.03256600350142, -87.70626381086186, -115.94998827623203, -156.5559520451352, 0.0800000037997961, 0.04800000227987766, 1.008000047877431, 0.0, 0.0, 0.0, 0.0, 0.0, 1.65183599326461E9, 0.0, 2022-05-06 12:19:53.264
19.0, -229.86547097656876, -99.38971127243713, -135.06835684971884, -162.21068077813834, 0.0800000037997961, 0.04800000227987766, 1.008000047877431, 0.0, 0.0, 0.0, 0.0, 0.0, 1.6518359932767377E9, 0.0, 2022-05-06 12:19:53.276
19.0, -256.3140434632078, -184.49487466411665, -203.46738713933155, -184.0105576198548, 0.0800000037997961, 0.04800000227987766, 1.008000047877431, 0.0, 0.0, 0.0, 0.0, 0.0, 1.6518359932767377E9, 0.0, 2022-05-06 12:19:53.276
20.0, -253.00049210246652, -158.9850170663558, -170.48146953014657, -158.0743514271453, 0.0800000037997961, 0.04800000227987766, 0.5120000243186951, 0.0, 0.0, 0.0, 0.0, 0.0, 1.6518359932917244E9, 0.0, 2022-05-06 12:19:53.291
20.0, -221.9929815698415, -71.59103490179405, -102.38911103690043, -143.65329719800502, 0.0800000037997961, 0.04800000227987766, 0.5120000243186951, 0.0, 0.0, 0.0, 0.0, 0.0, 1.6518359932917244E9, 0.0, 2022-05-06 12:19:53.291
21.0, -205.86653296090662, -72.34649469284341, -110.16810294473544, -140.40706403646618, 0.0800000037997961, 0.09600000455975533, 0.5120000243186951, 0.0, 0.0, 0.0, 0.0, 0.0, 1.651835993292709E9, 0.0, 2022-05-06 12:19:53.292
21.0, -249.80661754030734, -177.11979195149615, -194.24105394864455, -167.73451301269233, 0.0800000037997961, 0.09600000455975533, 0.5120000243186951, 0.0, 0.0, 0.0, 0.0, 0.0, 1.651835993292709E9, 0.0, 2022-05-06 12:19:53.292
22.0, -267.3542281324044, -170.81058072624728, -191.97467457549646, -182.7876103343442, 0.12800000607967377, 0.09600000455975533, 0.5120000243186951, 0.0, 0.0, 0.0, 0.0, 0.0, 1.65183599332267E9, 0.0, 2022-05-06 12:19:53.322
22.0, -238.8225313704461, -84.67320494679734, -117.98449385212734, -165.17642144300044, 0.12800000607967377, 0.09600000455975533, 0.5120000243186951, 0.0, 0.0, 0.0, 0.0, 0.0, 1.65183599332267E9, 0.0, 2022-05-06 12:19:53.322
23.0, -213.64178496878594, -84.47499024914578, -123.669141784776, -161.88530948199332, 0.12800000607967377, 0.09600000455975533, 0.5120000243186951, 0.0, 0.0, 0.0, 0.0, 0.0, 1.6518359933236933E9, 0.0, 2022-05-06 12:19:53.323
23.0, -243.4899265151471, -176.16237756283954, -192.4833009694703, -171.863362563774, 0.12800000607967377, 0.09600000455975533, 0.5120000243186951, 0.0, 0.0, 0.0, 0.0, 0.0, 1.6518359933236933E9, 0.0, 2022-05-06 12:19:53.323
24.0, -255.6371215712279, -162.72117712209, -175.35081927245483, -160.27715250104666, 0.12800000607967377, 0.09600000455975533, 0.5120000243186951, 0.0, 0.0, 0.0, 0.0, 0.0, 1.6518359933247392E9, 0.0, 2022-05-06 12:19:53.324
24.0, -238.5906575731933, -82.26096947537735, -113.62003060383722, -166.35448992904276, 0.12800000607967377, 0.09600000455975533, 0.5120000243186951, 0.0, 0.0, 0.0, 0.0, 0.0, 1.6518359933247392E9, 0.0, 2022-05-06 12:19:53.324
25.0, -226.71273531392217, -87.88951890869066, -124.77241227170452, -159.28981891274452, 0.12800000607967377, 0.09600000455975533, 0.5120000243186951, 0.0, 0.0, 0.0, 0.0, 0.0, 1.6518359933366876E9, 0.0, 2022-05-06 12:19:53.336
25.0, -247.74219276476651, -167.2053171689622, -189.71951490221545, -169.72413978911936, 0.12800000607967377, 0.09600000455975533, 0.5120000243186951, 0.0, 0.0, 0.0, 0.0, 0.0, 1.6518359933366876E9, 0.0, 2022-05-06 12:19:53.336
26.0, -258.66644053533673, -172.9909424004145, -188.86681771231815, -186.14230059459805, 0.12800000607967377, 0.09600000455975533, 0.5120000243186951, 0.0, 0.0, 0.0, 0.0, 0.0, 1.6518359933516755E9, 0.0, 2022-05-06 12:19:53.351
26.0, -240.1875948542729, -100.20874936273322, -126.69472084892914, -164.7089339485392, 0.12800000607967377, 0.09600000455975533, 0.5120000243186951, 0.0, 0.0, 0.0, 0.0, 0.0, 1.6518359933516755E9, 0.0, 2022-05-06 12:19:53.351
27.0, -214.19155026227236, -85.55956123629585, -121.32048461260274, -148.68346263840795, 0.12800000607967377, 0.09600000455975533, 0.5120000243186951, 0.0, 0.0, 0.0, 0.0, 0.0, 1.6518359933526037E9, 0.0, 2022-05-06 12:19:53.352
27.0, -255.36036897450686, -178.5147746349685, -200.46050757495686, -185.98522479645908, 0.12800000607967377, 0.09600000455975533, 0.5120000243186951, 0.0, 0.0, 0.0, 0.0, 0.0, 1.6518359933526037E9, 0.0, 2022-05-06 12:19:53.352
28.0, -267.3804074320942, -176.42043065978214, -191.36133098276332, -181.0859558545053, 0.12800000607967377, 0.09600000455975533, 0.5120000243186951, 0.0, 0.0, 0.0, 0.0, 0.0, 1.6518359933826635E9, 0.0, 2022-05-06 12:19:53.382
28.0, -225.43368952907622, -76.32948814565316, -109.0685723577626, -143.51866079960018, 0.12800000607967377, 0.09600000455975533, 0.5120000243186951, 0.0, 0.0, 0.0, 0.0, 0.0, 1.6518359933826635E9, 0.0, 2022-05-06 12:19:53.382
29.0, -208.4695033300668, -70.00905722053722, -107.94660237105563, -134.73737570364028, 0.12800000607967377, 0.09600000455975533, 0.5120000243186951, 0.0, 0.0, 0.0, 0.0, 0.0, 1.65183599338376E9, 0.0, 2022-05-06 12:19:53.383
29.0, -248.27699845843017, -174.3971447837539, -191.8886568765156, -178.785917381756, 0.12800000607967377, 0.09600000455975533, 0.5120000243186951, 0.0, 0.0, 0.0, 0.0, 0.0, 1.65183599338376E9, 0.0, 2022-05-06 12:19:53.383
30.0, -266.3481950443238, -166.580753876362, -189.97756799915805, -186.55742948967963, 0.12800000607967377, 0.09600000455975533, 0.7680000364780426, 0.0, 0.0, 0.0, 0.0, 0.0, 1.651835993384673E9, 0.0, 2022-05-06 12:19:53.384
30.0, -233.90830282866955, -86.76754892198369, -116.65682936785743, -153.83330487739295, 0.12800000607967377, 0.09600000455975533, 0.7680000364780426, 0.0, 0.0, 0.0, 0.0, 0.0, 1.651835993384673E9, 0.0, 2022-05-06 12:19:53.384
31.0, -224.05740634538233, -87.7249633106403, -127.02757194498554, -157.3375911358744, 0.12800000607967377, 0.09600000455975533, 0.7680000364780426, 0.0, 0.0, 0.0, 0.0, 0.0, 1.6518359934127154E9, 0.0, 2022-05-06 12:19:53.412
31.0, -251.9720196146518, -178.87380503071472, -198.2614464010112, -186.72198508773, 0.12800000607967377, 0.09600000455975533, 0.7680000364780426, 0.0, 0.0, 0.0, 0.0, 0.0, 1.6518359934127154E9, 0.0, 2022-05-06 12:19:53.412
32.0, -259.84076912142336, -179.1430778275244, -191.8549977769144, -182.88484773319215, 0.144000006839633, 0.09600000455975533, 0.7680000364780426, 0.0, 0.0, 0.0, 0.0, 0.0, 1.651835993413622E9, 0.0, 2022-05-06 12:19:53.413
32.0, -235.50898000970483, -89.04140809504315, -114.73078089067712, -149.35664463043213, 0.144000006839633, 0.09600000455975533, 0.7680000364780426, 0.0, 0.0, 0.0, 0.0, 0.0, 1.651835993413622E9, 0.0, 2022-05-06 12:19:53.413
33.0, -203.618853087537, -65.20328577747568, -93.34977284399793, -126.9883029954508, 0.144000006839633, 0.09600000455975533, 0.7680000364780426, 0.0, 0.0, 0.0, 0.0, 0.0, 1.651835993414646E9, 0.0, 2022-05-06 12:19:53.414
33.0, -244.38376260455698, -167.40353186661378, -193.79226595396176, -174.05494393780828, 0.144000006839633, 0.09600000455975533, 0.7680000364780426, 0.0, 0.0, 0.0, 0.0, 0.0, 1.651835993414646E9, 0.0, 2022-05-06 12:19:53.414
34.0, -250.89118852745742, -169.00420904764906, -190.6320504914038, -179.2010462768376, 0.144000006839633, 0.09600000455975533, 0.7680000364780426, 0.0, 0.0, 0.0, 0.0, 0.0, 1.6518359934437416E9, 0.0, 2022-05-06 12:19:53.443
34.0, -224.1060250448063, -72.38015379244462, -109.71183515014127, -154.9590147640556, 0.144000006839633, 0.09600000455975533, 0.7680000364780426, 0.0, 0.0, 0.0, 0.0, 0.0, 1.6518359934437416E9, 0.0, 2022-05-06 12:19:53.443
35.0, -221.3983374768868, -83.20342426421121, -115.46754118194804, -148.54134644009173, 0.144000006839633, 0.09600000455975533, 0.7680000364780426, 0.0, 0.0, 0.0, 0.0, 0.0, 1.6518359934446852E9, 0.0, 2022-05-06 12:19:53.444
35.0, -255.9026544680819, -184.12088466854766, -202.6371293491684, -183.05688313115388, 0.144000006839633, 0.09600000455975533, 0.7680000364780426, 0.0, 0.0, 0.0, 0.0, 0.0, 1.6518359934446852E9, 0.0, 2022-05-06 12:19:53.444
36.0, -262.44373949058354, -180.48196201166138, -200.748479871545, -190.29732944536954, 0.144000006839633, 0.09600000455975533, 0.7680000364780426, 0.0, 0.0, 0.0, 0.0, 0.0, 1.6518359934456527E9, 0.0, 2022-05-06 12:19:53.445
36.0, -221.30857987795025, -77.48511723196134, -111.32373203104362, -154.38307017087936, 0.144000006839633, 0.09600000455975533, 0.7680000364780426, 0.0, 0.0, 0.0, 0.0, 0.0, 1.6518359934456527E9, 0.0, 2022-05-06 12:19:53.445
37.0, -210.00286231189966, -88.4692034018226, -120.78567891893908, -155.1871486613527, 0.144000006839633, 0.09600000455975533, 0.7680000364780426, 0.0, 0.0, 0.0, 0.0, 0.0, 1.651835993456682E9, 0.0, 2022-05-06 12:19:53.456
37.0, -243.64700231328607, -172.90492470143363, -193.10038446215913, -177.40589429810643, 0.144000006839633, 0.09600000455975533, 0.7680000364780426, 0.0, 0.0, 0.0, 0.0, 0.0, 1.651835993456682E9, 0.0, 2022-05-06 12:19:53.456
38.0, -256.1233085654676, -170.11869923444465, -185.26903395494446, -167.65223521366715, 0.144000006839633, 0.09600000455975533, 0.7680000364780426, 0.0, 0.0, 0.0, 0.0, 0.0, 1.6518359934716823E9, 0.0, 2022-05-06 12:19:53.471
38.0, -234.12895692605525, -79.62060010666028, -108.09993826923892, -148.11499784514308, 0.144000006839633, 0.09600000455975533, 0.7680000364780426, 0.0, 0.0, 0.0, 0.0, 0.0, 1.6518359934716823E9, 0.0, 2022-05-06 12:19:53.471
39.0, -213.90357796568424, -75.19629845907912, -108.10367816919461, -151.58188510406762, 0.144000006839633, 0.09600000455975533, 0.7680000364780426, 0.0, 0.0, 0.0, 0.0, 0.0, 1.651835993472692E9, 0.0, 2022-05-06 12:19:53.472
39.0, -251.51949172001332, -175.87066536629573, -198.36242369981483, -187.9785914728418, 0.144000006839633, 0.09600000455975533, 0.7680000364780426, 0.0, 0.0, 0.0, 0.0, 0.0, 1.651835993472692E9, 0.0, 2022-05-06 12:19:53.472
40.0, -266.381854143925, -177.01133485278115, -188.68730251444504, -180.92514015641063, 0.144000006839633, 0.09600000455975533, 0.8800000417977571, 0.0, 0.0, 0.0, 0.0, 0.0, 1.6518359934866967E9, 0.0, 2022-05-06 12:19:53.486
40.0, -218.694389808923, -71.40030000405386, -105.91583669511601, -144.59949188679457, 0.144000006839633, 0.09600000455975533, 0.8800000417977571, 0.0, 0.0, 0.0, 0.0, 0.0, 1.6518359934866967E9, 0.0, 2022-05-06 12:19:53.486
41.0, -206.93614434823394, -76.9428317383863, -107.14626378053799, -143.1072718044743, 0.144000006839633, 0.11200000531971455, 0.8800000417977571, 0.0, 0.0, 0.0, 0.0, 0.0, 1.6518359935017295E9, 0.0, 2022-05-06 12:19:53.501
41.0, -246.2275332827121, -163.38687931420282, -186.11425134493038, -168.31045760586858, 0.144000006839633, 0.11200000531971455, 0.8800000417977571, 0.0, 0.0, 0.0, 0.0, 0.0, 1.6518359935017295E9, 0.0, 2022-05-06 12:19:53.501
42.0, -261.0973755065352, -168.9518504482694, -188.54144641617313, -183.09428213071078, 0.144000006839633, 0.11200000531971455, 0.8800000417977571, 0.0, 0.0, 0.0, 0.0, 0.0, 1.6518359935026827E9, 0.0, 2022-05-06 12:19:53.502
42.0, -235.79321240633726, -84.72182364622131, -114.68964199116454, -151.00968041084707, 0.144000006839633, 0.11200000531971455, 0.8800000417977571, 0.0, 0.0, 0.0, 0.0, 0.0, 1.6518359935026827E9, 0.0, 2022-05-06 12:19:53.502
43.0, -199.00381654221565, -64.62734118429944, -101.59999214624986, -127.9120582845062, 0.144000006839633, 0.11200000531971455, 0.8800000417977571, 0.0, 0.0, 0.0, 0.0, 0.0, 1.6518359935166826E9, 0.0, 2022-05-06 12:19:53.516
43.0, -239.03196576796472, -164.78186199767515, -185.250334455166, -168.54607130307704, 0.144000006839633, 0.11200000531971455, 0.8800000417977571, 0.0, 0.0, 0.0, 0.0, 0.0, 1.6518359935166826E9, 0.0, 2022-05-06 12:19:53.516
44.0, -270.89591339044273, -187.4082567295991, -205.18400121899322, -202.34354720264673, 0.144000006839633, 0.11200000531971455, 0.8800000417977571, 0.0, 0.0, 0.0, 0.0, 0.0, 1.6518359935316734E9, 0.0, 2022-05-06 12:19:53.531
44.0, -220.11929169204086, -91.3564061676152, -121.0773911154829, -163.26907246559858, 0.144000006839633, 0.11200000531971455, 0.8800000417977571, 0.0, 0.0, 0.0, 0.0, 0.0, 1.6518359935316734E9, 0.0, 2022-05-06 12:19:53.531
45.0, -208.53308162931353, -65.88020766945556, -100.92307025426999, -125.35770661477, 0.144000006839633, 0.11200000531971455, 0.8800000417977571, 0.0, 0.0, 0.0, 0.0, 0.0, 1.6518359935326164E9, 0.0, 2022-05-06 12:19:53.532
45.0, -237.15827589016408, -157.39929948514327, -186.38352414174005, -175.07593662571162, 0.144000006839633, 0.11200000531971455, 0.8800000417977571, 0.0, 0.0, 0.0, 0.0, 0.0, 1.6518359935326164E9, 0.0, 2022-05-06 12:19:53.532
46.0, -263.801323174499, -181.90312399482355, -197.56582500925288, -192.08126172423363, 0.144000006839633, 0.11200000531971455, 0.8800000417977571, 0.0, 0.0, 0.0, 0.0, 0.0, 1.6518359935466843E9, 0.0, 2022-05-06 12:19:53.546
46.0, -230.78174646571279, -87.90447850851342, -114.51386669324711, -152.09799129795283, 0.144000006839633, 0.11200000531971455, 0.8800000417977571, 0.0, 0.0, 0.0, 0.0, 0.0, 1.6518359935466843E9, 0.0, 2022-05-06 12:19:53.546
47.0, -206.3901189547032, -64.15237388992682, -94.9541899249889, -132.90856462530792, 0.144000006839633, 0.11200000531971455, 0.8800000417977571, 0.0, 0.0, 0.0, 0.0, 0.0, 1.6518359935627215E9, 0.0, 2022-05-06 12:19:53.562
47.0, -238.97960716858506, -162.73239682195708, -181.63011129805818, -160.20235450193286, 0.144000006839633, 0.11200000531971455, 0.8800000417977571, 0.0, 0.0, 0.0, 0.0, 0.0, 1.6518359935627215E9, 0.0, 2022-05-06 12:19:53.562
48.0, -255.54362407233566, -169.43803744250908, -180.64277770975605, -174.21575963590294, 0.144000006839633, 0.11200000531971455, 0.8800000417977571, 0.0, 0.0, 0.0, 0.0, 0.0, 1.6518359935766952E9, 0.0, 2022-05-06 12:19:53.576
48.0, -228.6986221903935, -83.90652545588091, -114.92899558832869, -158.2650863248855, 0.144000006839633, 0.11200000531971455, 0.8800000417977571, 0.0, 0.0, 0.0, 0.0, 0.0, 1.6518359935766952E9, 0.0, 2022-05-06 12:19:53.576
49.0, -201.44223131332546, -72.65690638916567, -100.60143885808066, -134.23248920962214, 0.144000006839633, 0.11200000531971455, 0.8800000417977571, 0.0, 0.0, 0.0, 0.0, 0.0, 1.6518359935776112E9, 0.0, 2022-05-06 12:19:53.577
49.0, -242.21462063025683, -164.6472255992703, -189.70829520234838, -185.67481310013682, 0.144000006839633, 0.11200000531971455, 0.8800000417977571, 0.0, 0.0, 0.0, 0.0, 0.0, 1.6518359935776112E9, 0.0, 2022-05-06 12:19:53.577
50.0, -257.8249630453065, -171.6146592167206, -192.6254171677865, -189.07438215985894, 0.144000006839633, 0.11200000531971455, 0.9600000455975533, 0.0, 0.0, 0.0, 0.0, 0.0, 1.651835993591666E9, 0.0, 2022-05-06 12:19:53.591
50.0, -233.87464372906834, -90.00630228361115, -118.18270854977891, -156.30911864805967, 0.144000006839633, 0.11200000531971455, 0.9600000455975533, 0.0, 0.0, 0.0, 0.0, 0.0, 1.651835993591666E9, 0.0, 2022-05-06 12:19:53.591
51.0, -210.41799120698124, -71.98372439714149, -103.66441692179069, -134.9168909015134, 0.144000006839633, 0.11200000531971455, 0.9600000455975533, 0.0, 0.0, 0.0, 0.0, 0.0, 1.651835993592615E9, 0.0, 2022-05-06 12:19:53.592
51.0, -240.39702925179154, -170.9152979250066, -185.56448605144396, -169.35762959346175, 0.144000006839633, 0.11200000531971455, 0.9600000455975533, 0.0, 0.0, 0.0, 0.0, 0.0, 1.651835993592615E9, 0.0, 2022-05-06 12:19:53.592
52.0, -258.0904959421605, -177.49752184702083, -192.89468996459618, -183.79738332238048, 0.144000006839633, 0.11200000531971455, 0.9600000455975533, 0.0, 0.0, 0.0, 0.0, 0.0, 1.6518359936387E9, 0.0, 2022-05-06 12:19:53.638
52.0, -217.64721782132983, -84.29173515131697, -114.35305099515244, -158.5193995218724, 0.144000006839633, 0.11200000531971455, 0.9600000455975533, 0.0, 0.0, 0.0, 0.0, 0.0, 1.6518359936387E9, 0.0, 2022-05-06 12:19:53.638
53.0, -221.60403197444975, -81.50550968432799, -111.83235842501745, -150.11958422139287, 0.144000006839633, 0.11200000531971455, 0.9600000455975533, 0.0, 0.0, 0.0, 0.0, 0.0, 1.6518359936396227E9, 0.0, 2022-05-06 12:19:53.639
53.0, -247.87308926321566, -164.75194279802963, -182.1088184923865, -168.09728330839425, 0.144000006839633, 0.11200000531971455, 0.9600000455975533, 0.0, 0.0, 0.0, 0.0, 0.0, 1.6518359936396227E9, 0.0, 2022-05-06 12:19:53.639
54.0, -265.40948015544564, -166.03098858287558, -192.73387426650152, -178.59518248401582, 0.144000006839633, 0.11200000531971455, 0.9600000455975533, 0.0, 0.0, 0.0, 0.0, 0.0, 1.651835993640672E9, 0.0, 2022-05-06 12:19:53.640
54.0, -206.93240444827825, -70.95525190932676, -97.35520569654182, -136.46520948316902, 0.144000006839633, 0.11200000531971455, 0.9600000455975533, 0.0, 0.0, 0.0, 0.0, 0.0, 1.651835993640672E9, 0.0, 2022-05-06 12:19:53.640
55.0, -204.51268917694688, -73.01219688495621, -102.0300806411542, -138.11824526358396, 0.144000006839633, 0.11200000531971455, 0.9600000455975533, 0.0, 0.0, 0.0, 0.0, 0.0, 1.6518359936416805E9, 0.0, 2022-05-06 12:19:53.641
55.0, -250.24418583512306, -167.49702936550602, -191.17433598497882, -180.69700625911355, 0.144000006839633, 0.11200000531971455, 0.9600000455975533, 0.0, 0.0, 0.0, 0.0, 0.0, 1.6518359936416805E9, 0.0, 2022-05-06 12:19:53.641
56.0, -260.85054210945964, -175.87440526625142, -197.59948410885409, -183.90958032105118, 0.144000006839633, 0.11200000531971455, 0.9600000455975533, 0.0, 0.0, 0.0, 0.0, 0.0, 1.651835993651682E9, 0.0, 2022-05-06 12:19:53.651
56.0, -226.6641166144982, -90.27557508042082, -120.2957520247437, -148.26833374332637, 0.144000006839633, 0.11200000531971455, 0.9600000455975533, 0.0, 0.0, 0.0, 0.0, 0.0, 1.651835993651682E9, 0.0, 2022-05-06 12:19:53.651
57.0, -190.69001894071698, -67.02087715594098, -93.46944964258, -125.61949961166829, 0.144000006839633, 0.11200000531971455, 0.9600000455975533, 0.0, 0.0, 0.0, 0.0, 0.0, 1.651835993652625E9, 0.0, 2022-05-06 12:19:53.652
57.0, -240.23247365374118, -175.38073847210035, -186.89589043566957, -171.31733717024326, 0.144000006839633, 0.11200000531971455, 0.9600000455975533, 0.0, 0.0, 0.0, 0.0, 0.0, 1.651835993652625E9, 0.0, 2022-05-06 12:19:53.652
58.0, -272.88928006682545, -201.5188992624171, -213.0490108258091, -200.74660992156714, 0.144000006839633, 0.11200000531971455, 0.9600000455975533, 0.0, 0.0, 0.0, 0.0, 0.0, 1.6518359936977265E9, 0.0, 2022-05-06 12:19:53.697
58.0, -216.02036134060472, -82.95659086713567, -115.95746807614341, -162.0349054802209, 0.144000006839633, 0.11200000531971455, 0.9600000455975533, 0.0, 0.0, 0.0, 0.0, 0.0, 1.6518359936977265E9, 0.0, 2022-05-06 12:19:53.697
59.0, -206.70053065102547, -74.92328576231375, -109.50240075262263, -152.2924660956487, 0.144000006839633, 0.11200000531971455, 0.9600000455975533, 0.0, 0.0, 0.0, 0.0, 0.0, 1.6518359937137356E9, 0.0, 2022-05-06 12:19:53.713
59.0, -248.8267637519166, -158.10614057676867, -183.70949567342177, -173.6772140422836, 0.144000006839633, 0.11200000531971455, 0.9600000455975533, 0.0, 0.0, 0.0, 0.0, 0.0, 1.6518359937137356E9, 0.0, 2022-05-06 12:19:53.713
60.0, -265.77973025105894, -171.57352031720802, -193.02558646304533, -184.36210821568966, 0.144000006839633, 0.11200000531971455, 0.9920000471174717, 0.0, 0.0, 0.0, 0.0, 0.0, 1.6518359937146945E9, 0.0, 2022-05-06 12:19:53.714
60.0, -236.7394070951268, -86.23274322832003, -116.91488246480003, -156.33903784770519, 0.144000006839633, 0.11200000531971455, 0.9920000471174717, 0.0, 0.0, 0.0, 0.0, 0.0, 1.6518359937146945E9, 0.0, 2022-05-06 12:19:53.714
61.0, -220.515721087344, -81.37461318587884, -110.34013834269717, -142.12367811612785, 0.144000006839633, 0.11200000531971455, 0.9920000471174717, 0.0, 0.0, 0.0, 0.0, 0.0, 1.651835993715628E9, 0.0, 2022-05-06 12:19:53.715
61.0, -248.76318545266986, -164.5387685005553, -190.00374729884788, -183.03818363137543, 0.144000006839633, 0.11200000531971455, 0.9920000471174717, 0.0, 0.0, 0.0, 0.0, 0.0, 1.651835993715628E9, 0.0, 2022-05-06 12:19:53.715
62.0, -261.714458999224, -175.90806436585262, -194.64122324390337, -188.15062687080353, 0.1600000075995922, 0.11200000531971455, 0.9920000471174717, 0.0, 0.0, 0.0, 0.0, 0.0, 1.65183599371665E9, 0.0, 2022-05-06 12:19:53.716
62.0, -239.77246595919132, -96.22575590992346, -125.61762966169044, -170.6366753783077, 0.1600000075995922, 0.11200000531971455, 0.9920000471174717, 0.0, 0.0, 0.0, 0.0, 0.0, 1.65183599371665E9, 0.0, 2022-05-06 12:19:53.716
63.0, -217.512581422925, -75.17385905934498, -110.54957274021581, -152.67767579108477, 0.1600000075995922, 0.11200000531971455, 0.9920000471174717, 0.0, 0.0, 0.0, 0.0, 0.0, 1.6518359937267325E9, 0.0, 2022-05-06 12:19:53.726
63.0, -236.25322010088712, -161.65904553467408, -176.53262765845284, -171.50807206798345, 0.1600000075995922, 0.11200000531971455, 0.9920000471174717, 0.0, 0.0, 0.0, 0.0, 0.0, 1.6518359937267325E9, 0.0, 2022-05-06 12:19:53.726
64.0, -257.7613847460598, -175.20496317418292, -187.31475923070684, -171.38091546949, 0.1600000075995922, 0.11200000531971455, 0.9920000471174717, 0.0, 0.0, 0.0, 0.0, 0.0, 1.6518359937276776E9, 0.0, 2022-05-06 12:19:53.727
64.0, -205.5823005642742, -72.41007299209014, -90.37281247926876, -116.0902345245704, 0.1600000075995922, 0.11200000531971455, 0.9920000471174717, 0.0, 0.0, 0.0, 0.0, 0.0, 1.6518359937276776E9, 0.0, 2022-05-06 12:19:53.727
65.0, -195.200338287279, -62.85462860530242, -96.87649850221351, -129.56883396487683, 0.1600000075995922, 0.11200000531971455, 0.9920000471174717, 0.0, 0.0, 0.0, 0.0, 0.0, 1.6518359937737415E9, 0.0, 2022-05-06 12:19:53.773
65.0, -222.8830777592957, -153.386386832688, -177.19085005065426, -171.95686006266624, 0.1600000075995922, 0.11200000531971455, 0.9920000471174717, 0.0, 0.0, 0.0, 0.0, 0.0, 1.6518359937737415E9, 0.0, 2022-05-06 12:19:53.773
66.0, -244.7839318998158, -168.618999352213, -187.8159058247693, -177.72004589438438, 0.1600000075995922, 0.11200000531971455, 0.9920000471174717, 0.0, 0.0, 0.0, 0.0, 0.0, 1.6518359937746775E9, 0.0, 2022-05-06 12:19:53.774
66.0, -227.61779110319912, -94.04913413571194, -121.039992115926, -158.20150802563876, 0.1600000075995922, 0.11200000531971455, 0.9920000471174717, 0.0, 0.0, 0.0, 0.0, 0.0, 1.6518359937746775E9, 0.0, 2022-05-06 12:19:53.774
67.0, -207.33631364349276, -80.61915339482948, -113.14132340950891, -156.14082315005362, 0.1600000075995922, 0.11200000531971455, 0.9920000471174717, 0.0, 0.0, 0.0, 0.0, 0.0, 1.6518359937756684E9, 0.0, 2022-05-06 12:19:53.775
67.0, -237.01241979189217, -153.4649247317575, -177.01507475273684, -169.96349338628352, 0.1600000075995922, 0.11200000531971455, 0.9920000471174717, 0.0, 0.0, 0.0, 0.0, 0.0, 1.6518359937756684E9, 0.0, 2022-05-06 12:19:53.775
68.0, -254.1561211887747, -174.61031908122823, -195.83425132976845, -179.69471307098866, 0.1600000075995922, 0.11200000531971455, 0.9920000471174717, 0.0, 0.0, 0.0, 0.0, 0.0, 1.65183599377662E9, 0.0, 2022-05-06 12:19:53.776
68.0, -240.9243551455438, -100.89689095458016, -127.9662868338637, -160.94285469315946, 0.1600000075995922, 0.11200000531971455, 0.9920000471174717, 0.0, 0.0, 0.0, 0.0, 0.0, 1.65183599377662E9, 0.0, 2022-05-06 12:19:53.776
69.0, -206.25548255629838, -71.75185059988871, -109.401423453819, -150.69552881456912, 0.1600000075995922, 0.11200000531971455, 0.9920000471174717, 0.0, 0.0, 0.0, 0.0, 0.0, 1.651835993786706E9, 0.0, 2022-05-06 12:19:53.786
69.0, -232.90974954050034, -156.66627909382805, -177.7742744437419, -163.21671386621892, 0.1600000075995922, 0.11200000531971455, 0.9920000471174717, 0.0, 0.0, 0.0, 0.0, 0.0, 1.651835993786706E9, 0.0, 2022-05-06 12:19:53.786
70.0, -250.2628853349015, -172.48605590639636, -185.09325865702704, -161.21212748996913, 0.1600000075995922, 0.11200000531971455, 1.008000047877431, 0.0, 0.0, 0.0, 0.0, 0.0, 1.6518359937876177E9, 0.0, 2022-05-06 12:19:53.787
70.0, -223.33560565393418, -70.22971131792292, -102.00016144150868, -130.44771045446396, 0.1600000075995922, 0.11200000531971455, 1.008000047877431, 0.0, 0.0, 0.0, 0.0, 0.0, 1.6518359937876177E9, 0.0, 2022-05-06 12:19:53.787
71.0, -209.15764492191374, -73.9060329743661, -107.54643307579681, -149.79047302529216, 0.1600000075995922, 0.11200000531971455, 1.008000047877431, 0.0, 0.0, 0.0, 0.0, 0.0, 1.6518359938177187E9, 0.0, 2022-05-06 12:19:53.817
71.0, -238.31016507651657, -158.76810286892578, -189.5886184037663, -190.37586734443903, 0.1600000075995922, 0.11200000531971455, 1.008000047877431, 0.0, 0.0, 0.0, 0.0, 0.0, 1.6518359938177187E9, 0.0, 2022-05-06 12:19:53.817
72.0, -256.65437435917556, -175.72106936806813, -194.52528634527698, -181.9012540448457, 0.1600000075995922, 0.11200000531971455, 1.008000047877431, 0.0, 0.0, 0.0, 0.0, 0.0, 1.6518359938186026E9, 0.0, 2022-05-06 12:19:53.818
72.0, -229.57001888006926, -91.85381286172196, -115.06363198673353, -148.2197150439024, 0.1600000075995922, 0.11200000531971455, 1.008000047877431, 0.0, 0.0, 0.0, 0.0, 0.0, 1.6518359938186026E9, 0.0, 2022-05-06 12:19:53.818
73.0, -202.93445139564574, -67.42852625111118, -98.04708718834445, -132.23164273332804, 0.1600000075995922, 0.11200000531971455, 1.008000047877431, 0.0, 0.0, 0.0, 0.0, 0.0, 1.6518359938196096E9, 0.0, 2022-05-06 12:19:53.819
73.0, -237.06103849131614, -146.46383201470599, -175.35081927245483, -167.87288931105286, 0.1600000075995922, 0.11200000531971455, 1.008000047877431, 0.0, 0.0, 0.0, 0.0, 0.0, 1.6518359938196096E9, 0.0, 2022-05-06 12:19:53.819
74.0, -259.8220696216449, -180.09301241626963, -203.2953517413698, -200.51847602427006, 0.1600000075995922, 0.11200000531971455, 1.008000047877431, 0.0, 0.0, 0.0, 0.0, 0.0, 1.6518359938317108E9, 0.0, 2022-05-06 12:19:53.831
74.0, -239.10302386712283, -101.81690634367988, -132.03155808569863, -168.01500550936908, 0.1600000075995922, 0.11200000531971455, 1.008000047877431, 0.0, 0.0, 0.0, 0.0, 0.0, 1.6518359938317108E9, 0.0, 2022-05-06 12:19:53.831
75.0, -217.00021512899548, -76.60250084241852, -110.12696404522285, -153.41443608235568, 0.1600000075995922, 0.11200000531971455, 1.008000047877431, 0.0, 0.0, 0.0, 0.0, 0.0, 1.6518359938326104E9, 0.0, 2022-05-06 12:19:53.832
75.0, -238.94968796893954, -159.2056711637415, -186.92954953527078, -172.76467845309526, 0.1600000075995922, 0.11200000531971455, 1.008000047877431, 0.0, 0.0, 0.0, 0.0, 0.0, 1.6518359938326104E9, 0.0, 2022-05-06 12:19:53.832
76.0, -258.39716773852706, -180.69139640918002, -196.40271612303331, -180.8653017571196, 0.1600000075995922, 0.11200000531971455, 1.008000047877431, 0.0, 0.0, 0.0, 0.0, 0.0, 1.6518359938467107E9, 0.0, 2022-05-06 12:19:53.846
76.0, -238.45228127483279, -96.94381670141593, -127.64839533763006, -159.19258151389658, 0.1600000075995922, 0.11200000531971455, 1.008000047877431, 0.0, 0.0, 0.0, 0.0, 0.0, 1.6518359938467107E9, 0.0, 2022-05-06 12:19:53.846
77.0, -206.97728324774653, -69.9043400217779, -102.15723723964766, -145.46340877655894, 0.1600000075995922, 0.11200000531971455, 1.008000047877431, 0.0, 0.0, 0.0, 0.0, 0.0, 1.6518359938776736E9, 0.0, 2022-05-06 12:19:53.877
77.0, -226.2976064188406, -147.85507479822263, -172.9161444013007, -158.15662922617048, 0.1600000075995922, 0.11200000531971455, 1.008000047877431, 0.0, 0.0, 0.0, 0.0, 0.0, 1.6518359938776736E9, 0.0, 2022-05-06 12:19:53.877
78.0, -253.43806039728224, -173.4733894946985, -191.80637907749042, -173.06013054959476, 0.1600000075995922, 0.11200000531971455, 1.008000047877431, 0.0, 0.0, 0.0, 0.0, 0.0, 1.6518359938786125E9, 0.0, 2022-05-06 12:19:53.878
78.0, -235.59125780873, -85.40996523806825, -115.4787608818151, -140.70999593287706, 0.1600000075995922, 0.11200000531971455, 1.008000047877431, 0.0, 0.0, 0.0, 0.0, 0.0, 1.6518359938786125E9, 0.0, 2022-05-06 12:19:53.878
79.0, -224.0349669456482, -81.54290868388489, -114.82427838956937, -154.27835297212005, 0.1600000075995922, 0.11200000531971455, 1.008000047877431, 0.0, 0.0, 0.0, 0.0, 0.0, 1.6518359938796E9, 0.0, 2022-05-06 12:19:53.879
79.0, -244.40620200429112, -151.33692165696993, -171.73807591525838, -162.73800667189062, 0.1600000075995922, 0.11200000531971455, 1.008000047877431, 0.0, 0.0, 0.0, 0.0, 0.0, 1.6518359938796E9, 0.0, 2022-05-06 12:19:53.879
80.0, -263.6031084768474, -177.6957365446724, -195.38920323504135, -175.92863381560892, 0.1600000075995922, 0.11200000531971455, 1.008000047877431, 0.0, 0.0, 0.0, 0.0, 0.0, 1.651835993891768E9, 0.0, 2022-05-06 12:19:53.891
80.0, -234.73482071887702, -97.04853390017524, -127.66335493745282, -158.08557112701237, 0.1600000075995922, 0.11200000531971455, 1.008000047877431, 0.0, 0.0, 0.0, 0.0, 0.0, 1.651835993891768E9, 0.0, 2022-05-06 12:19:53.891
81.0, -213.42861067131162, -77.63845313014463, -112.16894942102954, -160.06023830361664, 0.1600000075995922, 0.11200000531971455, 1.008000047877431, 0.0, 0.0, 0.0, 0.0, 0.0, 1.6518359939077525E9, 0.0, 2022-05-06 12:19:53.907
81.0, -247.13258907198906, -153.1245938357897, -178.8438858310692, -180.85034215729684, 0.1600000075995922, 0.11200000531971455, 1.008000047877431, 0.0, 0.0, 0.0, 0.0, 0.0, 1.6518359939077525E9, 0.0, 2022-05-06 12:19:53.907
82.0, -261.51250440161675, -179.292673825752, -202.34915705258027, -186.14978039450943, 0.1600000075995922, 0.11200000531971455, 1.008000047877431, 0.0, 0.0, 0.0, 0.0, 0.0, 1.6518359939227533E9, 0.0, 2022-05-06 12:19:53.922
82.0, -226.85859141219407, -91.85381286172196, -117.51326645771042, -145.57560577522963, 0.1600000075995922, 0.11200000531971455, 1.008000047877431, 0.0, 0.0, 0.0, 0.0, 0.0, 1.6518359939227533E9, 0.0, 2022-05-06 12:19:53.922
83.0, -210.74336250312626, -78.00496332580224, -104.05710641713813, -148.8891571359709, 0.1600000075995922, 0.11200000531971455, 1.008000047877431, 0.0, 0.0, 0.0, 0.0, 0.0, 1.6518359939366975E9, 0.0, 2022-05-06 12:19:53.936
83.0, -256.17566716484725, -171.06863382318988, -194.0316195511259, -193.34160800930113, 0.1600000075995922, 0.11200000531971455, 1.008000047877431, 0.0, 0.0, 0.0, 0.0, 0.0, 1.6518359939366975E9, 0.0, 2022-05-06 12:19:53.936
84.0, -265.11402805894613, -186.20026904391125, -201.72459375998005, -190.96303163748235, 0.1600000075995922, 0.11200000531971455, 1.008000047877431, 0.0, 0.0, 0.0, 0.0, 0.0, 1.6518359939686885E9, 0.0, 2022-05-06 12:19:53.968
84.0, -236.86282379366457, -99.52434767084196, -126.21601365460083, -161.90026908181608, 0.1600000075995922, 0.11200000531971455, 1.008000047877431, 0.0, 0.0, 0.0, 0.0, 0.0, 1.6518359939686885E9, 0.0, 2022-05-06 12:19:53.968
85.0, -217.50510162301362, -81.05298178968951, -107.68106947420165, -151.59684470389038, 0.1600000075995922, 0.11200000531971455, 1.008000047877431, 0.0, 0.0, 0.0, 0.0, 0.0, 1.651835993969678E9, 0.0, 2022-05-06 12:19:53.969
85.0, -226.03955332189798, -141.8300959696062, -163.7646092097275, -159.80966500658542, 0.1600000075995922, 0.11200000531971455, 1.008000047877431, 0.0, 0.0, 0.0, 0.0, 0.0, 1.651835993969678E9, 0.0, 2022-05-06 12:19:53.969
86.0, -256.2691646637395, -182.26215439056978, -196.58597122086212, -173.2284260476008, 0.1600000075995922, 0.11200000531971455, 1.008000047877431, 0.0, 0.0, 0.0, 0.0, 0.0, 1.6518359939706256E9, 0.0, 2022-05-06 12:19:53.970
86.0, -245.28881839383394, -103.46246232418343, -128.80402442393824, -156.04732565116137, 0.1600000075995922, 0.11200000531971455, 1.008000047877431, 0.0, 0.0, 0.0, 0.0, 0.0, 1.6518359939706256E9, 0.0, 2022-05-06 12:19:53.970
87.0, -220.7737741842866, -70.40548661584035, -109.55475935200229, -149.6259174272418, 0.1600000075995922, 0.11200000531971455, 1.008000047877431, 0.0, 0.0, 0.0, 0.0, 0.0, 1.6518359939716873E9, 0.0, 2022-05-06 12:19:53.971
87.0, -241.69477453641593, -156.3147284979932, -178.19314323877916, -173.03395124990493, 0.1600000075995922, 0.11200000531971455, 1.008000047877431, 0.0, 0.0, 0.0, 0.0, 0.0, 1.6518359939716873E9, 0.0, 2022-05-06 12:19:53.971
88.0, -248.7444859528914, -170.57496702903882, -193.63893005577847, -170.90220827516168, 0.1600000075995922, 0.11200000531971455, 1.008000047877431, 0.0, 0.0, 0.0, 0.0, 0.0, 1.6518359939996808E9, 0.0, 2022-05-06 12:19:53.999
88.0, -233.50813353341073, -85.92607143195346, -111.88097712444142, -135.75462849158794, 0.1600000075995922, 0.11200000531971455, 1.008000047877431, 0.0, 0.0, 0.0, 0.0, 0.0, 1.6518359939996808E9, 0.0, 2022-05-06 12:19:53.999
89.0, -216.05028054025024, -67.03583675576374, -97.34398599667475, -139.2476950502023, 0.1600000075995922, 0.11200000531971455, 1.008000047877431, 0.0, 0.0, 0.0, 0.0, 0.0, 1.6518359940006123E9, 0.0, 2022-05-06 12:19:54.000
89.0, -237.21063448954374, -146.21699861763045, -171.0274949236773, -164.2264868542552, 0.1600000075995922, 0.11200000531971455, 1.008000047877431, 0.0, 0.0, 0.0, 0.0, 0.0, 1.6518359940006123E9, 0.0, 2022-05-06 12:19:54.000
90.0, -262.0959287947044, -175.38447837205604, -196.82532481802627, -183.43087312672287, 0.1600000075995922, 0.11200000531971455, 1.0240000486373901, 0.0, 0.0, 0.0, 0.0, 0.0, 1.6518359940016496E9, 0.0, 2022-05-06 12:19:54.001
90.0, -230.09360487386584, -85.9485108316876, -116.6643091677688, -139.11679855175316, 0.1600000075995922, 0.11200000531971455, 1.0240000486373901, 0.0, 0.0, 0.0, 0.0, 0.0, 1.6518359940016496E9, 0.0, 2022-05-06 12:19:54.001
91.0, -206.88378574885428, -67.6417005485855, -98.15928418701515, -136.24455538578331, 0.1600000075995922, 0.11200000531971455, 1.0240000486373901, 0.0, 0.0, 0.0, 0.0, 0.0, 1.651835994002612E9, 0.0, 2022-05-06 12:19:54.002
91.0, -246.5940434783697, -142.48831836180761, -169.08648684667423, -167.32686391752213, 0.1600000075995922, 0.11200000531971455, 1.0240000486373901, 0.0, 0.0, 0.0, 0.0, 0.0, 1.651835994002612E9, 0.0, 2022-05-06 12:19:54.002
92.0, -263.59562867693603, -175.26480157347396, -197.24045371310785, -180.73440525867045, 0.1600000075995922, 0.11200000531971455, 1.0240000486373901, 0.0, 0.0, 0.0, 0.0, 0.0, 1.6518359940277195E9, 0.0, 2022-05-06 12:19:54.027
92.0, -241.1898880423978, -106.20754889165983, -134.7916042529978, -171.6352286664769, 0.1600000075995922, 0.11200000531971455, 1.0240000486373901, 0.0, 0.0, 0.0, 0.0, 0.0, 1.6518359940277195E9, 0.0, 2022-05-06 12:19:54.027
93.0, -207.86737943720073, -69.82206222275272, -94.5839398293756, -143.2493880027905, 0.1600000075995922, 0.11200000531971455, 1.0240000486373901, 0.0, 0.0, 0.0, 0.0, 0.0, 1.6518359940286357E9, 0.0, 2022-05-06 12:19:54.028
93.0, -245.38605579268187, -163.85810670861974, -185.42236985312775, -185.84310859814286, 0.1600000075995922, 0.11200000531971455, 1.0240000486373901, 0.0, 0.0, 0.0, 0.0, 0.0, 1.6518359940286357E9, 0.0, 2022-05-06 12:19:54.028
94.0, -269.22417811024934, -197.01605971576646, -215.77913779346272, -196.32978807389736, 0.1600000075995922, 0.11200000531971455, 1.0240000486373901, 0.0, 0.0, 0.0, 0.0, 0.0, 1.65183599402963E9, 0.0, 2022-05-06 12:19:54.029
94.0, -244.46604040358216, -107.31829917849973, -132.20733338361606, -162.38271617610008, 0.1600000075995922, 0.11200000531971455, 1.0240000486373901, 0.0, 0.0, 0.0, 0.0, 0.0, 1.65183599402963E9, 0.0, 2022-05-06 12:19:54.029
95.0, -206.37889925483614, -63.64748739590868, -93.0244015478529, -140.23876853846014, 0.1600000075995922, 0.11200000531971455, 1.0240000486373901, 0.0, 0.0, 0.0, 0.0, 0.0, 1.6518359940736594E9, 0.0, 2022-05-06 12:19:54.073
95.0, -243.59090381395072, -148.84614828648046, -173.82867999048904, -165.62894933763891, 0.1600000075995922, 0.11200000531971455, 1.0240000486373901, 0.0, 0.0, 0.0, 0.0, 0.0, 1.6518359940736594E9, 0.0, 2022-05-06 12:19:54.073
96.0, -264.13791417051107, -171.03871462354437, -199.1852016900666, -182.14060764200985, 0.1600000075995922, 0.11200000531971455, 1.0240000486373901, 0.0, 0.0, 0.0, 0.0, 0.0, 1.6518359940746408E9, 0.0, 2022-05-06 12:19:54.074
96.0, -245.19906079489738, -105.12297790450975, -132.10261618485674, -160.83439759444445, 0.1600000075995922, 0.11200000531971455, 1.0240000486373901, 0.0, 0.0, 0.0, 0.0, 0.0, 1.6518359940746408E9, 0.0, 2022-05-06 12:19:54.074
97.0, -211.93265068903565, -69.45555202709511, -104.73776820907369, -147.83824524842203, 0.1600000075995922, 0.11200000531971455, 1.0240000486373901, 0.0, 0.0, 0.0, 0.0, 0.0, 1.6518359940757375E9, 0.0, 2022-05-06 12:19:54.075
97.0, -227.3634779062122, -133.42280086921528, -154.40737952059135, -153.69118867907673, 0.1600000075995922, 0.11200000531971455, 1.0240000486373901, 0.0, 0.0, 0.0, 0.0, 0.0, 1.6518359940757375E9, 0.0, 2022-05-06 12:19:54.075
98.0, -255.46134627331048, -175.96416286518797, -187.0380066339858, -149.27810673136264, 0.1600000075995922, 0.11200000531971455, 1.0240000486373901, 0.0, 0.0, 0.0, 0.0, 0.0, 1.6518359940768015E9, 0.0, 2022-05-06 12:19:54.076
98.0, -234.94051521643996, -102.62846463406458, -129.70160041330382, -152.16904939711094, 0.1600000075995922, 0.11200000531971455, 1.0240000486373901, 0.0, 0.0, 0.0, 0.0, 0.0, 1.6518359940768015E9, 0.0, 2022-05-06 12:19:54.076
99.0, -218.08104621618986, -70.45410531526431, -106.15519029228017, -164.28632525354624, 0.1600000075995922, 0.11200000531971455, 1.0240000486373901, 0.0, 0.0, 0.0, 0.0, 0.0, 1.6518359940878148E9, 0.0, 2022-05-06 12:19:54.087
99.0, -259.48173872567713, -165.6906576869078, -186.1404306446202, -191.3145822333172, 0.1600000075995922, 0.11200000531971455, 1.0240000486373901, 0.0, 0.0, 0.0, 0.0, 0.0, 1.6518359940878148E9, 0.0, 2022-05-06 12:19:54.087
100.0, -277.96806420665234, -189.55869920412078, -209.69058066559955, -188.21046527009457, 0.1600000075995922, 0.11200000531971455, 1.008000047877431, 0.0, 0.0, 0.0, 0.0, 0.0, 1.651835994088741E9, 0.0, 2022-05-06 12:19:54.088
100.0, -241.44046133942902, -105.50070780003443, -127.6334357378073, -154.218514572829, 0.1600000075995922, 0.11200000531971455, 1.008000047877431, 0.0, 0.0, 0.0, 0.0, 0.0, 1.651835994088741E9, 0.0, 2022-05-06 12:19:54.088
0.0, -210.96214665053412, -61.75509801832959, -88.42245465237647, -130.63096555229276, 0.1600000075995922, 0.11200000531971455, 1.008000047877431, 0.0, 0.0, 0.0, 0.0, 0.0, 1.6518359940896308E9, 0.0, 2022-05-06 12:19:54.089
1.0, -239.3592070140876, -147.85507479822263, -176.58685620781034, -176.11188891343772, 0.1600000075995922, 0.11200000531971455, 1.008000047877431, 0.0, 0.0, 0.0, 0.0, 0.0, 1.651835994118672E9, 0.0, 2022-05-06 12:19:54.118
1.0, -265.8526583001949, -183.34672537771985, -208.7986145261675, -194.11202740017325, 0.1600000075995922, 0.11200000531971455, 1.008000047877431, 0.0, 0.0, 0.0, 0.0, 0.0, 1.651835994118672E9, 0.0, 2022-05-06 12:19:54.118
2.0, -250.3208537842147, -117.00464006373659, -143.6944360975176, -169.79145798832178, 0.1600000075995922, 0.11200000531971455, 1.008000047877431, 0.0, 0.0, 0.0, 0.0, 0.0, 1.6518359941326616E9, 0.0, 2022-05-06 12:19:54.132
2.0, -221.72931862296537, -81.50924958428368, -110.34200829267502, -160.15747570246458, 0.1600000075995922, 0.11200000531971455, 1.008000047877431, 0.0, 0.0, 0.0, 0.0, 0.0, 1.6518359941326616E9, 0.0, 2022-05-06 12:19:54.132
3.0, -234.40009967284277, -147.41002670349553, -171.8932817634195, -175.36016902234405, 0.1600000075995922, 0.11200000531971455, 1.008000047877431, 0.0, 0.0, 0.0, 0.0, 0.0, 1.651835994133674E9, 0.0, 2022-05-06 12:19:54.133
3.0, -276.05510537931696, -203.62072303751484, -220.41100388858467, -200.3913194257766, 0.1600000075995922, 0.11200000531971455, 1.008000047877431, 0.0, 0.0, 0.0, 0.0, 0.0, 1.651835994133674E9, 0.0, 2022-05-06 12:19:54.133
4.0, -236.92453214293346, -99.101738975849, -126.6143129998818, -157.9284953288734, 0.1600000075995922, 0.11200000531971455, 1.008000047877431, 0.0, 0.0, 0.0, 0.0, 0.0, 1.6518359941346233E9, 0.0, 2022-05-06 12:19:54.134
4.0, -188.82567881280556, -51.073943744879216, -84.61149659752846, -128.96297017205507, 0.1600000075995922, 0.11200000531971455, 1.008000047877431, 0.0, 0.0, 0.0, 0.0, 0.0, 1.6518359941346233E9, 0.0, 2022-05-06 12:19:54.134
5.0, -227.9749515489675, -143.7187454472296, -163.67672156076878, -160.23601360153407, 0.1600000075995922, 0.11200000531971455, 1.008000047877431, 0.0, 0.0, 0.0, 0.0, 0.0, 1.6518359941467724E9, 0.0, 2022-05-06 12:19:54.146
5.0, -275.2884258884005, -186.8435318362899, -206.30784115567803, -186.80800278671086, 0.1600000075995922, 0.11200000531971455, 1.008000047877431, 0.0, 0.0, 0.0, 0.0, 0.0, 1.6518359941467724E9, 0.0, 2022-05-06 12:19:54.146
6.0, -246.7305498267524, -103.32408602582291, -129.11630607023835, -149.69323562644422, 0.1600000075995922, 0.11200000531971455, 1.008000047877431, 0.0, 0.0, 0.0, 0.0, 0.0, 1.651835994147599E9, 0.0, 2022-05-06 12:19:54.147
6.0, -223.3486953037791, -70.5326432143338, -106.81902253441513, -155.8117119539529, 0.1600000075995922, 0.11200000531971455, 1.008000047877431, 0.0, 0.0, 0.0, 0.0, 0.0, 1.651835994147599E9, 0.0, 2022-05-06 12:19:54.147
7.0, -235.26775646256283, -140.64828758360818, -162.16954187862575, -156.75042684283108, 0.1600000075995922, 0.11200000531971455, 1.008000047877431, 0.0, 0.0, 0.0, 0.0, 0.0, 1.6518359941617076E9, 0.0, 2022-05-06 12:19:54.161
7.0, -256.3308730130084, -171.48750261822715, -199.5722813354805, -176.8224699050188, 0.1600000075995922, 0.11200000531971455, 1.008000047877431, 0.0, 0.0, 0.0, 0.0, 0.0, 1.6518359941617076E9, 0.0, 2022-05-06 12:19:54.161
8.0, -245.27572874398902, -115.54981898097321, -138.9597227536142, -172.21865305956453, 0.1600000075995922, 0.11200000531971455, 1.008000047877431, 0.0, 0.0, 0.0, 0.0, 0.0, 1.6518359941927376E9, 0.0, 2022-05-06 12:19:54.192
8.0, -221.7554979226552, -76.4603846441023, -114.31752194557339, -157.72654073126614, 0.1600000075995922, 0.11200000531971455, 1.008000047877431, 0.0, 0.0, 0.0, 0.0, 0.0, 1.6518359941927376E9, 0.0, 2022-05-06 12:19:54.192
9.0, -240.90378569578752, -140.8652017810382, -172.83199665229768, -167.55499781481922, 0.1600000075995922, 0.11200000531971455, 1.008000047877431, 0.0, 0.0, 0.0, 0.0, 0.0, 1.6518359941937256E9, 0.0, 2022-05-06 12:19:54.193
9.0, -267.31495918286964, -188.8069793130271, -211.26694849692285, -186.3891339916736, 0.1600000075995922, 0.11200000531971455, 1.008000047877431, 0.0, 0.0, 0.0, 0.0, 0.0, 1.6518359941937256E9, 0.0, 2022-05-06 12:19:54.193
10.0, -251.29322777269408, -118.05181205132976, -142.6958828093484, -168.60590970236808, 0.1600000075995922, 0.11200000531971455, 1.0240000486373901, 0.0, 0.0, 0.0, 0.0, 0.0, 1.651835994194693E9, 0.0, 2022-05-06 12:19:54.194
10.0, -219.51903774915263, -66.3439552639611, -100.31907641142607, -147.31839915458113, 0.1600000075995922, 0.11200000531971455, 1.0240000486373901, 0.0, 0.0, 0.0, 0.0, 0.0, 1.651835994194693E9, 0.0, 2022-05-06 12:19:54.194
11.0, -233.70821818104014, -136.77375122951344, -167.24458611849695, -166.80701782368124, 0.1600000075995922, 0.11200000531971455, 1.0240000486373901, 0.0, 0.0, 0.0, 0.0, 0.0, 1.65183599420674E9, 0.0, 2022-05-06 12:19:54.206
11.0, -258.2083027907647, -180.65025750966743, -204.5089492769912, -185.51399740204215, 0.1600000075995922, 0.11200000531971455, 1.0240000486373901, 0.0, 0.0, 0.0, 0.0, 0.0, 1.65183599420674E9, 0.0, 2022-05-06 12:19:54.206
12.0, -237.7286106334068, -103.60083862254396, -128.04295478295535, -152.00823369901627, 0.1600000075995922, 0.11200000531971455, 1.0240000486373901, 0.0, 0.0, 0.0, 0.0, 0.0, 1.6518359942076755E9, 0.0, 2022-05-06 12:19:54.207
12.0, -221.29549022810534, -74.19774517090991, -110.0502960961312, -154.20729487296194, 0.1600000075995922, 0.11200000531971455, 1.0240000486373901, 0.0, 0.0, 0.0, 0.0, 0.0, 1.6518359942076755E9, 0.0, 2022-05-06 12:19:54.207
13.0, -241.49842978874221, -152.63092704163864, -181.09343565441668, -175.10959572531283, 0.1600000075995922, 0.11200000531971455, 1.0240000486373901, 0.0, 0.0, 0.0, 0.0, 0.0, 1.6518359942216787E9, 0.0, 2022-05-06 12:19:54.221
13.0, -266.9260095874779, -199.2226006896235, -220.83361258357763, -203.82454758509994, 0.1600000075995922, 0.11200000531971455, 1.0240000486373901, 0.0, 0.0, 0.0, 0.0, 0.0, 1.6518359942216787E9, 0.0, 2022-05-06 12:19:54.221
14.0, -228.08340864768252, -106.39454388944432, -125.49608291313052, -150.90496321208775, 0.1600000075995922, 0.11200000531971455, 1.0240000486373901, 0.0, 0.0, 0.0, 0.0, 0.0, 1.6518359942527227E9, 0.0, 2022-05-06 12:19:54.252
14.0, -216.81135018123314, -66.30281636444852, -93.28058469481766, -137.31790667306632, 0.1600000075995922, 0.11200000531971455, 1.0240000486373901, 0.0, 0.0, 0.0, 0.0, 0.0, 1.6518359942527227E9, 0.0, 2022-05-06 12:19:54.252
15.0, -227.29428975703195, -133.5686569674872, -156.38765654712915, -156.60831064451486, 0.1600000075995922, 0.11200000531971455, 1.0240000486373901, 0.0, 0.0, 0.0, 0.0, 0.0, 1.6518359942536187E9, 0.0, 2022-05-06 12:19:54.253
15.0, -259.6668637734838, -178.544693834614, -197.41061916109174, -179.35064227506518, 0.1600000075995922, 0.11200000531971455, 1.0240000486373901, 0.0, 0.0, 0.0, 0.0, 0.0, 1.6518359942536187E9, 0.0, 2022-05-06 12:19:54.253
16.0, -230.8284952151589, -106.8844707836397, -130.42153115477413, -148.23093474376947, 0.1600000075995922, 0.11200000531971455, 1.0240000486373901, 0.0, 0.0, 0.0, 0.0, 0.0, 1.6518359942546642E9, 0.0, 2022-05-06 12:19:54.254
16.0, -208.14600198389962, -58.04137736232951, -91.79584441240877, -133.1740975221619, 0.1600000075995922, 0.11200000531971455, 1.0240000486373901, 0.0, 0.0, 0.0, 0.0, 0.0, 1.6518359942546642E9, 0.0, 2022-05-06 12:19:54.254
17.0, -217.3461558748968, -123.10067699151114, -148.86671773623675, -137.14961117506027, 0.1600000075995922, 0.11200000531971455, 1.0240000486373901, 0.0, 0.0, 0.0, 0.0, 0.0, 1.6518359942667031E9, 0.0, 2022-05-06 12:19:54.266
17.0, -273.34741781139746, -192.11679077381268, -217.98380881734192, -189.47829135507345, 0.1600000075995922, 0.11200000531971455, 1.0240000486373901, 0.0, 0.0, 0.0, 0.0, 0.0, 1.6518359942667031E9, 0.0, 2022-05-06 12:19:54.266
18.0, -261.20022275531664, -134.62704865494743, -161.3729431880638, -200.54839522391558, 0.1600000075995922, 0.11200000531971455, 1.0240000486373901, 0.0, 0.0, 0.0, 0.0, 0.0, 1.6518359942676067E9, 0.0, 2022-05-06 12:19:54.267
18.0, -217.83234286913648, -75.40199295664206, -110.16623299475759, -159.31973811239004, 0.1600000075995922, 0.11200000531971455, 1.0240000486373901, 0.0, 0.0, 0.0, 0.0, 0.0, 1.6518359942676067E9, 0.0, 2022-05-06 12:19:54.267
19.0, -241.15435899281874, -145.5737358252518, -170.90594817511737, -169.6381220901385, 0.1600000075995922, 0.11200000531971455, 1.0240000486373901, 0.0, 0.0, 0.0, 0.0, 0.0, 1.6518359942816892E9, 0.0, 2022-05-06 12:19:54.281
19.0, -258.9188837823458, -176.15489776292816, -201.6479258108884, -181.70677924714983, 0.1600000075995922, 0.11200000531971455, 1.0240000486373901, 0.0, 0.0, 0.0, 0.0, 0.0, 1.6518359942816892E9, 0.0, 2022-05-06 12:19:54.281
20.0, -247.0596610228531, -112.13903022138402, -140.8483722312376, -157.7377604311332, 0.1600000075995922, 0.11200000531971455, 1.0240000486373901, 0.0, 0.0, 0.0, 0.0, 0.0, 1.6518359943286726E9, 0.0, 2022-05-06 12:19:54.328
20.0, -227.30550945689902, -77.29438233422115, -107.77269702311605, -152.28872619569302, 0.1600000075995922, 0.11200000531971455, 1.0240000486373901, 0.0, 0.0, 0.0, 0.0, 0.0, 1.6518359943286726E9, 0.0, 2022-05-06 12:19:54.328
21.0, -224.0106575959362, -127.6708347373642, -158.68395511992276, -156.67936874367297, 0.1600000075995922, 0.11200000531971455, 1.0240000486373901, 0.0, 0.0, 0.0, 0.0, 0.0, 1.6518359943296273E9, 0.0, 2022-05-06 12:19:54.329
21.0, -253.320253548678, -179.22909552650526, -203.17754489276558, -183.47201202623546, 0.1600000075995922, 0.11200000531971455, 1.0240000486373901, 0.0, 0.0, 0.0, 0.0, 0.0, 1.6518359943296273E9, 0.0, 2022-05-06 12:19:54.329
22.0, -249.10538629861549, -119.68240843201056, -143.16711020376533, -168.90136179886758, 0.1600000075995922, 0.11200000531971455, 1.0240000486373901, 0.0, 0.0, 0.0, 0.0, 0.0, 1.6518359943306E9, 0.0, 2022-05-06 12:19:54.330
22.0, -215.96613279124722, -67.9034935454838, -93.74059238936752, -144.49103478807956, 0.1600000075995922, 0.11200000531971455, 1.0240000486373901, 0.0, 0.0, 0.0, 0.0, 0.0, 1.6518359943306E9, 0.0, 2022-05-06 12:19:54.330
23.0, -233.19211198715493, -134.95241995109245, -164.27510555367917, -169.1556749958545, 0.1600000075995922, 0.11200000531971455, 1.0240000486373901, 0.0, 0.0, 0.0, 0.0, 0.0, 1.6518359943316798E9, 0.0, 2022-05-06 12:19:54.331
23.0, -252.25812196126208, -177.48630214715376, -206.60329325217754, -182.3463021395728, 0.1600000075995922, 0.11200000531971455, 1.0240000486373901, 0.0, 0.0, 0.0, 0.0, 0.0, 1.6518359943316798E9, 0.0, 2022-05-06 12:19:54.331
24.0, -246.1359057337977, -116.12202367419377, -133.48450921848416, -158.38102322351187, 0.1600000075995922, 0.11200000531971455, 1.0240000486373901, 0.0, 0.0, 0.0, 0.0, 0.0, 1.6518359943427472E9, 0.0, 2022-05-06 12:19:54.342
24.0, -219.47789884964004, -72.65316648920998, -101.09323570225388, -145.68780277390033, 0.1600000075995922, 0.11200000531971455, 1.0240000486373901, 0.0, 0.0, 0.0, 0.0, 0.0, 1.6518359943427472E9, 0.0, 2022-05-06 12:19:54.342
25.0, -226.99883766053244, -133.47889936855063, -156.8925430411473, -163.08581736776978, 0.1600000075995922, 0.11200000531971455, 1.0240000486373901, 0.0, 0.0, 0.0, 0.0, 0.0, 1.6518359943436725E9, 0.0, 2022-05-06 12:19:54.343
25.0, -255.3659788244404, -180.72131560882553, -203.73852988611907, -184.55658301338553, 0.1600000075995922, 0.11200000531971455, 1.0240000486373901, 0.0, 0.0, 0.0, 0.0, 0.0, 1.6518359943436725E9, 0.0, 2022-05-06 12:19:54.343
26.0, -246.5398149290122, -117.70026145549491, -139.15793745126575, -164.61169654969126, 0.1600000075995922, 0.11200000531971455, 1.0240000486373901, 0.0, 0.0, 0.0, 0.0, 0.0, 1.651835994388739E9, 0.0, 2022-05-06 12:19:54.388
26.0, -208.87154257530347, -60.30401683552191, -96.50063855666667, -143.0362137053162, 0.1600000075995922, 0.11200000531971455, 1.0240000486373901, 0.0, 0.0, 0.0, 0.0, 0.0, 1.651835994388739E9, 0.0, 2022-05-06 12:19:54.388
27.0, -229.50457063084468, -132.83563657617196, -163.22045376617461, -169.6343821901828, 0.1600000075995922, 0.11200000531971455, 1.0240000486373901, 0.0, 0.0, 0.0, 0.0, 0.0, 1.651835994389634E9, 0.0, 2022-05-06 12:19:54.389
27.0, -268.83709846483544, -189.60357800358906, -213.53706777002662, -197.9491647547111, 0.1600000075995922, 0.11200000531971455, 1.0240000486373901, 0.0, 0.0, 0.0, 0.0, 0.0, 1.651835994389634E9, 0.0, 2022-05-06 12:19:54.389
28.0, -242.2838087794371, -122.96978049306199, -143.89639069512486, -170.23650608304888, 0.1600000075995922, 0.11200000531971455, 1.0240000486373901, 0.0, 0.0, 0.0, 0.0, 0.0, 1.651835994390666E9, 0.0, 2022-05-06 12:19:54.390
28.0, -220.27823744015768, -69.73978442372754, -101.74397829454392, -145.4783683763817, 0.1600000075995922, 0.11200000531971455, 1.0240000486373901, 0.0, 0.0, 0.0, 0.0, 0.0, 1.651835994390666E9, 0.0, 2022-05-06 12:19:54.390
29.0, -234.97604426601902, -138.05653691431507, -161.08497089147568, -160.91667539346963, 0.1600000075995922, 0.11200000531971455, 1.0240000486373901, 0.0, 0.0, 0.0, 0.0, 0.0, 1.6518359943916616E9, 0.0, 2022-05-06 12:19:54.391
29.0, -242.05193498218432, -164.73698319820687, -172.8993148515001, -140.49308173544705, 0.1600000075995922, 0.11200000531971455, 1.0240000486373901, 0.0, 0.0, 0.0, 0.0, 0.0, 1.6518359943916616E9, 0.0, 2022-05-06 12:19:54.391
30.0, -244.32579415524378, -120.02647922793403, -147.59889165125787, -176.2315657120198, 0.1600000075995922, 0.11200000531971455, 1.0240000486373901, 0.0, 0.0, 0.0, 0.0, 0.0, 1.651835994401718E9, 0.0, 2022-05-06 12:19:54.401
30.0, -218.2699111639522, -69.30221612891182, -104.30206986423582, -162.49865307472646, 0.1600000075995922, 0.11200000531971455, 1.0240000486373901, 0.0, 0.0, 0.0, 0.0, 0.0, 1.651835994401718E9, 0.0, 2022-05-06 12:19:54.401
31.0, -224.09667529491708, -132.12505558459088, -158.64281622041017, -159.32721791230142, 0.1600000075995922, 0.11200000531971455, 1.0240000486373901, 0.0, 0.0, 0.0, 0.0, 0.0, 1.6518359944025989E9, 0.0, 2022-05-06 12:19:54.402
31.0, -266.5594993918203, -194.0390993510373, -219.8088799957186, -203.32714089099318, 0.1600000075995922, 0.11200000531971455, 1.0240000486373901, 0.0, 0.0, 0.0, 0.0, 0.0, 1.6518359944025989E9, 0.0, 2022-05-06 12:19:54.402
32.0, -235.11816046433523, -126.44040765194222, -145.1043783808127, -171.1191224725917, 0.1600000075995922, 0.11200000531971455, 1.0240000486373901, 0.0, 0.0, 0.0, 0.0, 0.0, 1.651835994432716E9, 0.0, 2022-05-06 12:19:54.432
32.0, -210.72279305336997, -79.33262781007215, -104.82191595807672, -148.34687164239585, 0.1600000075995922, 0.11200000531971455, 1.0240000486373901, 0.0, 0.0, 0.0, 0.0, 0.0, 1.651835994432716E9, 0.0, 2022-05-06 12:19:54.432
33.0, -227.76551715144888, -119.18126183794811, -151.0358597105369, -152.5579989925027, 0.1600000075995922, 0.11200000531971455, 1.0240000486373901, 0.0, 0.0, 0.0, 0.0, 0.0, 1.6518359944336188E9, 0.0, 2022-05-06 12:19:54.433
33.0, -267.79366637719795, -185.93473614705727, -209.05666762311012, -188.4273794675246, 0.1600000075995922, 0.11200000531971455, 1.0240000486373901, 0.0, 0.0, 0.0, 0.0, 0.0, 1.6518359944336188E9, 0.0, 2022-05-06 12:19:54.433
34.0, -258.15968409134075, -129.42858771653846, -148.63858383893967, -172.05035756155849, 0.1600000075995922, 0.11200000531971455, 1.0240000486373901, 0.0, 0.0, 0.0, 0.0, 0.0, 1.6518359944346344E9, 0.0, 2022-05-06 12:19:54.434
34.0, -216.33638288686052, -63.52407069737092, -93.87522878777236, -140.94560963008553, 0.1600000075995922, 0.11200000531971455, 1.0240000486373901, 0.0, 0.0, 0.0, 0.0, 0.0, 1.6518359944346344E9, 0.0, 2022-05-06 12:19:54.434
35.0, -222.7129123113118, -119.24858003715053, -154.16241607349366, -158.54183892160654, 0.1600000075995922, 0.11200000531971455, 1.0240000486373901, 0.0, 0.0, 0.0, 0.0, 0.0, 1.651835994446761E9, 0.0, 2022-05-06 12:19:54.446
35.0, -255.11914542736486, -176.98515555309132, -199.54610203579068, -182.44727943837643, 0.1600000075995922, 0.11200000531971455, 1.0240000486373901, 0.0, 0.0, 0.0, 0.0, 0.0, 1.651835994446761E9, 0.0, 2022-05-06 12:19:54.446
36.0, -237.40697923721746, -118.39962274720892, -130.5486877532676, -158.01825292780995, 0.1600000075995922, 0.11200000531971455, 1.0240000486373901, 0.0, 0.0, 0.0, 0.0, 0.0, 1.651835994447726E9, 0.0, 2022-05-06 12:19:54.447
36.0, -203.88625593436882, -66.24297796515748, -98.89043462835252, -134.51672160625458, 0.1600000075995922, 0.11200000531971455, 1.0240000486373901, 0.0, 0.0, 0.0, 0.0, 0.0, 1.651835994447726E9, 0.0, 2022-05-06 12:19:54.447
37.0, -219.02537095500156, -121.75057310750708, -154.91787586454302, -158.80737181846052, 0.1600000075995922, 0.11200000531971455, 1.0240000486373901, 0.0, 0.0, 0.0, 0.0, 0.0, 1.651835994461912E9, 0.0, 2022-05-06 12:19:54.461
37.0, -262.56902613909915, -179.72650222061202, -211.04255449958146, -197.81078845635056, 0.1600000075995922, 0.11200000531971455, 1.0240000486373901, 0.0, 0.0, 0.0, 0.0, 0.0, 1.651835994461912E9, 0.0, 2022-05-06 12:19:54.461
38.0, -242.2838087794371, -126.64236224954948, -146.45074236486107, -170.14674848411232, 0.1600000075995922, 0.11200000531971455, 1.0240000486373901, 0.0, 0.0, 0.0, 0.0, 0.0, 1.6518359944927535E9, 0.0, 2022-05-06 12:19:54.492
38.0, -214.5599304079078, -64.73953818297014, -95.1542745726183, -137.5460405703634, 0.1600000075995922, 0.11200000531971455, 1.0240000486373901, 0.0, 0.0, 0.0, 0.0, 0.0, 1.6518359944927535E9, 0.0, 2022-05-06 12:19:54.492
39.0, -216.87492848047987, -113.39563660649583, -141.06154652871192, -139.0681798523292, 0.1600000075995922, 0.11200000531971455, 1.0240000486373901, 0.0, 0.0, 0.0, 0.0, 0.0, 1.6518359944936163E9, 0.0, 2022-05-06 12:19:54.493
39.0, -251.16233127424493, -172.07092701131478, -194.84504779148847, -169.47730639204383, 0.1600000075995922, 0.11200000531971455, 1.0240000486373901, 0.0, 0.0, 0.0, 0.0, 0.0, 1.6518359944936163E9, 0.0, 2022-05-06 12:19:54.493
40.0, -253.49228894663975, -132.54392437962815, -155.26568656042218, -189.5343898544088, 0.1600000075995922, 0.11200000531971455, 1.008000047877431, 0.0, 0.0, 0.0, 0.0, 0.0, 1.6518359944946387E9, 0.0, 2022-05-06 12:19:54.494
40.0, -213.26218512328342, -77.83666782779619, -109.36589440423995, -157.9247554289177, 0.1600000075995922, 0.11200000531971455, 1.008000047877431, 0.0, 0.0, 0.0, 0.0, 0.0, 1.6518359944946387E9, 0.0, 2022-05-06 12:19:54.494
41.0, -213.74089231761172, -129.62680241419002, -162.80158497113734, -163.27281236555427, 0.1600000075995922, 0.11200000531971455, 1.008000047877431, 0.0, 0.0, 0.0, 0.0, 0.0, 1.6518359945077648E9, 0.0, 2022-05-06 12:19:54.507
41.0, -255.99802191695198, -181.439376400318, -202.1341128051281, -184.59772191289812, 0.1600000075995922, 0.11200000531971455, 1.008000047877431, 0.0, 0.0, 0.0, 0.0, 0.0, 1.6518359945077648E9, 0.0, 2022-05-06 12:19:54.507
42.0, -245.7993147377856, -117.56562505709007, -137.37774507235736, -154.01655997522175, 0.1600000075995922, 0.11200000531971455, 1.008000047877431, 0.0, 0.0, 0.0, 0.0, 0.0, 1.6518359945216827E9, 0.0, 2022-05-06 12:19:54.521
42.0, -212.83583652833477, -65.19206607760862, -94.26043848320842, -140.42576353624463, 0.1600000075995922, 0.11200000531971455, 1.008000047877431, 0.0, 0.0, 0.0, 0.0, 0.0, 1.6518359945216827E9, 0.0, 2022-05-06 12:19:54.521
43.0, -219.07772955438122, -128.1532818316482, -156.58213134482503, -159.73112710751593, 0.1600000075995922, 0.11200000531971455, 1.008000047877431, 0.0, 0.0, 0.0, 0.0, 0.0, 1.6518359945226374E9, 0.0, 2022-05-06 12:19:54.522
43.0, -256.64502460928634, -173.18167729815468, -201.1729585165158, -178.06037679035217, 0.1600000075995922, 0.11200000531971455, 1.008000047877431, 0.0, 0.0, 0.0, 0.0, 0.0, 1.6518359945226374E9, 0.0, 2022-05-06 12:19:54.522
44.0, -243.52545556472614, -130.94698709854856, -144.30029989033937, -164.51445915084332, 0.1600000075995922, 0.11200000531971455, 1.008000047877431, 0.0, 0.0, 0.0, 0.0, 0.0, 1.6518359945368605E9, 0.0, 2022-05-06 12:19:54.536
44.0, -207.17362799542025, -67.56316264951602, -95.40110796969384, -140.5080413352698, 0.1600000075995922, 0.11200000531971455, 1.008000047877431, 0.0, 0.0, 0.0, 0.0, 0.0, 1.6518359945368605E9, 0.0, 2022-05-06 12:19:54.536
45.0, -210.49839905602857, -111.00210063485429, -142.4378297124058, -145.0669793812558, 0.1600000075995922, 0.11200000531971455, 1.008000047877431, 0.0, 0.0, 0.0, 0.0, 0.0, 1.6518359945516987E9, 0.0, 2022-05-06 12:19:54.551
45.0, -246.49119622958824, -172.7328893034719, -194.02600970119238, -160.75211979541928, 0.1600000075995922, 0.11200000531971455, 1.008000047877431, 0.0, 0.0, 0.0, 0.0, 0.0, 1.6518359945516987E9, 0.0, 2022-05-06 12:19:54.551
46.0, -237.70617123367265, -119.71980743156746, -141.56269312277436, -167.98882620967925, 0.1600000075995922, 0.11200000531971455, 1.008000047877431, 0.0, 0.0, 0.0, 0.0, 0.0, 1.651835994552623E9, 0.0, 2022-05-06 12:19:54.552
46.0, -201.36182346427813, -61.942093016114086, -97.20747964829206, -149.82039222493768, 0.1600000075995922, 0.11200000531971455, 1.008000047877431, 0.0, 0.0, 0.0, 0.0, 0.0, 1.651835994552623E9, 0.0, 2022-05-06 12:19:54.552
47.0, -229.6504267291166, -120.51640612212941, -151.79879930149764, -157.39742953516543, 0.1600000075995922, 0.11200000531971455, 1.008000047877431, 0.0, 0.0, 0.0, 0.0, 0.0, 1.651835994567864E9, 0.0, 2022-05-06 12:19:54.567
47.0, -266.0059941983782, -189.69333560252562, -208.44706393033266, -185.03903010766953, 0.1600000075995922, 0.11200000531971455, 1.008000047877431, 0.0, 0.0, 0.0, 0.0, 0.0, 1.651835994567864E9, 0.0, 2022-05-06 12:19:54.567
48.0, -267.2999995830469, -148.77883008727804, -168.32915710564703, -190.5030239429325, 0.1600000075995922, 0.11200000531971455, 1.008000047877431, 0.0, 0.0, 0.0, 0.0, 0.0, 1.6518359945817323E9, 0.0, 2022-05-06 12:19:54.581
48.0, -223.39731400320306, -82.64617917081341, -109.2723969053477, -158.5941975209862, 0.1600000075995922, 0.11200000531971455, 1.008000047877431, 0.0, 0.0, 0.0, 0.0, 0.0, 1.6518359945817323E9, 0.0, 2022-05-06 12:19:54.581
49.0, -217.9333201679401, -125.25859926594421, -151.372450706549, -159.71242760773748, 0.1600000075995922, 0.11200000531971455, 1.008000047877431, 0.0, 0.0, 0.0, 0.0, 0.0, 1.6518359945826418E9, 0.0, 2022-05-06 12:19:54.582
49.0, -238.15495922835544, -172.48231600644067, -186.4265329912305, -156.68684854358435, 0.1600000075995922, 0.11200000531971455, 1.008000047877431, 0.0, 0.0, 0.0, 0.0, 0.0, 1.6518359945826418E9, 0.0, 2022-05-06 12:19:54.582
50.0, -227.33916855650023, -119.58143113320693, -133.93703711312264, -143.38402440119535, 0.1600000075995922, 0.11200000531971455, 1.0240000486373901, 0.0, 0.0, 0.0, 0.0, 0.0, 1.6518359946117413E9, 0.0, 2022-05-06 12:19:54.611
50.0, -199.9331816812046, -61.134274625685066, -88.66554814949632, -140.9904884295538, 0.1600000075995922, 0.11200000531971455, 1.0240000486373901, 0.0, 0.0, 0.0, 0.0, 0.0, 1.6518359946117413E9, 0.0, 2022-05-06 12:19:54.611
51.0, -210.83499005204067, -110.14940344495699, -140.2537281382829, -144.28534029051661, 0.1600000075995922, 0.11200000531971455, 1.0240000486373901, 0.0, 0.0, 0.0, 0.0, 0.0, 1.6518359946286595E9, 0.0, 2022-05-06 12:19:54.628
51.0, -250.47792958235368, -180.31366651365533, -200.7578296214342, -188.34136176854372, 0.1600000075995922, 0.11200000531971455, 1.0240000486373901, 0.0, 0.0, 0.0, 0.0, 0.0, 1.6518359946286595E9, 0.0, 2022-05-06 12:19:54.628
52.0, -237.11152714071795, -129.79135801224038, -140.1751902392134, -167.84297011140734, 0.1600000075995922, 0.11200000531971455, 1.0240000486373901, 0.0, 0.0, 0.0, 0.0, 0.0, 1.6518359946296296E9, 0.0, 2022-05-06 12:19:54.629
52.0, -205.14660221943632, -62.749911406543106, -87.09853006806225, -131.22186974529177, 0.1600000075995922, 0.11200000531971455, 1.0240000486373901, 0.0, 0.0, 0.0, 0.0, 0.0, 1.6518359946296296E9, 0.0, 2022-05-06 12:19:54.629
53.0, -204.90350872231647, -109.49492095271125, -137.19448997452855, -141.15878392755985, 0.1600000075995922, 0.11200000531971455, 1.0240000486373901, 0.0, 0.0, 0.0, 0.0, 0.0, 1.651835994630597E9, 0.0, 2022-05-06 12:19:54.630
53.0, -251.1361519745551, -179.52828752296045, -200.15944562852383, -179.73959187045693, 0.1600000075995922, 0.11200000531971455, 1.0240000486373901, 0.0, 0.0, 0.0, 0.0, 0.0, 1.651835994630597E9, 0.0, 2022-05-06 12:19:54.630
54.0, -260.1119118682109, -140.70438608294353, -159.69372810795903, -190.07293544802815, 0.1600000075995922, 0.11200000531971455, 1.0240000486373901, 0.0, 0.0, 0.0, 0.0, 0.0, 1.651835994631599E9, 0.0, 2022-05-06 12:19:54.631
54.0, -203.58332403795794, -62.64519420778379, -96.36600215826184, -152.83475158922374, 0.1600000075995922, 0.11200000531971455, 1.0240000486373901, 0.0, 0.0, 0.0, 0.0, 0.0, 1.651835994631599E9, 0.0, 2022-05-06 12:19:54.631
55.0, -222.18184651760384, -122.64814909687266, -154.28957267198712, -171.44449376873672, 0.1600000075995922, 0.11200000531971455, 1.0240000486373901, 0.0, 0.0, 0.0, 0.0, 0.0, 1.6518359946416624E9, 0.0, 2022-05-06 12:19:54.641
55.0, -249.37091919546947, -175.55277387006208, -194.37008049711585, -180.7194456588477, 0.1600000075995922, 0.11200000531971455, 1.0240000486373901, 0.0, 0.0, 0.0, 0.0, 0.0, 1.6518359946416624E9, 0.0, 2022-05-06 12:19:54.641
56.0, -249.9842627882026, -137.92938031582162, -155.06747186277062, -174.58226983156055, 0.1600000075995922, 0.11200000531971455, 1.0240000486373901, 0.0, 0.0, 0.0, 0.0, 0.0, 1.6518359946726837E9, 0.0, 2022-05-06 12:19:54.672
56.0, -202.7792455474846, -61.71769901877269, -89.63792213797569, -138.35011906083673, 0.1600000075995922, 0.11200000531971455, 1.0240000486373901, 0.0, 0.0, 0.0, 0.0, 0.0, 1.6518359946726837E9, 0.0, 2022-05-06 12:19:54.672
57.0, -207.82811048766598, -106.14771049236879, -139.99941494129598, -145.86731797177345, 0.1600000075995922, 0.11200000531971455, 1.0240000486373901, 0.0, 0.0, 0.0, 0.0, 0.0, 1.651835994703692E9, 0.0, 2022-05-06 12:19:54.703
57.0, -241.15435899281874, -164.1385992052965, -188.00851067248732, -167.9663868099451, 0.1600000075995922, 0.11200000531971455, 1.0240000486373901, 0.0, 0.0, 0.0, 0.0, 0.0, 1.651835994703692E9, 0.0, 2022-05-06 12:19:54.703
58.0, -239.82295460859314, -120.5201460220851, -135.83316639065742, -156.98230064008385, 0.1600000075995922, 0.11200000531971455, 1.0240000486373901, 0.0, 0.0, 0.0, 0.0, 0.0, 1.6518359947046788E9, 0.0, 2022-05-06 12:19:54.704
58.0, -212.49924553232267, -71.24322420591488, -94.67930727824569, -145.02584048174322, 0.1600000075995922, 0.11200000531971455, 1.0240000486373901, 0.0, 0.0, 0.0, 0.0, 0.0, 1.6518359947046788E9, 0.0, 2022-05-06 12:19:54.704
59.0, -228.77529013948515, -129.15931491972879, -156.98604054003954, -163.0035395687446, 0.1600000075995922, 0.11200000531971455, 1.0240000486373901, 0.0, 0.0, 0.0, 0.0, 0.0, 1.6518359947057047E9, 0.0, 2022-05-06 12:19:54.705
59.0, -250.15629818616435, -185.13065765658394, -196.6140204705298, -168.40769500471652, 0.1600000075995922, 0.11200000531971455, 1.0240000486373901, 0.0, 0.0, 0.0, 0.0, 0.0, 1.6518359947057047E9, 0.0, 2022-05-06 12:19:54.705
60.0, -242.1753516807221, -134.44753345707431, -152.31490549538285, -168.74054610077292, 0.1600000075995922, 0.11200000531971455, 1.008000047877431, 0.0, 0.0, 0.0, 0.0, 0.0, 1.6518359947067027E9, 0.0, 2022-05-06 12:19:54.706
60.0, -200.86441677017137, -59.200746348593384, -86.75071937218308, -132.07456693518907, 0.1600000075995922, 0.11200000531971455, 1.008000047877431, 0.0, 0.0, 0.0, 0.0, 0.0, 1.6518359947067027E9, 0.0, 2022-05-06 12:19:54.706
61.0, -216.27654448756948, -120.53884552186355, -151.11439760960639, -146.66765656229109, 0.1600000075995922, 0.12800000607967377, 1.008000047877431, 0.0, 0.0, 0.0, 0.0, 0.0, 1.6518359947466633E9, 0.0, 2022-05-06 12:19:54.746
61.0, -231.0940281120129, -158.9476180667989, -184.04421671945602, -165.4494341397658, 0.1600000075995922, 0.12800000607967377, 1.008000047877431, 0.0, 0.0, 0.0, 0.0, 0.0, 1.6518359947466633E9, 0.0, 2022-05-06 12:19:54.746
62.0, -253.1743974504061, -147.95605209702626, -165.14276234339923, -191.91670612618327, 0.1600000075995922, 0.12800000607967377, 1.008000047877431, 0.0, 0.0, 0.0, 0.0, 0.0, 1.6518359947636628E9, 0.0, 2022-05-06 12:19:54.763
62.0, -214.09244291344658, -69.866941022221, -98.07139653805643, -153.78842607792467, 0.1600000075995922, 0.12800000607967377, 1.008000047877431, 0.0, 0.0, 0.0, 0.0, 0.0, 1.6518359947636628E9, 0.0, 2022-05-06 12:19:54.763
63.0, -225.18498618202284, -111.11803753348067, -140.83341263141483, -161.29066538903862, 0.1600000075995922, 0.12800000607967377, 1.008000047877431, 0.0, 0.0, 0.0, 0.0, 0.0, 1.6518359947646215E9, 0.0, 2022-05-06 12:19:54.764
63.0, -248.92587110074237, -176.22595586208627, -199.84155413229018, -178.90933408029377, 0.1600000075995922, 0.12800000607967377, 1.008000047877431, 0.0, 0.0, 0.0, 0.0, 0.0, 1.6518359947646215E9, 0.0, 2022-05-06 12:19:54.764
64.0, -251.52884146990255, -136.25390513567254, -157.3001921363175, -172.85069615207613, 0.1600000075995922, 0.12800000607967377, 1.008000047877431, 0.0, 0.0, 0.0, 0.0, 0.0, 1.6518359947656116E9, 0.0, 2022-05-06 12:19:54.765
64.0, -217.1928199767135, -63.643747495952994, -94.19686018396169, -147.01920715812594, 0.1600000075995922, 0.12800000607967377, 1.008000047877431, 0.0, 0.0, 0.0, 0.0, 0.0, 1.6518359947656116E9, 0.0, 2022-05-06 12:19:54.765
65.0, -214.57489000773057, -103.9935281178914, -141.63001132197678, -146.7761136610061, 0.1600000075995922, 0.12800000607967377, 1.008000047877431, 0.0, 0.0, 0.0, 0.0, 0.0, 1.651835994766631E9, 0.0, 2022-05-06 12:19:54.766
65.0, -251.05387417552993, -181.38327790098265, -205.3579065669328, -181.31782965175807, 0.1600000075995922, 0.12800000607967377, 1.008000047877431, 0.0, 0.0, 0.0, 0.0, 0.0, 1.651835994766631E9, 0.0, 2022-05-06 12:19:54.766
66.0, -255.8783451183699, -138.28841071156785, -156.23058074899018, -169.1182759962976, 0.1600000075995922, 0.12800000607967377, 1.008000047877431, 0.0, 0.0, 0.0, 0.0, 0.0, 1.651835994776706E9, 0.0, 2022-05-06 12:19:54.776
66.0, -213.9690262149088, -64.45156588638201, -96.14908796083182, -132.74026912730187, 0.1600000075995922, 0.12800000607967377, 1.008000047877431, 0.0, 0.0, 0.0, 0.0, 0.0, 1.651835994776706E9, 0.0, 2022-05-06 12:19:54.776
67.0, -215.33034979877993, -108.34303176635876, -142.20221601519734, -146.78359346091747, 0.1600000075995922, 0.12800000607967377, 1.008000047877431, 0.0, 0.0, 0.0, 0.0, 0.0, 1.6518359948086662E9, 0.0, 2022-05-06 12:19:54.808
67.0, -252.05616736365482, -178.64193123346195, -206.40133865457028, -193.2368908105418, 0.1600000075995922, 0.12800000607967377, 1.008000047877431, 0.0, 0.0, 0.0, 0.0, 0.0, 1.6518359948086662E9, 0.0, 2022-05-06 12:19:54.808
68.0, -250.44053058279678, -136.07438993779942, -158.4820005223155, -173.3368831463158, 0.1600000075995922, 0.12800000607967377, 1.008000047877431, 0.0, 0.0, 0.0, 0.0, 0.0, 1.6518359948096254E9, 0.0, 2022-05-06 12:19:54.809
68.0, -217.9333201679401, -75.75354355247691, -106.95365893281996, -152.4832009933889, 0.1600000075995922, 0.12800000607967377, 1.008000047877431, 0.0, 0.0, 0.0, 0.0, 0.0, 1.6518359948096254E9, 0.0, 2022-05-06 12:19:54.809
69.0, -221.32914932770655, -116.38007677113637, -147.20246225595474, -161.97880698088557, 0.1600000075995922, 0.12800000607967377, 1.008000047877431, 0.0, 0.0, 0.0, 0.0, 0.0, 1.65183599481072E9, 0.0, 2022-05-06 12:19:54.810
69.0, -259.700522873085, -185.4036703533493, -209.35211971960962, -177.33483619894832, 0.1600000075995922, 0.12800000607967377, 1.008000047877431, 0.0, 0.0, 0.0, 0.0, 0.0, 1.65183599481072E9, 0.0, 2022-05-06 12:19:54.810
70.0, -254.6628776327707, -147.5708424015902, -165.2998381415382, -164.94828754570335, 0.1600000075995922, 0.12800000607967377, 1.008000047877431, 0.0, 0.0, 0.0, 0.0, 0.0, 1.6518359948116004E9, 0.0, 2022-05-06 12:19:54.811
70.0, -218.5317041608505, -64.70961898332462, -95.50582516845316, -147.72230834979564, 0.1600000075995922, 0.12800000607967377, 1.008000047877431, 0.0, 0.0, 0.0, 0.0, 0.0, 1.6518359948116004E9, 0.0, 2022-05-06 12:19:54.811
71.0, -222.61193501250818, -110.77022683760151, -147.19498245604336, -158.24638682510704, 0.1600000075995922, 0.12800000607967377, 1.008000047877431, 0.0, 0.0, 0.0, 0.0, 0.0, 1.6518359948227603E9, 0.0, 2022-05-06 12:19:54.822
71.0, -254.6927968324162, -180.6577373095788, -208.7649554265663, -193.40892620850354, 0.1600000075995922, 0.12800000607967377, 1.008000047877431, 0.0, 0.0, 0.0, 0.0, 0.0, 1.6518359948227603E9, 0.0, 2022-05-06 12:19:54.822
72.0, -272.49472062150016, -152.40653304429725, -172.17377426009625, -189.59796815365553, 0.1600000075995922, 0.12800000607967377, 1.008000047877431, 0.0, 0.0, 0.0, 0.0, 0.0, 1.6518359948236165E9, 0.0, 2022-05-06 12:19:54.823
72.0, -227.92259294958785, -80.36110029788688, -106.32161584030837, -155.6247169561684, 0.1600000075995922, 0.12800000607967377, 1.008000047877431, 0.0, 0.0, 0.0, 0.0, 0.0, 1.6518359948236165E9, 0.0, 2022-05-06 12:19:54.823
73.0, -224.03309699567035, -114.73078089067712, -150.15698322094977, -166.14131563156843, 0.1600000075995922, 0.12800000607967377, 1.008000047877431, 0.0, 0.0, 0.0, 0.0, 0.0, 1.651835994824611E9, 0.0, 2022-05-06 12:19:54.824
73.0, -260.01093456940725, -180.56049991073087, -204.6548053752631, -187.75045757554471, 0.1600000075995922, 0.12800000607967377, 1.008000047877431, 0.0, 0.0, 0.0, 0.0, 0.0, 1.651835994824611E9, 0.0, 2022-05-06 12:19:54.824
74.0, -257.2583682020195, -137.70498631848022, -154.7047015670687, -175.99595201481134, 0.1600000075995922, 0.12800000607967377, 1.008000047877431, 0.0, 0.0, 0.0, 0.0, 0.0, 1.651835994836652E9, 0.0, 2022-05-06 12:19:54.836
74.0, -222.0546899191104, -69.85572132235393, -98.93905332777649, -143.07735260482877, 0.1600000075995922, 0.12800000607967377, 1.008000047877431, 0.0, 0.0, 0.0, 0.0, 0.0, 1.651835994836652E9, 0.0, 2022-05-06 12:19:54.836
75.0, -228.8276487388648, -114.89533648872748, -148.41792974155396, -164.3760828524828, 0.1600000075995922, 0.12800000607967377, 1.008000047877431, 0.0, 0.0, 0.0, 0.0, 0.0, 1.6518359948377855E9, 0.0, 2022-05-06 12:19:54.837
75.0, -263.8443320239894, -191.20799508458003, -217.57241982221603, -193.36404740903527, 0.1600000075995922, 0.12800000607967377, 1.008000047877431, 0.0, 0.0, 0.0, 0.0, 0.0, 1.6518359948377855E9, 0.0, 2022-05-06 12:19:54.837
76.0, -267.69642897835, -146.77424371102825, -168.05614440888166, -184.900653809309, 0.1600000075995922, 0.12800000607967377, 1.008000047877431, 0.0, 0.0, 0.0, 0.0, 0.0, 1.6518359948676624E9, 0.0, 2022-05-06 12:19:54.867
76.0, -211.76248524105176, -62.22258551279083, -91.79958431236446, -145.24649457912892, 0.1600000075995922, 0.12800000607967377, 1.008000047877431, 0.0, 0.0, 0.0, 0.0, 0.0, 1.6518359948676624E9, 0.0, 2022-05-06 12:19:54.867
77.0, -226.3106960686855, -114.03141959896311, -147.56897245161235, -157.09449763875455, 0.1600000075995922, 0.12800000607967377, 1.008000047877431, 0.0, 0.0, 0.0, 0.0, 0.0, 1.6518359948687491E9, 0.0, 2022-05-06 12:19:54.868
77.0, -263.4815617282875, -183.8441320718266, -208.9519504243508, -181.70303934719414, 0.1600000075995922, 0.12800000607967377, 1.008000047877431, 0.0, 0.0, 0.0, 0.0, 0.0, 1.6518359948687491E9, 0.0, 2022-05-06 12:19:54.868
78.0, -252.4750361586921, -132.98897247435525, -148.1411771448329, -166.56766422651708, 0.1600000075995922, 0.12800000607967377, 1.008000047877431, 0.0, 0.0, 0.0, 0.0, 0.0, 1.651835994869638E9, 0.0, 2022-05-06 12:19:54.869
78.0, -220.73076533479616, -73.0907347840257, -100.21809911262244, -142.0713195167482, 0.1600000075995922, 0.12800000607967377, 1.008000047877431, 0.0, 0.0, 0.0, 0.0, 0.0, 1.651835994869638E9, 0.0, 2022-05-06 12:19:54.869
79.0, -204.3387838290073, -93.61156584089622, -130.04380125924945, -136.61480548139662, 0.1600000075995922, 0.12800000607967377, 1.008000047877431, 0.0, 0.0, 0.0, 0.0, 0.0, 1.651835994881878E9, 0.0, 2022-05-06 12:19:54.881
79.0, -265.4786683046259, -183.91519017098472, -212.3963982835412, -192.44777191989124, 0.1600000075995922, 0.12800000607967377, 1.008000047877431, 0.0, 0.0, 0.0, 0.0, 0.0, 1.651835994881878E9, 0.0, 2022-05-06 12:19:54.881
80.0, -267.9507421753369, -149.42957267956808, -161.0026930924505, -180.5623698607087, 0.1600000075995922, 0.12800000607967377, 1.008000047877431, 0.0, 0.0, 0.0, 0.0, 0.0, 1.651835994896665E9, 0.0, 2022-05-06 12:19:54.896
80.0, -224.07797579513863, -78.68936501769349, -105.8653480457142, -153.05540568660945, 0.1600000075995922, 0.12800000607967377, 1.008000047877431, 0.0, 0.0, 0.0, 0.0, 0.0, 1.651835994896665E9, 0.0, 2022-05-06 12:19:54.896
81.0, -216.92354717990384, -100.19752966286615, -133.23393592145294, -145.50828757602721, 0.1600000075995922, 0.11200000531971455, 1.008000047877431, 0.0, 0.0, 0.0, 0.0, 0.0, 1.651835994897627E9, 0.0, 2022-05-06 12:19:54.897
81.0, -260.6205382621847, -175.5864329696633, -202.14907240495086, -175.65562111884356, 0.1600000075995922, 0.11200000531971455, 1.008000047877431, 0.0, 0.0, 0.0, 0.0, 0.0, 1.651835994897627E9, 0.0, 2022-05-06 12:19:54.897
82.0, -251.53258136985824, -142.82116945786402, -160.87179659400135, -166.20115403085947, 0.1600000075995922, 0.11200000531971455, 1.008000047877431, 0.0, 0.0, 0.0, 0.0, 0.0, 1.65183599492777E9, 0.0, 2022-05-06 12:19:54.927
82.0, -219.06276995455846, -62.97056550392881, -96.02567126229405, -145.74764117319137, 0.1600000075995922, 0.11200000531971455, 1.008000047877431, 0.0, 0.0, 0.0, 0.0, 0.0, 1.65183599492777E9, 0.0, 2022-05-06 12:19:54.927
83.0, -222.07712931884453, -104.19548271549866, -141.9965215176344, -152.43084239400923, 0.1600000075995922, 0.11200000531971455, 1.008000047877431, 0.0, 0.0, 0.0, 0.0, 0.0, 1.6518359949285996E9, 0.0, 2022-05-06 12:19:54.928
83.0, -272.038452826906, -190.38147719437256, -216.4317503357306, -201.30385501496494, 0.1600000075995922, 0.11200000531971455, 1.008000047877431, 0.0, 0.0, 0.0, 0.0, 0.0, 1.6518359949285996E9, 0.0, 2022-05-06 12:19:54.928
84.0, -264.19214271986857, -151.96522484952584, -164.035751956515, -178.98413207940757, 0.1600000075995922, 0.11200000531971455, 1.008000047877431, 0.0, 0.0, 0.0, 0.0, 0.0, 1.65183599492961E9, 0.0, 2022-05-06 12:19:54.929
84.0, -231.89436670253053, -82.14129267679527, -108.27758351713419, -149.34916483052075, 0.1600000075995922, 0.11200000531971455, 1.008000047877431, 0.0, 0.0, 0.0, 0.0, 0.0, 1.65183599492961E9, 0.0, 2022-05-06 12:19:54.929
85.0, -220.54377033701167, -107.37065777787939, -143.1409309040755, -157.01969963964075, 0.1600000075995922, 0.11200000531971455, 1.008000047877431, 0.0, 0.0, 0.0, 0.0, 0.0, 1.6518359949416852E9, 0.0, 2022-05-06 12:19:54.941
85.0, -251.53632126981393, -173.76136179128662, -199.00755644217134, -169.88121558725834, 0.1600000075995922, 0.11200000531971455, 1.008000047877431, 0.0, 0.0, 0.0, 0.0, 0.0, 1.6518359949416852E9, 0.0, 2022-05-06 12:19:54.941
86.0, -254.38238513609394, -143.40085395099595, -158.66151572018862, -169.7465791888535, 0.1600000075995922, 0.11200000531971455, 1.008000047877431, 0.0, 0.0, 0.0, 0.0, 0.0, 1.6518359949566712E9, 0.0, 2022-05-06 12:19:54.956
86.0, -226.4939511665143, -84.37027305038646, -113.29278935771435, -159.88072310574353, 0.1600000075995922, 0.11200000531971455, 1.008000047877431, 0.0, 0.0, 0.0, 0.0, 0.0, 1.6518359949566712E9, 0.0, 2022-05-06 12:19:54.956
87.0, -224.85213508596644, -98.86986517859623, -136.2146361861378, -157.0757981389761, 0.1600000075995922, 0.11200000531971455, 1.008000047877431, 0.0, 0.0, 0.0, 0.0, 0.0, 1.651835994957618E9, 0.0, 2022-05-06 12:19:54.957
87.0, -263.6947360257618, -185.78140024887398, -211.16223129816353, -183.32615592796355, 0.1600000075995922, 0.11200000531971455, 1.008000047877431, 0.0, 0.0, 0.0, 0.0, 0.0, 1.651835994957618E9, 0.0, 2022-05-06 12:19:54.957
88.0, -256.63754480937496, -150.25235066981986, -162.91752186976373, -175.80147721711546, 0.1600000075995922, 0.11200000531971455, 1.008000047877431, 0.0, 0.0, 0.0, 0.0, 0.0, 1.6518359950037146E9, 0.0, 2022-05-06 12:19:55.003
88.0, -215.15083460090682, -65.30052317632362, -94.89996137563139, -130.37665235530585, 0.1600000075995922, 0.11200000531971455, 1.008000047877431, 0.0, 0.0, 0.0, 0.0, 0.0, 1.6518359950037146E9, 0.0, 2022-05-06 12:19:55.003
89.0, -213.84934941632673, -98.92222377797589, -135.41429759562016, -145.52698707580566, 0.1600000075995922, 0.11200000531971455, 1.008000047877431, 0.0, 0.0, 0.0, 0.0, 0.0, 1.6518359950046835E9, 0.0, 2022-05-06 12:19:55.004
89.0, -258.3242396893911, -179.68162342114374, -206.85760644916445, -189.37357415631413, 0.1600000075995922, 0.11200000531971455, 1.008000047877431, 0.0, 0.0, 0.0, 0.0, 0.0, 1.6518359950046835E9, 0.0, 2022-05-06 12:19:55.004
90.0, -260.72151556098834, -144.53404363757, -162.95866076927632, -178.06785659026355, 0.1600000075995922, 0.11200000531971455, 1.0240000486373901, 0.0, 0.0, 0.0, 0.0, 0.0, 1.6518359950056736E9, 0.0, 2022-05-06 12:19:55.005
90.0, -217.12924167746678, -75.2748363581486, -98.56880323216319, -138.4735357593745, 0.1600000075995922, 0.11200000531971455, 1.0240000486373901, 0.0, 0.0, 0.0, 0.0, 0.0, 1.6518359950056736E9, 0.0, 2022-05-06 12:19:55.005
91.0, -215.43880689749494, -105.03696020552889, -139.1392379514873, -156.2941590482369, 0.1600000075995922, 0.12800000607967377, 1.0240000486373901, 0.0, 0.0, 0.0, 0.0, 0.0, 1.65183599500667E9, 0.0, 2022-05-06 12:19:55.006
91.0, -259.53596727503464, -177.75183504400775, -204.20227748062462, -184.77349721081555, 0.1600000075995922, 0.12800000607967377, 1.0240000486373901, 0.0, 0.0, 0.0, 0.0, 0.0, 1.65183599500667E9, 0.0, 2022-05-06 12:19:55.006
92.0, -259.3227929775603, -154.30266232183203, -168.13842220790684, -179.29828367568552, 0.1600000075995922, 0.12800000607967377, 1.0240000486373901, 0.0, 0.0, 0.0, 0.0, 0.0, 1.6518359950166676E9, 0.0, 2022-05-06 12:19:55.016
92.0, -218.82715625735, -62.84714880539104, -97.5665100440383, -143.68695629760623, 0.1600000075995922, 0.12800000607967377, 1.0240000486373901, 0.0, 0.0, 0.0, 0.0, 0.0, 1.6518359950166676E9, 0.0, 2022-05-06 12:19:55.016
93.0, -217.43217357387766, -103.13709102803841, -140.1751902392134, -167.31938411761075, 0.1600000075995922, 0.12800000607967377, 1.0240000486373901, 0.0, 0.0, 0.0, 0.0, 0.0, 1.6518359950176165E9, 0.0, 2022-05-06 12:19:55.017
93.0, -264.45393571676686, -181.05790660483763, -209.53163491748273, -186.1273409947753, 0.1600000075995922, 0.12800000607967377, 1.0240000486373901, 0.0, 0.0, 0.0, 0.0, 0.0, 1.6518359950176165E9, 0.0, 2022-05-06 12:19:55.017
94.0, -263.1038318327628, -162.63515942310914, -174.32795663457364, -179.61243527196348, 0.1600000075995922, 0.12800000607967377, 1.0240000486373901, 0.0, 0.0, 0.0, 0.0, 0.0, 1.651835995047688E9, 0.0, 2022-05-06 12:19:55.047
94.0, -218.1951131648384, -69.65750662470236, -94.47361278068274, -130.3168139560148, 0.1600000075995922, 0.12800000607967377, 1.0240000486373901, 0.0, 0.0, 0.0, 0.0, 0.0, 1.651835995047688E9, 0.0, 2022-05-06 12:19:55.047
95.0, -217.4920119731687, -96.98121570097283, -130.11111945845187, -134.97672930080444, 0.1600000075995922, 0.12800000607967377, 1.0240000486373901, 0.0, 0.0, 0.0, 0.0, 0.0, 1.6518359950787203E9, 0.0, 2022-05-06 12:19:55.078
95.0, -257.82309309532866, -180.6240782099776, -212.14582498650998, -189.80366265121847, 0.1600000075995922, 0.12800000607967377, 1.0240000486373901, 0.0, 0.0, 0.0, 0.0, 0.0, 1.6518359950787203E9, 0.0, 2022-05-06 12:19:55.078
96.0, -257.2434086021967, -146.69570581195876, -167.20344721898437, -190.65635984111577, 0.1600000075995922, 0.12800000607967377, 1.0240000486373901, 0.0, 0.0, 0.0, 0.0, 0.0, 1.651835995079638E9, 0.0, 2022-05-06 12:19:55.079
96.0, -229.2390377339907, -77.69455162947997, -104.80695635825396, -150.38885701820254, 0.1600000075995922, 0.12800000607967377, 1.0240000486373901, 0.0, 0.0, 0.0, 0.0, 0.0, 1.651835995079638E9, 0.0, 2022-05-06 12:19:55.079
97.0, -223.06820280710235, -102.55366663495079, -139.31127334944904, -159.98544030450284, 0.1600000075995922, 0.12800000607967377, 1.0240000486373901, 0.0, 0.0, 0.0, 0.0, 0.0, 1.6518359950806196E9, 0.0, 2022-05-06 12:19:55.080
97.0, -260.7065559611656, -178.54095393465832, -202.32858760282397, -184.6799997119233, 0.1600000075995922, 0.12800000607967377, 1.0240000486373901, 0.0, 0.0, 0.0, 0.0, 0.0, 1.6518359950806196E9, 0.0, 2022-05-06 12:19:55.080
98.0, -263.5077410279773, -157.82190818013623, -173.91656763944775, -181.87881464511156, 0.1600000075995922, 0.12800000607967377, 1.0240000486373901, 0.0, 0.0, 0.0, 0.0, 0.0, 1.6518359950816207E9, 0.0, 2022-05-06 12:19:55.081
98.0, -231.39696000842378, -81.06420148955658, -110.15127339493483, -161.68709478434175, 0.1600000075995922, 0.12800000607967377, 1.0240000486373901, 0.0, 0.0, 0.0, 0.0, 0.0, 1.6518359950816207E9, 0.0, 2022-05-06 12:19:55.081
99.0, -230.7536972160451, -99.12417837558314, -141.01666772924364, -160.99147339258343, 0.1600000075995922, 0.12800000607967377, 1.0240000486373901, 0.0, 0.0, 0.0, 0.0, 0.0, 1.65183599513877E9, 0.0, 2022-05-06 12:19:55.138
99.0, -267.1092646853067, -193.90820285258815, -215.70246984437108, -188.30396276898682, 0.1600000075995922, 0.12800000607967377, 1.0240000486373901, 0.0, 0.0, 0.0, 0.0, 0.0, 1.65183599513877E9, 0.0, 2022-05-06 12:19:55.138
100.0, -256.12891841540113, -155.74626370472834, -166.66116172540933, -175.39756802190095, 0.1600000075995922, 0.12800000607967377, 1.008000047877431, 0.0, 0.0, 0.0, 0.0, 0.0, 1.6518359951396325E9, 0.0, 2022-05-06 12:19:55.139
100.0, -225.02417048392817, -67.01713725598529, -100.4537128098309, -145.5494264755398, 0.1600000075995922, 0.12800000607967377, 1.008000047877431, 0.0, 0.0, 0.0, 0.0, 0.0, 1.6518359951396325E9, 0.0, 2022-05-06 12:19:55.139
0.0, -217.48266222327948, -86.84608682105318, -129.80631761206314, -151.32944185705855, 0.1600000075995922, 0.12800000607967377, 1.008000047877431, 0.0, 0.0, 0.0, 0.0, 0.0, 1.6518359951406145E9, 0.0, 2022-05-06 12:19:55.140
1.0, -264.2725505689159, -186.3648246419616, -204.30886462936178, -181.74604819668457, 0.1600000075995922, 0.12800000607967377, 1.008000047877431, 0.0, 0.0, 0.0, 0.0, 0.0, 1.65183599514171E9, 0.0, 2022-05-06 12:19:55.141
1.0, -257.07324315421283, -146.74806441133842, -163.62997281132266, -177.6545976451598, 0.1600000075995922, 0.12800000607967377, 1.008000047877431, 0.0, 0.0, 0.0, 0.0, 0.0, 1.65183599514171E9, 0.0, 2022-05-06 12:19:55.141
2.0, -223.7395148491487, -80.02450930187479, -105.55306639941409, -155.1291802120395, 0.1600000075995922, 0.12800000607967377, 1.008000047877431, 0.0, 0.0, 0.0, 0.0, 0.0, 1.6518359951677153E9, 0.0, 2022-05-06 12:19:55.167
2.0, -225.23547483142465, -107.30333957867697, -144.4592456384562, -163.0989070176147, 0.1600000075995922, 0.12800000607967377, 1.008000047877431, 0.0, 0.0, 0.0, 0.0, 0.0, 1.6518359951677153E9, 0.0, 2022-05-06 12:19:55.167
3.0, -260.0950823184103, -181.0691263047047, -203.4898265390657, -184.2143821674399, 0.1600000075995922, 0.12800000607967377, 1.008000047877431, 0.0, 0.0, 0.0, 0.0, 0.0, 1.651835995184693E9, 0.0, 2022-05-06 12:19:55.184
3.0, -251.98323931451887, -149.2799766813405, -163.89550570817664, -169.583893540781, 0.1600000075995922, 0.12800000607967377, 1.008000047877431, 0.0, 0.0, 0.0, 0.0, 0.0, 1.651835995184693E9, 0.0, 2022-05-06 12:19:55.184
4.0, -227.18770260829479, -75.62264705402777, -97.90497099002823, -138.84565580496565, 0.1600000075995922, 0.12800000607967377, 1.008000047877431, 0.0, 0.0, 0.0, 0.0, 0.0, 1.6518359951856277E9, 0.0, 2022-05-06 12:19:55.185
4.0, -209.25862222071737, -88.21863010479137, -129.1181760202162, -142.54067696118727, 0.1600000075995922, 0.12800000607967377, 1.008000047877431, 0.0, 0.0, 0.0, 0.0, 0.0, 1.6518359951856277E9, 0.0, 2022-05-06 12:19:55.185
6.0, -165.1539820432663, 5.065694489981979, -57.02412457438186, -119.69736803183332, 0.1600000075995922, 0.12800000607967377, 1.008000047877431, 0.0, 0.0, 0.0, 0.0, 0.0, 1.6518359951866112E9, 0.0, 2022-05-06 12:19:55.186
6.0, -174.89268152788281, -30.01830699434504, -96.64836460491642, -126.01031915703788, 0.1600000075995922, 0.12800000607967377, 1.008000047877431, 0.0, 0.0, 0.0, 0.0, 0.0, 1.6518359951866112E9, 0.0, 2022-05-06 12:19:55.186
7.0, -199.19081154000014, -112.93188901199028, -163.18492471659556, -152.0512425485067, 0.1600000075995922, 0.12800000607967377, 1.008000047877431, 0.0, 0.0, 0.0, 0.0, 0.0, 1.651835995187675E9, 0.0, 2022-05-06 12:19:55.187
7.0, -188.93226596154273, -62.08046931447461, -104.42735651275143, -114.16605599736795, 0.1600000075995922, 0.12800000607967377, 1.008000047877431, 0.0, 0.0, 0.0, 0.0, 0.0, 1.651835995187675E9, 0.0, 2022-05-06 12:19:55.187
8.0, -152.42336259409785, 19.12023852346465, -41.851350454147905, -84.43759124958888, 0.1600000075995922, 0.12800000607967377, 1.008000047877431, 0.0, 0.0, 0.0, 0.0, 0.0, 1.651835995197713E9, 0.0, 2022-05-06 12:19:55.197
8.0, -167.61109631415457, -20.081392812076956, -86.84234692109749, -114.28199289599434, 0.1600000075995922, 0.12800000607967377, 1.008000047877431, 0.0, 0.0, 0.0, 0.0, 0.0, 1.651835995197713E9, 0.0, 2022-05-06 12:19:55.197
9.0, -188.0159904723987, -89.3555596913211, -144.160053642001, -140.04242379078642, 0.1600000075995922, 0.12800000607967377, 1.008000047877431, 0.0, 0.0, 0.0, 0.0, 0.0, 1.651835995198743E9, 0.0, 2022-05-06 12:19:55.198
9.0, -194.22422439884394, -73.77887637587264, -114.65972279151902, -129.51086551556364, 0.1600000075995922, 0.12800000607967377, 1.008000047877431, 0.0, 0.0, 0.0, 0.0, 0.0, 1.651835995198743E9, 0.0, 2022-05-06 12:19:55.198
10.0, -159.3010386126116, -2.769395917188376, -62.46941890986636, -116.68300866754726, 0.1600000075995922, 0.12800000607967377, 1.008000047877431, 0.0, 0.0, 0.0, 0.0, 0.0, 1.651835995199611E9, 0.0, 2022-05-06 12:19:55.199
10.0, -163.83005745895207, -19.98041551327333, -89.56873398879543, -120.76323951920494, 0.1600000075995922, 0.12800000607967377, 1.008000047877431, 0.0, 0.0, 0.0, 0.0, 0.0, 1.651835995199611E9, 0.0, 2022-05-06 12:19:55.199
11.0, -207.18671764526516, -112.09041152196005, -166.37879927875474, -154.60185431828722, 0.1600000075995922, 0.12800000607967377, 1.008000047877431, 0.0, 0.0, 0.0, 0.0, 0.0, 1.6518359952117593E9, 0.0, 2022-05-06 12:19:55.211
11.0, -206.71175035089254, -82.14503257675096, -126.49276625132188, -139.1598074012436, 0.1600000075995922, 0.12800000607967377, 1.008000047877431, 0.0, 0.0, 0.0, 0.0, 0.0, 1.6518359952117593E9, 0.0, 2022-05-06 12:19:55.211
12.0, -164.7126738484949, 2.7506964174099267, -52.38290872937068, -110.19428224442527, 0.1600000075995922, 0.12800000607967377, 1.008000047877431, 0.0, 0.0, 0.0, 0.0, 0.0, 1.6518359952127228E9, 0.0, 2022-05-06 12:19:55.212
12.0, -159.19258151389658, -12.362239303532988, -82.21609067590907, -107.98774127056822, 0.1600000075995922, 0.12800000607967377, 1.008000047877431, 0.0, 0.0, 0.0, 0.0, 0.0, 1.6518359952127228E9, 0.0, 2022-05-06 12:19:55.212
13.0, -191.9017465263605, -99.85719876689836, -150.13267387123778, -135.51714484440163, 0.1600000075995922, 0.12800000607967377, 1.008000047877431, 0.0, 0.0, 0.0, 0.0, 0.0, 1.651835995242746E9, 0.0, 2022-05-06 12:19:55.242
13.0, -202.34354720264673, -76.98771053785458, -121.32422451255843, -133.54995746770874, 0.1600000075995922, 0.12800000607967377, 1.008000047877431, 0.0, 0.0, 0.0, 0.0, 0.0, 1.651835995242746E9, 0.0, 2022-05-06 12:19:55.242
14.0, -163.7440397599712, -3.5622547077946365, -61.123054925817996, -112.59903791593388, 0.1600000075995922, 0.12800000607967377, 1.008000047877431, 0.0, 0.0, 0.0, 0.0, 0.0, 1.6518359952436612E9, 0.0, 2022-05-06 12:19:55.243
14.0, -153.12646378576756, -19.845779114868492, -82.51528267236426, -109.09475165745243, 0.1600000075995922, 0.12800000607967377, 1.008000047877431, 0.0, 0.0, 0.0, 0.0, 0.0, 1.6518359952436612E9, 0.0, 2022-05-06 12:19:55.243
15.0, -190.6787992408499, -94.28848773287609, -146.21699861763045, -139.81428989348933, 0.1600000075995922, 0.12800000607967377, 1.008000047877431, 0.0, 0.0, 0.0, 0.0, 0.0, 1.6518359952445943E9, 0.0, 2022-05-06 12:19:55.244
15.0, -191.12010743562132, -81.49055008450523, -126.23471315437928, -137.6414080192335, 0.1600000075995922, 0.12800000607967377, 1.008000047877431, 0.0, 0.0, 0.0, 0.0, 0.0, 1.6518359952445943E9, 0.0, 2022-05-06 12:19:55.244
16.0, -170.83862997591496, -2.0775144253857434, -62.89576750481501, -115.98364737583324, 0.1600000075995922, 0.12800000607967377, 1.008000047877431, 0.0, 0.0, 0.0, 0.0, 0.0, 1.6518359952566898E9, 0.0, 2022-05-06 12:19:55.256
16.0, -165.50927253905684, -16.090919559355825, -84.17953815264627, -115.29176588403061, 0.1600000075995922, 0.12800000607967377, 1.008000047877431, 0.0, 0.0, 0.0, 0.0, 0.0, 1.6518359952566898E9, 0.0, 2022-05-06 12:19:55.256
17.0, -214.19903006218374, -120.9277951172553, -171.89889161335304, -161.43465153733268, 0.1600000075995922, 0.12800000607967377, 1.008000047877431, 0.0, 0.0, 0.0, 0.0, 0.0, 1.6518359952877257E9, 0.0, 2022-05-06 12:19:55.287
17.0, -208.14413203392178, -90.41395137878135, -128.76288552442566, -143.79728334629908, 0.1600000075995922, 0.12800000607967377, 1.008000047877431, 0.0, 0.0, 0.0, 0.0, 0.0, 1.6518359952877257E9, 0.0, 2022-05-06 12:19:55.287
18.0, -152.97686778753996, 12.347279703710228, -46.638422397430986, -103.01367432950065, 0.1600000075995922, 0.12800000607967377, 1.008000047877431, 0.0, 0.0, 0.0, 0.0, 0.0, 1.651835995303717E9, 0.0, 2022-05-06 12:19:55.303
18.0, -141.64123102184385, 1.931658327113837, -54.387495105620474, -83.40537886181846, 0.1600000075995922, 0.12800000607967377, 1.008000047877431, 0.0, 0.0, 0.0, 0.0, 0.0, 1.651835995303717E9, 0.0, 2022-05-06 12:19:55.303
19.0, -177.98557879123837, -86.47957662539557, -135.3825084459968, -109.62207755120471, 0.1600000075995922, 0.12800000607967377, 1.008000047877431, 0.0, 0.0, 0.0, 0.0, 0.0, 1.6518359953047209E9, 0.0, 2022-05-06 12:19:55.304
19.0, -195.70522478129715, -76.85307413944975, -119.01670623989776, -126.83683704724535, 0.1600000075995922, 0.12800000607967377, 1.008000047877431, 0.0, 0.0, 0.0, 0.0, 0.0, 1.6518359953047209E9, 0.0, 2022-05-06 12:19:55.304
20.0, -158.47452072240412, 11.240269316826016, -47.087210392113775, -105.45208910061046, 0.1600000075995922, 0.12800000607967377, 1.0240000486373901, 0.0, 0.0, 0.0, 0.0, 0.0, 1.65183599530566E9, 0.0, 2022-05-06 12:19:55.305
20.0, -149.07989203371108, -12.25378220481798, -79.2765293107368, -102.78554043220356, 0.1600000075995922, 0.12800000607967377, 1.0240000486373901, 0.0, 0.0, 0.0, 0.0, 0.0, 1.65183599530566E9, 0.0, 2022-05-06 12:19:55.305
21.0, -197.9117657551542, -110.77022683760151, -163.6486723111011, -166.37879927875474, 0.1600000075995922, 0.11200000531971455, 1.0240000486373901, 0.0, 0.0, 0.0, 0.0, 0.0, 1.6518359953067472E9, 0.0, 2022-05-06 12:19:55.306
21.0, -216.34573263674974, -105.72136189742014, -146.7218851116486, -170.36927253147587, 0.1600000075995922, 0.11200000531971455, 1.0240000486373901, 0.0, 0.0, 0.0, 0.0, 0.0, 1.6518359953067472E9, 0.0, 2022-05-06 12:19:55.306
22.0, -171.18644067179412, -4.21299730008468, -62.44323961017653, -116.7391071668826, 0.1600000075995922, 0.11200000531971455, 1.0240000486373901, 0.0, 0.0, 0.0, 0.0, 0.0, 1.651835995316796E9, 0.0, 2022-05-06 12:19:55.316
22.0, -154.90291626472026, -6.827187369111925, -69.50791062647477, -108.42904946533963, 0.1600000075995922, 0.11200000531971455, 1.0240000486373901, 0.0, 0.0, 0.0, 0.0, 0.0, 1.651835995316796E9, 0.0, 2022-05-06 12:19:55.316
23.0, -194.47853759583086, -107.79700637282804, -159.71803745767102, -144.6462406362407, 0.1600000075995922, 0.11200000531971455, 1.0240000486373901, 0.0, 0.0, 0.0, 0.0, 0.0, 1.6518359953316588E9, 0.0, 2022-05-06 12:19:55.331
23.0, -211.38662529550493, -106.23372819134966, -144.59762193681672, -158.19589817570522, 0.1600000075995922, 0.11200000531971455, 1.0240000486373901, 0.0, 0.0, 0.0, 0.0, 0.0, 1.6518359953316588E9, 0.0, 2022-05-06 12:19:55.331
24.0, -151.52952650468796, 8.528841848950833, -53.964886410627514, -112.39708331832662, 0.1600000075995922, 0.11200000531971455, 1.0240000486373901, 0.0, 0.0, 0.0, 0.0, 0.0, 1.6518359953325973E9, 0.0, 2022-05-06 12:19:55.332
24.0, -152.83849148917943, -9.695690635126084, -77.26446313457564, -105.63160429848358, 0.1600000075995922, 0.11200000531971455, 1.0240000486373901, 0.0, 0.0, 0.0, 0.0, 0.0, 1.6518359953325973E9, 0.0, 2022-05-06 12:19:55.332
25.0, -193.55478230677545, -105.05565970530733, -149.6090878774412, -132.61498247878626, 0.1600000075995922, 0.11200000531971455, 1.0240000486373901, 0.0, 0.0, 0.0, 0.0, 0.0, 1.6518359953627727E9, 0.0, 2022-05-06 12:19:55.362
25.0, -197.19370496366173, -81.89071937976405, -125.598930161912, -141.2354518766515, 0.1600000075995922, 0.11200000531971455, 1.0240000486373901, 0.0, 0.0, 0.0, 0.0, 0.0, 1.6518359953627727E9, 0.0, 2022-05-06 12:19:55.362
26.0, -158.76997281890363, 1.7895421287976205, -51.82940353592858, -109.55849925195798, 0.1600000075995922, 0.11200000531971455, 1.0240000486373901, 0.0, 0.0, 0.0, 0.0, 0.0, 1.6518359953636084E9, 0.0, 2022-05-06 12:19:55.363
26.0, -148.93029603548348, -6.307341275271028, -68.9394458332099, -111.28633303148672, 0.1600000075995922, 0.11200000531971455, 1.0240000486373901, 0.0, 0.0, 0.0, 0.0, 0.0, 1.6518359953636084E9, 0.0, 2022-05-06 12:19:55.363
27.0, -192.0588223244995, -104.76394750876352, -157.14872618811205, -146.81538261054084, 0.1600000075995922, 0.11200000531971455, 1.0240000486373901, 0.0, 0.0, 0.0, 0.0, 0.0, 1.651835995364628E9, 0.0, 2022-05-06 12:19:55.364
27.0, -218.63455140963197, -104.01970741758123, -146.57976891333237, -152.3878335445188, 0.1600000075995922, 0.11200000531971455, 1.0240000486373901, 0.0, 0.0, 0.0, 0.0, 0.0, 1.651835995364628E9, 0.0, 2022-05-06 12:19:55.364
28.0, -153.9268023762852, 9.718130034860224, -40.303031872492284, -86.1317659295164, 0.1600000075995922, 0.11200000531971455, 1.0240000486373901, 0.0, 0.0, 0.0, 0.0, 0.0, 1.6518359953768003E9, 0.0, 2022-05-06 12:19:55.376
28.0, -145.41852997709066, 4.788941893260926, -61.41102722240612, -88.71229689894244, 0.1600000075995922, 0.11200000531971455, 1.0240000486373901, 0.0, 0.0, 0.0, 0.0, 0.0, 1.6518359953768003E9, 0.0, 2022-05-06 12:19:55.376
29.0, -178.01923789083958, -90.86647927341983, -145.0501498314552, -137.3833549222909, 0.1600000075995922, 0.11200000531971455, 1.0240000486373901, 0.0, 0.0, 0.0, 0.0, 0.0, 1.651835995391678E9, 0.0, 2022-05-06 12:19:55.391
29.0, -195.88100007921457, -84.95743734342977, -128.27295863023028, -144.40314713912085, 0.1600000075995922, 0.11200000531971455, 1.0240000486373901, 0.0, 0.0, 0.0, 0.0, 0.0, 1.651835995391678E9, 0.0, 2022-05-06 12:19:55.391
30.0, -155.665855855681, -0.32724124612286687, -58.000238462816924, -103.41010372480378, 0.1600000075995922, 0.11200000531971455, 1.0240000486373901, 0.0, 0.0, 0.0, 0.0, 0.0, 1.651835995392614E9, 0.0, 2022-05-06 12:19:55.392
30.0, -163.58696396183223, -23.862431667279452, -87.38463241467252, -116.0734049747698, 0.1600000075995922, 0.11200000531971455, 1.0240000486373901, 0.0, 0.0, 0.0, 0.0, 0.0, 1.651835995392614E9, 0.0, 2022-05-06 12:19:55.392
31.0, -204.5014694770798, -115.82283167773858, -158.11362037668005, -138.42304710997269, 0.1600000075995922, 0.11200000531971455, 1.0240000486373901, 0.0, 0.0, 0.0, 0.0, 0.0, 1.651835995438743E9, 0.0, 2022-05-06 12:19:55.438
31.0, -195.06944178882986, -84.67320494679734, -128.0410848329775, -134.35777585813776, 0.1600000075995922, 0.11200000531971455, 1.0240000486373901, 0.0, 0.0, 0.0, 0.0, 0.0, 1.651835995438743E9, 0.0, 2022-05-06 12:19:55.438
32.0, -154.91413596458733, 8.431604450102895, -51.23101954301819, -111.16665623290464, 0.1600000075995922, 0.11200000531971455, 1.0240000486373901, 0.0, 0.0, 0.0, 0.0, 0.0, 1.651835995439726E9, 0.0, 2022-05-06 12:19:55.439
32.0, -147.13140415679663, -17.714036140125245, -83.50635616062209, -127.67457463731989, 0.1600000075995922, 0.11200000531971455, 1.0240000486373901, 0.0, 0.0, 0.0, 0.0, 0.0, 1.651835995439726E9, 0.0, 2022-05-06 12:19:55.439
33.0, -200.55587502382696, -107.34447847818956, -160.0247092540376, -151.65481315320358, 0.1600000075995922, 0.11200000531971455, 1.0240000486373901, 0.0, 0.0, 0.0, 0.0, 0.0, 1.65183599544068E9, 0.0, 2022-05-06 12:19:55.440
33.0, -209.0604075230658, -99.52060777088627, -137.11408212548122, -151.8343283510767, 0.1600000075995922, 0.11200000531971455, 1.0240000486373901, 0.0, 0.0, 0.0, 0.0, 0.0, 1.65183599544068E9, 0.0, 2022-05-06 12:19:55.440
34.0, -175.674320618622, -8.416644850280136, -63.35577519936487, -115.1870486852713, 0.1600000075995922, 0.11200000531971455, 1.0240000486373901, 0.0, 0.0, 0.0, 0.0, 0.0, 1.6518359954416103E9, 0.0, 2022-05-06 12:19:55.441
34.0, -146.79481316078454, -5.723916882183403, -67.45096565084532, -107.53895327588543, 0.1600000075995922, 0.11200000531971455, 1.0240000486373901, 0.0, 0.0, 0.0, 0.0, 0.0, 1.6518359954416103E9, 0.0, 2022-05-06 12:19:55.441
35.0, -187.312889280729, -95.13370512286201, -143.67386664776132, -135.7452787416987, 0.1600000075995922, 0.11200000531971455, 1.0240000486373901, 0.0, 0.0, 0.0, 0.0, 0.0, 1.6518359954517143E9, 0.0, 2022-05-06 12:19:55.451
35.0, -190.39830674417317, -84.8751595444046, -118.8895496414043, -121.82163120666519, 0.1600000075995922, 0.11200000531971455, 1.0240000486373901, 0.0, 0.0, 0.0, 0.0, 0.0, 1.6518359954517143E9, 0.0, 2022-05-06 12:19:55.451
36.0, -150.74788741394877, 17.994528636801988, -41.95606765290722, -93.81352043850347, 0.1600000075995922, 0.11200000531971455, 1.0240000486373901, 0.0, 0.0, 0.0, 0.0, 0.0, 1.651835995452607E9, 0.0, 2022-05-06 12:19:55.452
36.0, -145.4783683763817, -1.8606002279557288, -70.11377441929653, -110.75900713773444, 0.1600000075995922, 0.11200000531971455, 1.0240000486373901, 0.0, 0.0, 0.0, 0.0, 0.0, 1.651835995452607E9, 0.0, 2022-05-06 12:19:55.452
37.0, -188.7190916640684, -98.9184838780202, -151.348141356837, -143.51305094966665, 0.1600000075995922, 0.11200000531971455, 1.0240000486373901, 0.0, 0.0, 0.0, 0.0, 0.0, 1.6518359954826736E9, 0.0, 2022-05-06 12:19:55.482
37.0, -199.75179653335363, -91.5808001649566, -127.00139264529571, -136.10430913744494, 0.1600000075995922, 0.11200000531971455, 1.0240000486373901, 0.0, 0.0, 0.0, 0.0, 0.0, 1.6518359954826736E9, 0.0, 2022-05-06 12:19:55.482
38.0, -152.4009231943637, 7.608826459851116, -44.35334352450445, -85.20053084054962, 0.1600000075995922, 0.11200000531971455, 1.0240000486373901, 0.0, 0.0, 0.0, 0.0, 0.0, 1.651835995483739E9, 0.0, 2022-05-06 12:19:55.483
38.0, -136.2146361861378, -2.21963062370196, -65.77175057074055, -106.96300868270919, 0.1600000075995922, 0.11200000531971455, 1.0240000486373901, 0.0, 0.0, 0.0, 0.0, 0.0, 1.651835995483739E9, 0.0, 2022-05-06 12:19:55.483
39.0, -178.14265458937734, -92.1717043579556, -132.42050768109038, -121.98618680471554, 0.1600000075995922, 0.11200000531971455, 1.0240000486373901, 0.0, 0.0, 0.0, 0.0, 0.0, 1.6518359954846258E9, 0.0, 2022-05-06 12:19:55.484
39.0, -194.92358569055796, -85.43614453775808, -130.57673700293526, -144.0104576437734, 0.1600000075995922, 0.11200000531971455, 1.0240000486373901, 0.0, 0.0, 0.0, 0.0, 0.0, 1.6518359954846258E9, 0.0, 2022-05-06 12:19:55.484
40.0, -165.4082952402532, -8.951450543943793, -65.78671017056331, -126.57878395030275, 0.1600000075995922, 0.11200000531971455, 1.0240000486373901, 0.0, 0.0, 0.0, 0.0, 0.0, 1.6518359954966629E9, 0.0, 2022-05-06 12:19:55.496
40.0, -174.48503243271261, -21.352958797011524, -89.05262779491022, -129.86615601135418, 0.1600000075995922, 0.11200000531971455, 1.0240000486373901, 0.0, 0.0, 0.0, 0.0, 0.0, 1.6518359954966629E9, 0.0, 2022-05-06 12:19:55.496
41.0, -209.99912241194397, -118.46694094641134, -166.1357057816349, -156.58774119475856, 0.1600000075995922, 0.12800000607967377, 1.0240000486373901, 0.0, 0.0, 0.0, 0.0, 0.0, 1.651835995511768E9, 0.0, 2022-05-06 12:19:55.511
41.0, -210.60872610472143, -104.15808371594176, -142.0170909673907, -145.47275852644816, 0.1600000075995922, 0.12800000607967377, 1.0240000486373901, 0.0, 0.0, 0.0, 0.0, 0.0, 1.651835995511768E9, 0.0, 2022-05-06 12:19:55.511
42.0, -157.9995534280315, -3.180784912314266, -65.08360897889361, -114.87663698894903, 0.1600000075995922, 0.12800000607967377, 1.0240000486373901, 0.0, 0.0, 0.0, 0.0, 0.0, 1.6518359955126116E9, 0.0, 2022-05-06 12:19:55.512
42.0, -147.6587300505489, -10.181877629365772, -70.67849931260571, -122.53969199815765, 0.1600000075995922, 0.12800000607967377, 1.0240000486373901, 0.0, 0.0, 0.0, 0.0, 0.0, 1.6518359955126116E9, 0.0, 2022-05-06 12:19:55.512
43.0, -199.07113474141806, -114.64102329174057, -156.40448609692976, -149.61656767735258, 0.1600000075995922, 0.12800000607967377, 1.0240000486373901, 0.0, 0.0, 0.0, 0.0, 0.0, 1.6518359955576668E9, 0.0, 2022-05-06 12:19:55.557
43.0, -197.1675256639719, -84.55352814821526, -127.65213523758575, -138.69979970669374, 0.1600000075995922, 0.12800000607967377, 1.0240000486373901, 0.0, 0.0, 0.0, 0.0, 0.0, 1.6518359955576668E9, 0.0, 2022-05-06 12:19:55.557
44.0, -157.93597512878478, 2.537522119935602, -53.112189220730215, -101.73088864469901, 0.1600000075995922, 0.12800000607967377, 1.0240000486373901, 0.0, 0.0, 0.0, 0.0, 0.0, 1.651835995558597E9, 0.0, 2022-05-06 12:19:55.558
44.0, -149.83535182476044, 3.8539669043384492, -64.32814918784425, -104.16930341580883, 0.1600000075995922, 0.12800000607967377, 1.0240000486373901, 0.0, 0.0, 0.0, 0.0, 0.0, 1.651835995558597E9, 0.0, 2022-05-06 12:19:55.558
45.0, -181.14953415375203, -85.82135423319414, -135.25161194754764, -124.57419757405296, 0.1600000075995922, 0.12800000607967377, 1.0240000486373901, 0.0, 0.0, 0.0, 0.0, 0.0, 1.6518359955737844E9, 0.0, 2022-05-06 12:19:55.573
45.0, -202.97933019511402, -93.57790674129501, -135.69666004227474, -146.80416291067377, 0.1600000075995922, 0.12800000607967377, 1.0240000486373901, 0.0, 0.0, 0.0, 0.0, 0.0, 1.6518359955737844E9, 0.0, 2022-05-06 12:19:55.573
46.0, -156.9224622407928, -1.0602616374380887, -54.54083100380376, -108.26075396733359, 0.1600000075995922, 0.12800000607967377, 1.0240000486373901, 0.0, 0.0, 0.0, 0.0, 0.0, 1.6518359955746105E9, 0.0, 2022-05-06 12:19:55.574
46.0, -140.3285261373967, 1.7932820287533104, -55.120515496935695, -92.46715645445511, 0.1600000075995922, 0.12800000607967377, 1.0240000486373901, 0.0, 0.0, 0.0, 0.0, 0.0, 1.6518359955746105E9, 0.0, 2022-05-06 12:19:55.574
47.0, -182.4921582378447, -91.62193906446919, -148.1617465945892, -131.20878009544685, 0.1600000075995922, 0.12800000607967377, 1.0240000486373901, 0.0, 0.0, 0.0, 0.0, 0.0, 1.6518359955757492E9, 0.0, 2022-05-06 12:19:55.575
47.0, -199.11227364093065, -93.41335114324465, -135.40120794577524, -141.76651767035946, 0.1600000075995922, 0.12800000607967377, 1.0240000486373901, 0.0, 0.0, 0.0, 0.0, 0.0, 1.6518359955757492E9, 0.0, 2022-05-06 12:19:55.575
48.0, -150.05974582210183, 11.023355119396001, -53.957406610716134, -104.96590210637078, 0.1600000075995922, 0.12800000607967377, 1.0240000486373901, 0.0, 0.0, 0.0, 0.0, 0.0, 1.651835995576635E9, 0.0, 2022-05-06 12:19:55.576
48.0, -153.45557498186827, -1.3183147343806922, -70.6448402130045, -114.94395518815145, 0.1600000075995922, 0.12800000607967377, 1.0240000486373901, 0.0, 0.0, 0.0, 0.0, 0.0, 1.651835995576635E9, 0.0, 2022-05-06 12:19:55.576
49.0, -193.49120400752872, -100.30972666153684, -150.81707556312904, -136.95700632734224, 0.1600000075995922, 0.12800000607967377, 1.0240000486373901, 0.0, 0.0, 0.0, 0.0, 0.0, 1.6518359956336825E9, 0.0, 2022-05-06 12:19:55.633
49.0, -205.78425516188145, -96.04624071205035, -134.44379355711862, -136.51943803252652, 0.1600000075995922, 0.12800000607967377, 1.0240000486373901, 0.0, 0.0, 0.0, 0.0, 0.0, 1.6518359956336825E9, 0.0, 2022-05-06 12:19:55.633
50.0, -143.08109250478446, 11.187910717446357, -45.15368211502209, -100.96046925382689, 0.1600000075995922, 0.12800000607967377, 1.008000047877431, 0.0, 0.0, 0.0, 0.0, 0.0, 1.6518359956346276E9, 0.0, 2022-05-06 12:19:55.634
50.0, -153.09280468616635, -16.969796048942953, -75.03548276098445, -115.87145037716255, 0.1600000075995922, 0.12800000607967377, 1.008000047877431, 0.0, 0.0, 0.0, 0.0, 0.0, 1.6518359956346276E9, 0.0, 2022-05-06 12:19:55.634
51.0, -169.43990739248693, -79.61686020670459, -124.58915717387572, -107.67358967429027, 0.1600000075995922, 0.12800000607967377, 1.008000047877431, 0.0, 0.0, 0.0, 0.0, 0.0, 1.6518359956356013E9, 0.0, 2022-05-06 12:19:55.635
51.0, -211.33800659608096, -99.64776436937973, -138.66240070713684, -142.03953036712483, 0.1600000075995922, 0.12800000607967377, 1.008000047877431, 0.0, 0.0, 0.0, 0.0, 0.0, 1.6518359956356013E9, 0.0, 2022-05-06 12:19:55.635
52.0, -164.8211309472099, -1.8419007281772792, -60.59946893202141, -113.369457306806, 0.1600000075995922, 0.12800000607967377, 1.008000047877431, 0.0, 0.0, 0.0, 0.0, 0.0, 1.651835995636758E9, 0.0, 2022-05-06 12:19:55.636
52.0, -136.3941513840109, 11.154251617845148, -53.75545201310888, -103.4026239248924, 0.1600000075995922, 0.12800000607967377, 1.008000047877431, 0.0, 0.0, 0.0, 0.0, 0.0, 1.651835995636758E9, 0.0, 2022-05-06 12:19:55.636
53.0, -177.30117709934711, -100.26110796211287, -143.7112656473182, -144.98657153220847, 0.1600000075995922, 0.12800000607967377, 1.008000047877431, 0.0, 0.0, 0.0, 0.0, 0.0, 1.651835995648841E9, 0.0, 2022-05-06 12:19:55.648
53.0, -204.56504777632654, -100.72859545657411, -139.62355499574915, -144.7958366344683, 0.1600000075995922, 0.12800000607967377, 1.008000047877431, 0.0, 0.0, 0.0, 0.0, 0.0, 1.651835995648841E9, 0.0, 2022-05-06 12:19:55.648
54.0, -166.68734102509916, -0.8545671398751438, -58.84171595284715, -105.9233164950274, 0.1600000075995922, 0.12800000607967377, 1.008000047877431, 0.0, 0.0, 0.0, 0.0, 0.0, 1.651835995649597E9, 0.0, 2022-05-06 12:19:55.649
54.0, -148.86671773623675, -4.987156590912491, -70.98143120901659, -105.38103100145236, 0.1600000075995922, 0.12800000607967377, 1.008000047877431, 0.0, 0.0, 0.0, 0.0, 0.0, 1.651835995649597E9, 0.0, 2022-05-06 12:19:55.649
55.0, -191.1275872355327, -98.83994597895071, -147.09961500717327, -137.92564041586593, 0.1600000075995922, 0.12800000607967377, 1.008000047877431, 0.0, 0.0, 0.0, 0.0, 0.0, 1.651835995650671E9, 0.0, 2022-05-06 12:19:55.650
55.0, -192.85168111510575, -89.3219005917199, -133.35548267001286, -140.48747188551351, 0.1600000075995922, 0.12800000607967377, 1.008000047877431, 0.0, 0.0, 0.0, 0.0, 0.0, 1.651835995650671E9, 0.0, 2022-05-06 12:19:55.650
56.0, -164.0731509560719, 4.108280101325363, -58.24333195993677, -109.4388224533759, 0.1600000075995922, 0.12800000607967377, 1.008000047877431, 0.0, 0.0, 0.0, 0.0, 0.0, 1.6518359956616845E9, 0.0, 2022-05-06 12:19:55.661
56.0, -157.37873003538698, -6.060507878195494, -78.54350891942158, -113.1824623090215, 0.1600000075995922, 0.12800000607967377, 1.008000047877431, 0.0, 0.0, 0.0, 0.0, 0.0, 1.6518359956616845E9, 0.0, 2022-05-06 12:19:55.661
57.0, -181.55718324892223, -85.98964973120019, -130.62161580240354, -122.4835934988223, 0.1600000075995922, 0.12800000607967377, 1.008000047877431, 0.0, 0.0, 0.0, 0.0, 0.0, 1.6518359956626236E9, 0.0, 2022-05-06 12:19:55.662
57.0, -199.11601354088634, -95.40297791967168, -137.5666100201197, -142.5257173613645, 0.1600000075995922, 0.12800000607967377, 1.008000047877431, 0.0, 0.0, 0.0, 0.0, 0.0, 1.6518359956626236E9, 0.0, 2022-05-06 12:19:55.662
58.0, -167.61109631415457, -6.845886868890375, -68.18024614220485, -121.4476412110962, 0.1600000075995922, 0.12800000607967377, 1.008000047877431, 0.0, 0.0, 0.0, 0.0, 0.0, 1.6518359956927261E9, 0.0, 2022-05-06 12:19:55.692
58.0, -153.79216597788036, -4.373812998179346, -69.32465552864596, -109.30044615501538, 0.1600000075995922, 0.12800000607967377, 1.008000047877431, 0.0, 0.0, 0.0, 0.0, 0.0, 1.6518359956927261E9, 0.0, 2022-05-06 12:19:55.692
59.0, -180.62220825999975, -92.54943425348029, -140.2742975880392, -127.8578297351487, 0.1600000075995922, 0.12800000607967377, 1.008000047877431, 0.0, 0.0, 0.0, 0.0, 0.0, 1.6518359956936996E9, 0.0, 2022-05-06 12:19:55.693
59.0, -202.74371649790555, -100.01053466508165, -143.50183124979958, -132.4878258802928, 0.1600000075995922, 0.12800000607967377, 1.008000047877431, 0.0, 0.0, 0.0, 0.0, 0.0, 1.6518359956936996E9, 0.0, 2022-05-06 12:19:55.693
60.0, -173.57623674347997, -0.5890342430211604, -68.22886484162882, -122.08342420356348, 0.1600000075995922, 0.12800000607967377, 1.008000047877431, 0.0, 0.0, 0.0, 0.0, 0.0, 1.651835995694687E9, 0.0, 2022-05-06 12:19:55.694
60.0, -151.7427008021623, -8.981369743589312, -71.44891870347783, -124.16280857892707, 0.1600000075995922, 0.12800000607967377, 1.008000047877431, 0.0, 0.0, 0.0, 0.0, 0.0, 1.651835995694687E9, 0.0, 2022-05-06 12:19:55.694
61.0, -188.59193506557494, -100.38826456060633, -137.85458231670782, -133.83792976429686, 0.1600000075995922, 0.12800000607967377, 1.008000047877431, 0.0, 0.0, 0.0, 0.0, 0.0, 1.6518359957227175E9, 0.0, 2022-05-06 12:19:55.722
61.0, -200.66059222258627, -94.83077322645113, -130.0082722096704, -114.62232379196212, 0.1600000075995922, 0.12800000607967377, 1.008000047877431, 0.0, 0.0, 0.0, 0.0, 0.0, 1.6518359957227175E9, 0.0, 2022-05-06 12:19:55.722
62.0, -165.99919943325222, 6.064247778151184, -61.07817612634972, -116.57081166887656, 0.1600000075995922, 0.12800000607967377, 1.008000047877431, 0.0, 0.0, 0.0, 0.0, 0.0, 1.6518359957376554E9, 0.0, 2022-05-06 12:19:55.737
62.0, -174.03998433798552, -14.378045379649848, -79.42986520892009, -137.4880721210502, 0.1600000075995922, 0.12800000607967377, 1.008000047877431, 0.0, 0.0, 0.0, 0.0, 0.0, 1.6518359957376554E9, 0.0, 2022-05-06 12:19:55.737
63.0, -199.0225160419941, -100.44436305994168, -146.54610981373116, -147.98597129667178, 0.1600000075995922, 0.12800000607967377, 1.008000047877431, 0.0, 0.0, 0.0, 0.0, 0.0, 1.6518359957387228E9, 0.0, 2022-05-06 12:19:55.738
63.0, -211.2819080967456, -106.772273784969, -151.21724485838786, -144.70233913557604, 0.1600000075995922, 0.12800000607967377, 1.008000047877431, 0.0, 0.0, 0.0, 0.0, 0.0, 1.6518359957387228E9, 0.0, 2022-05-06 12:19:55.738
64.0, -186.25823749322444, -15.945063461083919, -80.37979979766533, -124.72379357228056, 0.1600000075995922, 0.12800000607967377, 1.008000047877431, 0.0, 0.0, 0.0, 0.0, 0.0, 1.651835995739606E9, 0.0, 2022-05-06 12:19:55.739
64.0, -161.63847608491778, -10.769041922409087, -74.8671872629784, -111.63040382741019, 0.1600000075995922, 0.12800000607967377, 1.008000047877431, 0.0, 0.0, 0.0, 0.0, 0.0, 1.651835995739606E9, 0.0, 2022-05-06 12:19:55.739
65.0, -189.95699854940176, -99.07929957611486, -145.61487472476438, -136.381061734166, 0.1600000075995922, 0.12800000607967377, 1.008000047877431, 0.0, 0.0, 0.0, 0.0, 0.0, 1.6518359957516973E9, 0.0, 2022-05-06 12:19:55.751
65.0, -199.51244293618947, -102.78554043220356, -142.29384356411174, -139.21964580053464, 0.1600000075995922, 0.12800000607967377, 1.008000047877431, 0.0, 0.0, 0.0, 0.0, 0.0, 1.6518359957516973E9, 0.0, 2022-05-06 12:19:55.751
66.0, -175.7154595181346, -7.728503258433193, -70.54386291420087, -116.76902636652812, 0.1600000075995922, 0.12800000607967377, 1.008000047877431, 0.0, 0.0, 0.0, 0.0, 0.0, 1.6518359957526188E9, 0.0, 2022-05-06 12:19:55.752
66.0, -160.6698419963941, 1.5838476312346756, -64.89661398110911, -107.37065777787939, 0.1600000075995922, 0.12800000607967377, 1.008000047877431, 0.0, 0.0, 0.0, 0.0, 0.0, 1.6518359957526188E9, 0.0, 2022-05-06 12:19:55.752
