%OpenBCI Raw EEG Data
%Number of channels = 4
%Sample Rate = 200 Hz
%Board = OpenBCI_GUI$BoardGanglionBLE
Sample Index, EXG Channel 0, EXG Channel 1, EXG Channel 2, EXG Channel 3, Accel Channel 0, Accel Channel 1, Accel Channel 2, Other, Other, Other, Other, Other, Timestamp, Other, Timestamp (Formatted)
25.0, -65.60906492266804, -47.302254639565945, -43.98870327882469, -42.60494029521942, 0.0, 0.0, 0.0, 0.0, 0.0, 0.0, 0.0, 0.0, 1.651835965761784E9, 0.0, 2022-05-06 12:19:25.761
25.0, -268.38831047015265, 157.37873003538698, 169.38380889315158, 159.09160421509296, 0.0, 0.0, 0.0, 0.0, 0.0, 0.0, 0.0, 0.0, 1.651835965761784E9, 0.0, 2022-05-06 12:19:25.761
0.0, -196.75426671886817, -41.43435160908848, -82.81447466881946, -135.21421294799075, 0.0, 0.0, 0.0, 0.0, 0.0, 0.0, 0.0, 0.0, 1.6518359657827084E9, 0.0, 2022-05-06 12:19:25.782
1.0, -207.77575188828632, -110.88803368620574, -143.6065484485589, -147.6419005007483, 0.0, 0.12800000607967377, 0.0, 0.0, 0.0, 0.0, 0.0, 0.0, 1.6518359657957556E9, 0.0, 2022-05-06 12:19:25.795
1.0, -260.5906190625392, -195.95205817837268, -212.62640213081613, -185.02594045782462, 0.0, 0.12800000607967377, 0.0, 0.0, 0.0, 0.0, 0.0, 0.0, 1.6518359657957556E9, 0.0, 2022-05-06 12:19:25.795
2.0, -257.90537089435384, -132.3961983313784, -153.8314349274151, -178.48485543532297, 0.1600000075995922, 0.12800000607967377, 0.0, 0.0, 0.0, 0.0, 0.0, 0.0, 1.6518359658268435E9, 0.0, 2022-05-06 12:19:25.826
2.0, -194.24105394864455, -37.52615615539253, -74.69889176497236, -120.91657541738823, 0.1600000075995922, 0.12800000607967377, 0.0, 0.0, 0.0, 0.0, 0.0, 0.0, 1.6518359658268435E9, 0.0, 2022-05-06 12:19:25.826
3.0, -214.4589531091042, -105.9027470452711, -140.10600209003314, -148.4571986910887, 0.1600000075995922, 0.12800000607967377, 0.0, 0.0, 0.0, 0.0, 0.0, 0.0, 1.6518359658276887E9, 0.0, 2022-05-06 12:19:25.827
3.0, -277.16959556611255, -207.96087693609297, -230.84345481498167, -209.8214771640487, 0.1600000075995922, 0.12800000607967377, 0.0, 0.0, 0.0, 0.0, 0.0, 0.0, 1.6518359658276887E9, 0.0, 2022-05-06 12:19:25.827
4.0, -251.94771026493981, -146.0356134697795, -164.5387685005553, -188.34323171852157, 0.1600000075995922, 0.12800000607967377, 0.0, 0.0, 0.0, 0.0, 0.0, 0.0, 1.651835965828668E9, 0.0, 2022-05-06 12:19:25.828
4.0, -204.10317013179883, -49.89400530885905, -83.83920725667849, -133.54247766779736, 0.1600000075995922, 0.12800000607967377, 0.0, 0.0, 0.0, 0.0, 0.0, 0.0, 1.651835965828668E9, 0.0, 2022-05-06 12:19:25.828
5.0, -209.73171956511214, -112.39521336834878, -140.80536338174716, -136.2314657359384, 0.1600000075995922, 0.12800000607967377, 0.0, 0.0, 0.0, 0.0, 0.0, 0.0, 1.651835965841832E9, 0.0, 2022-05-06 12:19:25.841
5.0, -261.7051092493348, -203.25608279183507, -218.80471685761586, -193.87828365294263, 0.1600000075995922, 0.12800000607967377, 0.0, 0.0, 0.0, 0.0, 0.0, 0.0, 1.651835965841832E9, 0.0, 2022-05-06 12:19:25.841
6.0, -240.37645980203524, -128.92557117249817, -142.55189666105434, -166.34888007910922, 0.1600000075995922, 0.12800000607967377, 0.0, 0.0, 0.0, 0.0, 0.0, 0.0, 1.651835965842811E9, 0.0, 2022-05-06 12:19:25.842
6.0, -193.94934175210074, -34.99798378534615, -75.4244323563762, -113.5153134050779, 0.1600000075995922, 0.12800000607967377, 0.0, 0.0, 0.0, 0.0, 0.0, 0.0, 1.651835965842811E9, 0.0, 2022-05-06 12:19:25.842
7.0, -212.2262328355573, -111.3480413807556, -144.22737184120342, -158.2071178755723, 0.1600000075995922, 0.12800000607967377, 0.0, 0.0, 0.0, 0.0, 0.0, 0.0, 1.6518359658558629E9, 0.0, 2022-05-06 12:19:25.855
7.0, -269.12133086146787, -205.88897236064076, -211.92330093914643, -192.54687926871702, 0.1600000075995922, 0.12800000607967377, 0.0, 0.0, 0.0, 0.0, 0.0, 0.0, 1.6518359658558629E9, 0.0, 2022-05-06 12:19:25.855
8.0, -254.79377413121983, -135.42551729548723, -154.57941491855308, -175.70610976824537, 0.1600000075995922, 0.12800000607967377, 0.0, 0.0, 0.0, 0.0, 0.0, 0.0, 1.6518359658868496E9, 0.0, 2022-05-06 12:19:25.886
8.0, -204.36122322874144, -45.656698659062386, -88.05407450674102, -139.90778739238158, 0.1600000075995922, 0.12800000607967377, 0.0, 0.0, 0.0, 0.0, 0.0, 0.0, 1.6518359658868496E9, 0.0, 2022-05-06 12:19:25.886
9.0, -200.52782577415928, -102.87342808116227, -136.72139263013378, -151.25090395798907, 0.1600000075995922, 0.12800000607967377, 0.0, 0.0, 0.0, 0.0, 0.0, 0.0, 1.6518359658877876E9, 0.0, 2022-05-06 12:19:25.887
9.0, -261.82478604791686, -197.02540946565568, -209.99351256201044, -187.38955722982064, 0.1600000075995922, 0.12800000607967377, 0.0, 0.0, 0.0, 0.0, 0.0, 0.0, 1.6518359658877876E9, 0.0, 2022-05-06 12:19:25.887
10.0, -255.1752439267002, -139.8797381427139, -152.61596744181588, -167.08938027033582, 0.1600000075995922, 0.12800000607967377, 0.5120000243186951, 0.0, 0.0, 0.0, 0.0, 0.0, 1.6518359658886702E9, 0.0, 2022-05-06 12:19:25.888
10.0, -205.79360491177067, -43.52121578436345, -80.04694870160893, -136.44837993336841, 0.1600000075995922, 0.12800000607967377, 0.5120000243186951, 0.0, 0.0, 0.0, 0.0, 0.0, 1.6518359658886702E9, 0.0, 2022-05-06 12:19:25.888
11.0, -213.3369831223972, -113.91735265031457, -144.82201593415812, -156.2062713992782, 0.1600000075995922, 0.04800000227987766, 0.5120000243186951, 0.0, 0.0, 0.0, 0.0, 0.0, 1.6518359659019065E9, 0.0, 2022-05-06 12:19:25.901
11.0, -264.1435240204446, -203.5440550884232, -215.0049785026349, -191.67922247899696, 0.1600000075995922, 0.04800000227987766, 0.5120000243186951, 0.0, 0.0, 0.0, 0.0, 0.0, 1.6518359659019065E9, 0.0, 2022-05-06 12:19:25.901
12.0, -257.5874793981202, -137.12717177532613, -161.47953033680096, -176.24091546190903, 0.0800000037997961, 0.04800000227987766, 0.5120000243186951, 0.0, 0.0, 0.0, 0.0, 0.0, 1.651835965902661E9, 0.0, 2022-05-06 12:19:25.902
12.0, -197.50224671000615, -59.733682092279196, -89.31442079180852, -140.62210828391835, 0.0800000037997961, 0.04800000227987766, 0.5120000243186951, 0.0, 0.0, 0.0, 0.0, 0.0, 1.651835965902661E9, 0.0, 2022-05-06 12:19:25.902
13.0, -224.7212385875173, -121.37097326200455, -151.46781815541908, -156.11651380034164, 0.0800000037997961, 0.04800000227987766, 0.5120000243186951, 0.0, 0.0, 0.0, 0.0, 0.0, 1.65183596591584E9, 0.0, 2022-05-06 12:19:25.915
13.0, -249.86832588957623, -169.80267768818885, -190.09724479774013, -161.75254303356633, 0.0800000037997961, 0.04800000227987766, 0.5120000243186951, 0.0, 0.0, 0.0, 0.0, 0.0, 1.65183596591584E9, 0.0, 2022-05-06 12:19:25.915
14.0, -236.84225434390828, -123.58499403577298, -139.87786819273606, -159.11217366484925, 0.0800000037997961, 0.04800000227987766, 0.5120000243186951, 0.0, 0.0, 0.0, 0.0, 0.0, 1.6518359659467733E9, 0.0, 2022-05-06 12:19:25.946
14.0, -199.7761058830656, -62.45632926002145, -88.27472860412672, -122.98474009288475, 0.0800000037997961, 0.04800000227987766, 0.5120000243186951, 0.0, 0.0, 0.0, 0.0, 0.0, 1.6518359659467733E9, 0.0, 2022-05-06 12:19:25.946
15.0, -216.6056556836702, -114.75135034043342, -145.62983432458714, -147.47360500274226, 0.0800000037997961, 0.04800000227987766, 0.5120000243186951, 0.0, 0.0, 0.0, 0.0, 0.0, 1.651835965947744E9, 0.0, 2022-05-06 12:19:25.947
15.0, -253.94855674123392, -181.7179989470169, -197.46110781049356, -181.63759109796956, 0.0800000037997961, 0.04800000227987766, 0.5120000243186951, 0.0, 0.0, 0.0, 0.0, 0.0, 1.651835965947744E9, 0.0, 2022-05-06 12:19:25.947
16.0, -247.77398191438988, -128.58898017648607, -147.4623853028752, -179.31137332553044, 0.0800000037997961, 0.04800000227987766, 0.5120000243186951, 0.0, 0.0, 0.0, 0.0, 0.0, 1.6518359659487727E9, 0.0, 2022-05-06 12:19:25.948
16.0, -202.4501343513839, -64.20660243928432, -89.13116569397971, -141.048456878867, 0.0800000037997961, 0.04800000227987766, 0.5120000243186951, 0.0, 0.0, 0.0, 0.0, 0.0, 1.6518359659487727E9, 0.0, 2022-05-06 12:19:25.948
17.0, -221.9013540209271, -133.79118101485074, -163.75338950986043, -168.05053455894813, 0.0800000037997961, 0.04800000227987766, 0.5120000243186951, 0.0, 0.0, 0.0, 0.0, 0.0, 1.6518359659617229E9, 0.0, 2022-05-06 12:19:25.961
17.0, -267.4084566817619, -192.1635395232588, -218.14275456545874, -200.40440907562152, 0.0800000037997961, 0.04800000227987766, 0.5120000243186951, 0.0, 0.0, 0.0, 0.0, 0.0, 1.6518359659617229E9, 0.0, 2022-05-06 12:19:25.961
18.0, -257.5126813990064, -144.9622621824965, -165.07357419421896, -181.20376270310953, 0.0800000037997961, 0.04800000227987766, 0.5120000243186951, 0.0, 0.0, 0.0, 0.0, 0.0, 1.6518359659628165E9, 0.0, 2022-05-06 12:19:25.962
18.0, -207.40550179267302, -59.09789909981191, -89.58369358861819, -136.32496323483065, 0.0800000037997961, 0.04800000227987766, 0.5120000243186951, 0.0, 0.0, 0.0, 0.0, 0.0, 1.6518359659628165E9, 0.0, 2022-05-06 12:19:25.962
19.0, -221.0075179315172, -119.51224298402667, -153.0946746361442, -153.12085393583402, 0.0800000037997961, 0.04800000227987766, 0.5120000243186951, 0.0, 0.0, 0.0, 0.0, 0.0, 1.6518359659758315E9, 0.0, 2022-05-06 12:19:25.975
19.0, -255.0293878284283, -169.16689469572157, -197.41622901102528, -172.29532100865617, 0.0800000037997961, 0.04800000227987766, 0.5120000243186951, 0.0, 0.0, 0.0, 0.0, 0.0, 1.6518359659758315E9, 0.0, 2022-05-06 12:19:25.975
20.0, -243.67131166299805, -117.5375758074224, -142.99694475578144, -161.38603283790872, 0.0800000037997961, 0.04800000227987766, 0.7680000364780426, 0.0, 0.0, 0.0, 0.0, 0.0, 1.651835966023811E9, 0.0, 2022-05-06 12:19:26.023
20.0, -210.55449755536392, -60.926710178144276, -91.76031536282972, -144.09647534275427, 0.0800000037997961, 0.04800000227987766, 0.7680000364780426, 0.0, 0.0, 0.0, 0.0, 0.0, 1.651835966023811E9, 0.0, 2022-05-06 12:19:26.023
21.0, -216.54581728437915, -114.67281244136393, -151.30700245732442, -158.41281237313524, 0.0800000037997961, 0.0800000037997961, 0.7680000364780426, 0.0, 0.0, 0.0, 0.0, 0.0, 1.6518359660246882E9, 0.0, 2022-05-06 12:19:26.024
21.0, -250.51906848186627, -178.16509398911148, -195.5163598335348, -157.30206208629534, 0.0800000037997961, 0.0800000037997961, 0.7680000364780426, 0.0, 0.0, 0.0, 0.0, 0.0, 1.6518359660246882E9, 0.0, 2022-05-06 12:19:26.024
22.0, -229.4559519314207, -117.34684090968221, -130.61787590244785, -135.66674084262922, 0.11200000531971455, 0.0800000037997961, 0.7680000364780426, 0.0, 0.0, 0.0, 0.0, 0.0, 1.6518359660256674E9, 0.0, 2022-05-06 12:19:26.025
22.0, -201.99012665683404, -57.317706720903516, -90.97867627209052, -149.51185047859326, 0.11200000531971455, 0.0800000037997961, 0.7680000364780426, 0.0, 0.0, 0.0, 0.0, 0.0, 1.6518359660256674E9, 0.0, 2022-05-06 12:19:26.025
23.0, -221.44882612628862, -118.44263159669936, -145.7943899226375, -154.13810672378168, 0.11200000531971455, 0.0800000037997961, 0.7680000364780426, 0.0, 0.0, 0.0, 0.0, 0.0, 1.6518359660267236E9, 0.0, 2022-05-06 12:19:26.026
23.0, -270.4115963461809, -190.84335483890027, -211.72134634153917, -191.8549977769144, 0.11200000531971455, 0.0800000037997961, 0.7680000364780426, 0.0, 0.0, 0.0, 0.0, 0.0, 1.6518359660267236E9, 0.0, 2022-05-06 12:19:26.026
24.0, -252.23942246148363, -130.60104635264724, -147.43620600318536, -171.4314041188918, 0.11200000531971455, 0.0800000037997961, 0.7680000364780426, 0.0, 0.0, 0.0, 0.0, 0.0, 1.651835966036765E9, 0.0, 2022-05-06 12:19:26.036
24.0, -221.57598272478208, -71.97437464725226, -101.81690634367988, -150.0541359721683, 0.11200000531971455, 0.0800000037997961, 0.7680000364780426, 0.0, 0.0, 0.0, 0.0, 0.0, 1.651835966036765E9, 0.0, 2022-05-06 12:19:26.036
25.0, -234.49359717173502, -129.41549806669354, -155.6490263058804, -164.2844553035684, 0.11200000531971455, 0.0800000037997961, 0.7680000364780426, 0.0, 0.0, 0.0, 0.0, 0.0, 1.6518359660376828E9, 0.0, 2022-05-06 12:19:26.037
25.0, -268.09285837365314, -190.58530174195766, -209.7878180644475, -190.19822209654376, 0.11200000531971455, 0.0800000037997961, 0.7680000364780426, 0.0, 0.0, 0.0, 0.0, 0.0, 1.6518359660376828E9, 0.0, 2022-05-06 12:19:26.037
26.0, -255.48939552297816, -139.70770274475217, -159.66941875824705, -179.04958032863215, 0.11200000531971455, 0.0800000037997961, 0.7680000364780426, 0.0, 0.0, 0.0, 0.0, 0.0, 1.6518359660667396E9, 0.0, 2022-05-06 12:19:26.066
26.0, -217.17786037689075, -69.47238157689571, -104.251581214834, -156.44188509648666, 0.11200000531971455, 0.0800000037997961, 0.7680000364780426, 0.0, 0.0, 0.0, 0.0, 0.0, 1.6518359660667396E9, 0.0, 2022-05-06 12:19:26.066
27.0, -225.3869407796301, -120.09940727706999, -157.8293879800476, -166.92482467228547, 0.11200000531971455, 0.0800000037997961, 0.7680000364780426, 0.0, 0.0, 0.0, 0.0, 0.0, 1.6518359660677388E9, 0.0, 2022-05-06 12:19:26.067
27.0, -263.6573370262049, -180.5287107611075, -206.4480874040164, -183.46266227634624, 0.11200000531971455, 0.0800000037997961, 0.7680000364780426, 0.0, 0.0, 0.0, 0.0, 0.0, 1.6518359660677388E9, 0.0, 2022-05-06 12:19:26.067
28.0, -266.49966099252924, -149.63339722715318, -167.34743336727843, -184.86512475972995, 0.11200000531971455, 0.0800000037997961, 0.7680000364780426, 0.0, 0.0, 0.0, 0.0, 0.0, 1.6518359660687368E9, 0.0, 2022-05-06 12:19:26.068
28.0, -218.65886075934395, -72.43064244184643, -105.0332203055732, -151.9091263501905, 0.11200000531971455, 0.0800000037997961, 0.7680000364780426, 0.0, 0.0, 0.0, 0.0, 0.0, 1.6518359660687368E9, 0.0, 2022-05-06 12:19:26.068
29.0, -233.79049598006532, -119.45988438464701, -152.39905324438587, -162.00311633059755, 0.11200000531971455, 0.0800000037997961, 0.7680000364780426, 0.0, 0.0, 0.0, 0.0, 0.0, 1.651835966080778E9, 0.0, 2022-05-06 12:19:26.080
29.0, -262.0417002453469, -185.06894930731505, -209.27171187056229, -183.2906268783845, 0.11200000531971455, 0.0800000037997961, 0.7680000364780426, 0.0, 0.0, 0.0, 0.0, 0.0, 1.651835966080778E9, 0.0, 2022-05-06 12:19:26.080
30.0, -254.0644936398603, -133.4732895186171, -150.77219676366076, -169.74844913883135, 0.11200000531971455, 0.0800000037997961, 0.8960000425577164, 0.0, 0.0, 0.0, 0.0, 0.0, 1.6518359660967734E9, 0.0, 2022-05-06 12:19:26.096
30.0, -216.96468607941642, -64.49831463582814, -91.89869166119024, -133.39288166956976, 0.11200000531971455, 0.0800000037997961, 0.8960000425577164, 0.0, 0.0, 0.0, 0.0, 0.0, 1.6518359660967734E9, 0.0, 2022-05-06 12:19:26.096
31.0, -235.3949130610563, -118.12474010046571, -158.10240067681298, -161.26635603932664, 0.11200000531971455, 0.09600000455975533, 0.8960000425577164, 0.0, 0.0, 0.0, 0.0, 0.0, 1.6518359660977323E9, 0.0, 2022-05-06 12:19:26.097
31.0, -262.6213847384788, -182.9372063325718, -210.54327785549685, -193.0405460628681, 0.11200000531971455, 0.09600000455975533, 0.8960000425577164, 0.0, 0.0, 0.0, 0.0, 0.0, 1.6518359660977323E9, 0.0, 2022-05-06 12:19:26.097
32.0, -252.0636471635662, -128.58898017648607, -149.63526717713103, -171.1770909219049, 0.12800000607967377, 0.09600000455975533, 0.8960000425577164, 0.0, 0.0, 0.0, 0.0, 0.0, 1.6518359661268296E9, 0.0, 2022-05-06 12:19:26.126
32.0, -213.20608662394807, -67.80438619665802, -92.878545449581, -139.4926584973, 0.12800000607967377, 0.09600000455975533, 0.8960000425577164, 0.0, 0.0, 0.0, 0.0, 0.0, 1.6518359661268296E9, 0.0, 2022-05-06 12:19:26.126
33.0, -223.76382419886068, -112.1670794710517, -144.04411674337462, -152.8291417392902, 0.12800000607967377, 0.09600000455975533, 0.8960000425577164, 0.0, 0.0, 0.0, 0.0, 0.0, 1.6518359661277275E9, 0.0, 2022-05-06 12:19:26.127
33.0, -245.915251636412, -173.32940334640443, -190.77042678976431, -159.4637242606841, 0.12800000607967377, 0.09600000455975533, 0.8960000425577164, 0.0, 0.0, 0.0, 0.0, 0.0, 1.6518359661277275E9, 0.0, 2022-05-06 12:19:26.127
34.0, -243.94058445980772, -122.55652154795825, -143.26247765263543, -162.3883260260336, 0.12800000607967377, 0.09600000455975533, 0.8960000425577164, 0.0, 0.0, 0.0, 0.0, 0.0, 1.6518359661286664E9, 0.0, 2022-05-06 12:19:26.128
34.0, -216.7515117819421, -66.21118881553411, -98.36871858453378, -154.84868771536276, 0.12800000607967377, 0.09600000455975533, 0.8960000425577164, 0.0, 0.0, 0.0, 0.0, 0.0, 1.6518359661286664E9, 0.0, 2022-05-06 12:19:26.128
35.0, -221.58346252469346, -125.49608291313052, -155.4994303076528, -170.2869947324507, 0.12800000607967377, 0.09600000455975533, 0.8960000425577164, 0.0, 0.0, 0.0, 0.0, 0.0, 1.6518359661568253E9, 0.0, 2022-05-06 12:19:26.156
35.0, -261.0618464569561, -183.55802972521633, -200.50538637442514, -175.81456686696038, 0.12800000607967377, 0.09600000455975533, 0.8960000425577164, 0.0, 0.0, 0.0, 0.0, 0.0, 1.6518359661568253E9, 0.0, 2022-05-06 12:19:26.156
36.0, -252.44137705909088, -133.8024007147178, -148.4571986910887, -164.3966523022391, 0.12800000607967377, 0.09600000455975533, 0.8960000425577164, 0.0, 0.0, 0.0, 0.0, 0.0, 1.6518359661577852E9, 0.0, 2022-05-06 12:19:26.157
36.0, -214.65716780675575, -68.75058088544756, -104.3263792139478, -152.19335874682292, 0.12800000607967377, 0.09600000455975533, 0.8960000425577164, 0.0, 0.0, 0.0, 0.0, 0.0, 1.6518359661577852E9, 0.0, 2022-05-06 12:19:26.157
37.0, -222.36510161543265, -112.3129355693236, -151.28456305759028, -156.33342799777165, 0.12800000607967377, 0.09600000455975533, 0.8960000425577164, 0.0, 0.0, 0.0, 0.0, 0.0, 1.6518359661587884E9, 0.0, 2022-05-06 12:19:26.158
37.0, -261.8808845472522, -177.84346259292215, -203.53470533853397, -180.35106551321223, 0.12800000607967377, 0.09600000455975533, 0.8960000425577164, 0.0, 0.0, 0.0, 0.0, 0.0, 1.6518359661587884E9, 0.0, 2022-05-06 12:19:26.158
38.0, -255.99802191695198, -134.34094630833715, -149.29867618111894, -167.54564806493, 0.12800000607967377, 0.09600000455975533, 0.8960000425577164, 0.0, 0.0, 0.0, 0.0, 0.0, 1.651835966188742E9, 0.0, 2022-05-06 12:19:26.188
38.0, -218.81219665752724, -71.89583674818277, -102.23951503867283, -146.089842019137, 0.12800000607967377, 0.09600000455975533, 0.8960000425577164, 0.0, 0.0, 0.0, 0.0, 0.0, 1.651835966188742E9, 0.0, 2022-05-06 12:19:26.188
39.0, -230.2787299216725, -104.27963046450168, -149.2425776817836, -163.2073641163297, 0.12800000607967377, 0.09600000455975533, 0.8960000425577164, 0.0, 0.0, 0.0, 0.0, 0.0, 1.651835966189695E9, 0.0, 2022-05-06 12:19:26.189
39.0, -264.75686761317775, -184.76601741090417, -211.87842213967815, -190.9611616875045, 0.12800000607967377, 0.09600000455975533, 0.8960000425577164, 0.0, 0.0, 0.0, 0.0, 0.0, 1.651835966189695E9, 0.0, 2022-05-06 12:19:26.189
40.0, -262.7672408367507, -148.53386664018035, -163.64119251118973, -180.40716401254758, 0.12800000607967377, 0.09600000455975533, 0.9600000455975533, 0.0, 0.0, 0.0, 0.0, 0.0, 1.6518359661907508E9, 0.0, 2022-05-06 12:19:26.190
40.0, -219.70603274693713, -73.22350123245269, -100.33216606127098, -153.48736413149163, 0.12800000607967377, 0.09600000455975533, 0.9600000455975533, 0.0, 0.0, 0.0, 0.0, 0.0, 1.6518359661907508E9, 0.0, 2022-05-06 12:19:26.190
41.0, -217.3835548744537, -107.17805293016136, -133.09368967311457, -135.0496573499404, 0.12800000607967377, 0.11200000531971455, 0.9600000455975533, 0.0, 0.0, 0.0, 0.0, 0.0, 1.6518359662018187E9, 0.0, 2022-05-06 12:19:26.201
41.0, -268.31725237099454, -182.22288544103503, -212.1177757368423, -180.79985350789502, 0.12800000607967377, 0.11200000531971455, 0.9600000455975533, 0.0, 0.0, 0.0, 0.0, 0.0, 1.6518359662018187E9, 0.0, 2022-05-06 12:19:26.201
42.0, -261.0356671572663, -139.03826065268368, -160.99708324251696, -181.59645219845697, 0.144000006839633, 0.11200000531971455, 0.9600000455975533, 0.0, 0.0, 0.0, 0.0, 0.0, 1.6518359662167163E9, 0.0, 2022-05-06 12:19:26.216
42.0, -224.0929353949614, -72.8495112368837, -104.53581361146644, -149.63152727717534, 0.144000006839633, 0.11200000531971455, 0.9600000455975533, 0.0, 0.0, 0.0, 0.0, 0.0, 1.6518359662167163E9, 0.0, 2022-05-06 12:19:26.216
43.0, -218.3110500634648, -108.23270471766591, -138.74467850616202, -154.7925892160274, 0.144000006839633, 0.11200000531971455, 0.9600000455975533, 0.0, 0.0, 0.0, 0.0, 0.0, 1.6518359662177527E9, 0.0, 2022-05-06 12:19:26.217
43.0, -258.16716389125213, -182.4622390381992, -201.8928892579861, -173.63046529283747, 0.144000006839633, 0.11200000531971455, 0.9600000455975533, 0.0, 0.0, 0.0, 0.0, 0.0, 1.6518359662177527E9, 0.0, 2022-05-06 12:19:26.217
44.0, -250.40687148319557, -143.4027239009738, -156.5765214948915, -172.19808360980824, 0.144000006839633, 0.11200000531971455, 0.9600000455975533, 0.0, 0.0, 0.0, 0.0, 0.0, 1.651835966231728E9, 0.0, 2022-05-06 12:19:26.231
44.0, -215.18075380055234, -73.2945593316108, -96.85405910247937, -139.88908789260313, 0.144000006839633, 0.11200000531971455, 0.9600000455975533, 0.0, 0.0, 0.0, 0.0, 0.0, 1.651835966231728E9, 0.0, 2022-05-06 12:19:26.231
45.0, -218.68504005903378, -103.70742577128112, -132.70100017776713, -149.3846938800998, 0.144000006839633, 0.11200000531971455, 0.9600000455975533, 0.0, 0.0, 0.0, 0.0, 0.0, 1.6518359662326603E9, 0.0, 2022-05-06 12:19:26.232
45.0, -260.90103075886145, -182.8250093339011, -206.49670610344037, -191.57076538028196, 0.144000006839633, 0.11200000531971455, 0.9600000455975533, 0.0, 0.0, 0.0, 0.0, 0.0, 1.6518359662326603E9, 0.0, 2022-05-06 12:19:26.232
46.0, -254.01213504048064, -153.15638298541307, -162.60150032350793, -182.93533638259396, 0.144000006839633, 0.11200000531971455, 0.9600000455975533, 0.0, 0.0, 0.0, 0.0, 0.0, 1.6518359662457132E9, 0.0, 2022-05-06 12:19:26.245
46.0, -213.3743821219541, -68.43642928916961, -98.79880707943812, -147.47734490269795, 0.144000006839633, 0.11200000531971455, 0.9600000455975533, 0.0, 0.0, 0.0, 0.0, 0.0, 1.6518359662457132E9, 0.0, 2022-05-06 12:19:26.245
47.0, -217.25265837600455, -106.01868394389749, -139.14110790146515, -156.81213519209996, 0.144000006839633, 0.11200000531971455, 0.9600000455975533, 0.0, 0.0, 0.0, 0.0, 0.0, 1.651835966260779E9, 0.0, 2022-05-06 12:19:26.260
47.0, -255.42955712368712, -175.57708321977407, -198.84487079409882, -174.8459327784367, 0.144000006839633, 0.11200000531971455, 0.9600000455975533, 0.0, 0.0, 0.0, 0.0, 0.0, 1.651835966260779E9, 0.0, 2022-05-06 12:19:26.260
48.0, -252.68073065625504, -136.70082318037748, -157.6536126821302, -168.41330485465005, 0.144000006839633, 0.11200000531971455, 0.9600000455975533, 0.0, 0.0, 0.0, 0.0, 0.0, 1.6518359662768269E9, 0.0, 2022-05-06 12:19:26.276
48.0, -221.9050939208828, -68.91513648349792, -99.8459790670313, -145.62983432458714, 0.144000006839633, 0.11200000531971455, 0.9600000455975533, 0.0, 0.0, 0.0, 0.0, 0.0, 1.6518359662768269E9, 0.0, 2022-05-06 12:19:26.276
49.0, -232.56380879459903, -115.36095403321087, -152.7206846405752, -169.53153494140133, 0.144000006839633, 0.11200000531971455, 0.9600000455975533, 0.0, 0.0, 0.0, 0.0, 0.0, 1.651835966277793E9, 0.0, 2022-05-06 12:19:26.277
49.0, -265.43004960520193, -179.93032676819712, -202.5623313500546, -189.47268150513992, 0.144000006839633, 0.11200000531971455, 0.9600000455975533, 0.0, 0.0, 0.0, 0.0, 0.0, 1.651835966277793E9, 0.0, 2022-05-06 12:19:26.277
50.0, -254.78629433130845, -143.1783299036324, -160.64179274672642, -168.08045375859365, 0.144000006839633, 0.11200000531971455, 0.9920000471174717, 0.0, 0.0, 0.0, 0.0, 0.0, 1.6518359662918348E9, 0.0, 2022-05-06 12:19:26.291
50.0, -212.7535587293096, -61.66347046941519, -91.31152736814693, -130.09802980860695, 0.144000006839633, 0.11200000531971455, 0.9920000471174717, 0.0, 0.0, 0.0, 0.0, 0.0, 1.6518359662918348E9, 0.0, 2022-05-06 12:19:26.291
51.0, -213.03405122598633, -95.82745656464249, -132.35692938184366, -141.66928027151152, 0.144000006839633, 0.11200000531971455, 0.9920000471174717, 0.0, 0.0, 0.0, 0.0, 0.0, 1.6518359662928188E9, 0.0, 2022-05-06 12:19:26.292
51.0, -252.93878375319764, -169.94479388650507, -195.13115013809875, -169.7708885385655, 0.144000006839633, 0.11200000531971455, 0.9920000471174717, 0.0, 0.0, 0.0, 0.0, 0.0, 1.6518359662928188E9, 0.0, 2022-05-06 12:19:26.292
52.0, -260.53826046315953, -141.71602902095765, -159.0972140650265, -176.3194533609785, 0.1600000075995922, 0.11200000531971455, 0.9920000471174717, 0.0, 0.0, 0.0, 0.0, 0.0, 1.6518359663058307E9, 0.0, 2022-05-06 12:19:26.305
52.0, -227.32420895667747, -79.94784135278314, -108.06253926968202, -163.62997281132266, 0.1600000075995922, 0.11200000531971455, 0.9920000471174717, 0.0, 0.0, 0.0, 0.0, 0.0, 1.6518359663058307E9, 0.0, 2022-05-06 12:19:26.305
53.0, -217.5705498722382, -115.42827223241329, -145.69341262383386, -159.55722175957635, 0.1600000075995922, 0.11200000531971455, 0.9920000471174717, 0.0, 0.0, 0.0, 0.0, 0.0, 1.6518359663217928E9, 0.0, 2022-05-06 12:19:26.321
53.0, -252.6994301560335, -181.31782965175807, -207.97770648589358, -182.49402818782255, 0.1600000075995922, 0.11200000531971455, 0.9920000471174717, 0.0, 0.0, 0.0, 0.0, 0.0, 1.6518359663217928E9, 0.0, 2022-05-06 12:19:26.321
54.0, -252.3590992600657, -142.1012387163937, -155.78366270428523, -172.3177604083903, 0.1600000075995922, 0.11200000531971455, 0.9920000471174717, 0.0, 0.0, 0.0, 0.0, 0.0, 1.6518359663226876E9, 0.0, 2022-05-06 12:19:26.322
54.0, -215.99605199089274, -67.22096180357039, -89.92028458463028, -132.6748208780773, 0.1600000075995922, 0.11200000531971455, 0.9920000471174717, 0.0, 0.0, 0.0, 0.0, 0.0, 1.6518359663226876E9, 0.0, 2022-05-06 12:19:26.322
55.0, -218.22503236448392, -102.36480168718845, -133.75565196527168, -148.70029218820855, 0.1600000075995922, 0.11200000531971455, 0.9920000471174717, 0.0, 0.0, 0.0, 0.0, 0.0, 1.6518359663358233E9, 0.0, 2022-05-06 12:19:26.335
55.0, -253.20431665005162, -168.50119250360876, -196.09604432666674, -180.75871460838243, 0.1600000075995922, 0.11200000531971455, 0.9920000471174717, 0.0, 0.0, 0.0, 0.0, 0.0, 1.6518359663358233E9, 0.0, 2022-05-06 12:19:26.335
56.0, -238.97025741869584, -141.6561906216666, -151.3144822572358, -166.30774117959663, 0.1600000075995922, 0.11200000531971455, 0.9920000471174717, 0.0, 0.0, 0.0, 0.0, 0.0, 1.6518359663518157E9, 0.0, 2022-05-06 12:19:26.351
56.0, -214.50009200861678, -71.54428615234792, -102.41155043663457, -148.77509018732235, 0.1600000075995922, 0.11200000531971455, 0.9920000471174717, 0.0, 0.0, 0.0, 0.0, 0.0, 1.6518359663518157E9, 0.0, 2022-05-06 12:19:26.351
57.0, -227.00631746044382, -106.57592903729528, -137.48433222109452, -161.647825834807, 0.1600000075995922, 0.11200000531971455, 0.9920000471174717, 0.0, 0.0, 0.0, 0.0, 0.0, 1.651835966352726E9, 0.0, 2022-05-06 12:19:26.352
57.0, -262.4792685401626, -183.19151952955872, -208.6321889781393, -187.95054222317412, 0.1600000075995922, 0.11200000531971455, 0.9920000471174717, 0.0, 0.0, 0.0, 0.0, 0.0, 1.651835966352726E9, 0.0, 2022-05-06 12:19:26.352
58.0, -266.4099033935927, -160.82691779453307, -170.14861843409017, -181.22994200279936, 0.1600000075995922, 0.11200000531971455, 0.9920000471174717, 0.0, 0.0, 0.0, 0.0, 0.0, 1.6518359663657663E9, 0.0, 2022-05-06 12:19:26.365
58.0, -217.17786037689075, -62.31795296166092, -90.60468627652153, -122.43123489944264, 0.1600000075995922, 0.11200000531971455, 0.9920000471174717, 0.0, 0.0, 0.0, 0.0, 0.0, 1.6518359663657663E9, 0.0, 2022-05-06 12:19:26.365
59.0, -218.3073101635091, -98.99889172706753, -136.20154653629288, -155.92577890260145, 0.1600000075995922, 0.11200000531971455, 0.9920000471174717, 0.0, 0.0, 0.0, 0.0, 0.0, 1.6518359663817697E9, 0.0, 2022-05-06 12:19:26.381
59.0, -248.19659060938284, -171.44449376873672, -190.61709089158103, -172.9909424004145, 0.1600000075995922, 0.11200000531971455, 0.9920000471174717, 0.0, 0.0, 0.0, 0.0, 0.0, 1.6518359663817697E9, 0.0, 2022-05-06 12:19:26.381
60.0, -245.70955713884905, -131.2854480445385, -154.07078852457926, -169.7334895390086, 0.1600000075995922, 0.11200000531971455, 1.008000047877431, 0.0, 0.0, 0.0, 0.0, 0.0, 1.6518359663827207E9, 0.0, 2022-05-06 12:19:26.382
60.0, -219.54895694879815, -81.35778363607824, -110.43363584158942, -162.96801051916555, 0.1600000075995922, 0.11200000531971455, 1.008000047877431, 0.0, 0.0, 0.0, 0.0, 0.0, 1.6518359663827207E9, 0.0, 2022-05-06 12:19:26.382
61.0, -225.74597117537633, -109.2013388061896, -143.10166195454076, -169.26226214459166, 0.1600000075995922, 0.11200000531971455, 1.008000047877431, 0.0, 0.0, 0.0, 0.0, 0.0, 1.6518359663958251E9, 0.0, 2022-05-06 12:19:26.395
61.0, -253.83635974256322, -178.35582888685167, -202.36037675244734, -185.1755364560522, 0.1600000075995922, 0.11200000531971455, 1.008000047877431, 0.0, 0.0, 0.0, 0.0, 0.0, 1.6518359663958251E9, 0.0, 2022-05-06 12:19:26.395
62.0, -261.38347785314545, -148.8442783365026, -165.81407438544556, -173.44721019500867, 0.1600000075995922, 0.11200000531971455, 1.008000047877431, 0.0, 0.0, 0.0, 0.0, 0.0, 1.6518359664118323E9, 0.0, 2022-05-06 12:19:26.411
62.0, -208.75560567667708, -62.553566658869386, -92.05576745932922, -135.20673314807937, 0.1600000075995922, 0.11200000531971455, 1.008000047877431, 0.0, 0.0, 0.0, 0.0, 0.0, 1.6518359664118323E9, 0.0, 2022-05-06 12:19:26.411
63.0, -213.88300851592794, -96.04063086211681, -127.56985743856058, -141.20927257696167, 0.1600000075995922, 0.11200000531971455, 1.008000047877431, 0.0, 0.0, 0.0, 0.0, 0.0, 1.651835966412788E9, 0.0, 2022-05-06 12:19:26.412
63.0, -248.29382800823078, -169.3052709940821, -200.01171958027408, -177.12727175140753, 0.1600000075995922, 0.11200000531971455, 1.008000047877431, 0.0, 0.0, 0.0, 0.0, 0.0, 1.651835966412788E9, 0.0, 2022-05-06 12:19:26.412
64.0, -251.08753327513114, -153.24988048430532, -162.07417442975566, -173.93339718924835, 0.1600000075995922, 0.11200000531971455, 1.008000047877431, 0.0, 0.0, 0.0, 0.0, 0.0, 1.6518359664417827E9, 0.0, 2022-05-06 12:19:26.441
64.0, -215.98857219098136, -68.01008069422096, -93.43953044293448, -142.40230066282675, 0.1600000075995922, 0.11200000531971455, 1.008000047877431, 0.0, 0.0, 0.0, 0.0, 0.0, 1.6518359664417827E9, 0.0, 2022-05-06 12:19:26.441
65.0, -212.05793733755127, -96.09672936145216, -126.65732184937224, -141.93107326840982, 0.1600000075995922, 0.11200000531971455, 1.008000047877431, 0.0, 0.0, 0.0, 0.0, 0.0, 1.6518359664426877E9, 0.0, 2022-05-06 12:19:26.442
65.0, -244.01538245892152, -163.96095395740122, -187.2212617318146, -161.00456304242834, 0.1600000075995922, 0.11200000531971455, 1.008000047877431, 0.0, 0.0, 0.0, 0.0, 0.0, 1.6518359664426877E9, 0.0, 2022-05-06 12:19:26.442
66.0, -254.11685223923996, -137.05985357612371, -159.6133202589117, -174.3971447837539, 0.1600000075995922, 0.11200000531971455, 1.008000047877431, 0.0, 0.0, 0.0, 0.0, 0.0, 1.651835966443735E9, 0.0, 2022-05-06 12:19:26.443
66.0, -216.9347668797709, -77.05315878707916, -108.56742576370016, -159.9125122553669, 0.1600000075995922, 0.11200000531971455, 1.008000047877431, 0.0, 0.0, 0.0, 0.0, 0.0, 1.651835966443735E9, 0.0, 2022-05-06 12:19:26.443
67.0, -213.21356642385945, -107.39496712759137, -136.63163503119722, -152.62718714168295, 0.1600000075995922, 0.11200000531971455, 1.008000047877431, 0.0, 0.0, 0.0, 0.0, 0.0, 1.6518359664557726E9, 0.0, 2022-05-06 12:19:26.455
67.0, -250.30963408434764, -171.70254686567932, -197.4835472102277, -170.37675233138725, 0.1600000075995922, 0.11200000531971455, 1.008000047877431, 0.0, 0.0, 0.0, 0.0, 0.0, 1.6518359664557726E9, 0.0, 2022-05-06 12:19:26.455
68.0, -247.4299111184664, -140.71747573278844, -157.26840298669413, -158.00142337800935, 0.1600000075995922, 0.11200000531971455, 1.008000047877431, 0.0, 0.0, 0.0, 0.0, 0.0, 1.6518359664717636E9, 0.0, 2022-05-06 12:19:26.471
68.0, -202.8914425461553, -62.8826778549701, -86.5805539241992, -120.11623682687059, 0.1600000075995922, 0.11200000531971455, 1.008000047877431, 0.0, 0.0, 0.0, 0.0, 0.0, 1.6518359664717636E9, 0.0, 2022-05-06 12:19:26.471
69.0, -219.72473224671558, -98.09383593779057, -138.05279701435938, -167.22401666874066, 0.1600000075995922, 0.11200000531971455, 1.008000047877431, 0.0, 0.0, 0.0, 0.0, 0.0, 1.6518359664726877E9, 0.0, 2022-05-06 12:19:26.472
69.0, -256.8918580063619, -188.6816926645115, -214.79928400507197, -207.10630979621783, 0.1600000075995922, 0.11200000531971455, 1.008000047877431, 0.0, 0.0, 0.0, 0.0, 0.0, 1.6518359664726877E9, 0.0, 2022-05-06 12:19:26.472
70.0, -253.15943785058334, -152.06059229839593, -166.62563267583027, -178.11086543975398, 0.1600000075995922, 0.11200000531971455, 1.008000047877431, 0.0, 0.0, 0.0, 0.0, 0.0, 1.6518359665017664E9, 0.0, 2022-05-06 12:19:26.501
70.0, -220.08002274250612, -71.45078865345567, -100.78095405595377, -149.61656767735258, 0.1600000075995922, 0.11200000531971455, 1.008000047877431, 0.0, 0.0, 0.0, 0.0, 0.0, 1.6518359665017664E9, 0.0, 2022-05-06 12:19:26.501
71.0, -205.1952209188603, -88.10456315614283, -122.27789900125936, -140.62958808382973, 0.1600000075995922, 0.11200000531971455, 1.008000047877431, 0.0, 0.0, 0.0, 0.0, 0.0, 1.6518359665026927E9, 0.0, 2022-05-06 12:19:26.502
71.0, -243.94058445980772, -167.58491701446474, -184.16576346801594, -167.7326430627145, 0.1600000075995922, 0.11200000531971455, 1.008000047877431, 0.0, 0.0, 0.0, 0.0, 0.0, 1.6518359665026927E9, 0.0, 2022-05-06 12:19:26.502
72.0, -243.394559066277, -142.68092320952564, -159.8713733558543, -165.72057688655332, 0.1600000075995922, 0.11200000531971455, 1.008000047877431, 0.0, 0.0, 0.0, 0.0, 0.0, 1.651835966503805E9, 0.0, 2022-05-06 12:19:26.503
72.0, -211.13792194845155, -66.70859550964087, -98.16676398692653, -145.66349342418835, 0.1600000075995922, 0.11200000531971455, 1.008000047877431, 0.0, 0.0, 0.0, 0.0, 0.0, 1.651835966503805E9, 0.0, 2022-05-06 12:19:26.503
73.0, -209.95611356245354, -94.96727957483381, -122.55091169802472, -141.84131566947326, 0.1600000075995922, 0.11200000531971455, 1.008000047877431, 0.0, 0.0, 0.0, 0.0, 0.0, 1.651835966515869E9, 0.0, 2022-05-06 12:19:26.515
73.0, -248.36488610738888, -170.87976887542754, -194.06153875077143, -175.2461020736955, 0.1600000075995922, 0.11200000531971455, 1.008000047877431, 0.0, 0.0, 0.0, 0.0, 0.0, 1.651835966515869E9, 0.0, 2022-05-06 12:19:26.515
74.0, -264.49881451623514, -150.01860692258924, -168.8807923491113, -180.3585453131236, 0.1600000075995922, 0.11200000531971455, 1.008000047877431, 0.0, 0.0, 0.0, 0.0, 0.0, 1.6518359665318255E9, 0.0, 2022-05-06 12:19:26.531
74.0, -212.12525553675368, -68.6271641869098, -99.15035767527297, -143.24377815285698, 0.1600000075995922, 0.11200000531971455, 1.008000047877431, 0.0, 0.0, 0.0, 0.0, 0.0, 1.6518359665318255E9, 0.0, 2022-05-06 12:19:26.531
75.0, -201.01401276839897, -84.0766909038648, -121.90016910573468, -138.31459001125768, 0.1600000075995922, 0.11200000531971455, 1.008000047877431, 0.0, 0.0, 0.0, 0.0, 0.0, 1.6518359665326848E9, 0.0, 2022-05-06 12:19:26.532
75.0, -255.37719852430746, -172.3084106585011, -197.5620851092972, -177.94630984170362, 0.1600000075995922, 0.11200000531971455, 1.008000047877431, 0.0, 0.0, 0.0, 0.0, 0.0, 1.6518359665326848E9, 0.0, 2022-05-06 12:19:26.532
76.0, -250.9192377771251, -150.68430911470205, -161.77124253334478, -168.25622905651107, 0.1600000075995922, 0.11200000531971455, 1.008000047877431, 0.0, 0.0, 0.0, 0.0, 0.0, 1.6518359665617807E9, 0.0, 2022-05-06 12:19:26.561
76.0, -215.1171755013056, -73.5526124285534, -100.29476706171408, -138.35198901081458, 0.1600000075995922, 0.11200000531971455, 1.008000047877431, 0.0, 0.0, 0.0, 0.0, 0.0, 1.6518359665617807E9, 0.0, 2022-05-06 12:19:26.561
77.0, -215.59588269563392, -98.5276643326506, -134.3764753579162, -160.03966885386035, 0.1600000075995922, 0.11200000531971455, 1.008000047877431, 0.0, 0.0, 0.0, 0.0, 0.0, 1.6518359665627341E9, 0.0, 2022-05-06 12:19:26.562
77.0, -252.96122315293178, -175.46488622110337, -200.71482077194378, -183.586078974884, 0.1600000075995922, 0.11200000531971455, 1.008000047877431, 0.0, 0.0, 0.0, 0.0, 0.0, 1.6518359665627341E9, 0.0, 2022-05-06 12:19:26.562
78.0, -242.95699077146128, -143.74679469689727, -160.4286184492521, -169.8718658373691, 0.1600000075995922, 0.11200000531971455, 1.008000047877431, 0.0, 0.0, 0.0, 0.0, 0.0, 1.6518359665637305E9, 0.0, 2022-05-06 12:19:26.563
78.0, -203.95357413357124, -62.35535196121782, -84.95369744347408, -136.28008443536237, 0.1600000075995922, 0.11200000531971455, 1.008000047877431, 0.0, 0.0, 0.0, 0.0, 0.0, 1.6518359665637305E9, 0.0, 2022-05-06 12:19:26.563
79.0, -198.84487079409882, -79.09888406284153, -109.61833765124902, -124.31240457715467, 0.1600000075995922, 0.11200000531971455, 1.008000047877431, 0.0, 0.0, 0.0, 0.0, 0.0, 1.6518359665758383E9, 0.0, 2022-05-06 12:19:26.575
79.0, -250.0291415876709, -170.6366753783077, -191.74654067819938, -166.6181528759189, 0.1600000075995922, 0.11200000531971455, 1.008000047877431, 0.0, 0.0, 0.0, 0.0, 0.0, 1.6518359665758383E9, 0.0, 2022-05-06 12:19:26.575
80.0, -251.18477067397907, -147.60637145116925, -166.19554418092594, -179.2515349262394, 0.1600000075995922, 0.11200000531971455, 1.008000047877431, 0.0, 0.0, 0.0, 0.0, 0.0, 1.651835966591789E9, 0.0, 2022-05-06 12:19:26.591
80.0, -217.66778727108613, -82.83504411857575, -102.84911873145029, -151.44537875568494, 0.1600000075995922, 0.11200000531971455, 1.008000047877431, 0.0, 0.0, 0.0, 0.0, 0.0, 1.651835966591789E9, 0.0, 2022-05-06 12:19:26.591
81.0, -215.88011509226635, -94.34645618218929, -131.13772199628875, -155.37227370915934, 0.1600000075995922, 0.11200000531971455, 1.008000047877431, 0.0, 0.0, 0.0, 0.0, 0.0, 1.6518359665926812E9, 0.0, 2022-05-06 12:19:26.592
81.0, -262.34463214175776, -192.49265071935952, -213.5651170196943, -196.87768341740593, 0.1600000075995922, 0.11200000531971455, 1.008000047877431, 0.0, 0.0, 0.0, 0.0, 0.0, 1.6518359665926812E9, 0.0, 2022-05-06 12:19:26.592
82.0, -254.15051133884117, -162.13962267898023, -176.27831446146592, -178.810226731468, 0.1600000075995922, 0.11200000531971455, 1.008000047877431, 0.0, 0.0, 0.0, 0.0, 0.0, 1.651835966635915E9, 0.0, 2022-05-06 12:19:26.635
82.0, -211.44085384486243, -75.0336128110066, -103.67563662165776, -150.3495880686678, 0.1600000075995922, 0.11200000531971455, 1.008000047877431, 0.0, 0.0, 0.0, 0.0, 0.0, 1.651835966635915E9, 0.0, 2022-05-06 12:19:26.635
83.0, -193.91194275254384, -85.50907258689404, -117.69652155553922, -139.8255095933564, 0.1600000075995922, 0.11200000531971455, 1.008000047877431, 0.0, 0.0, 0.0, 0.0, 0.0, 1.6518359666538472E9, 0.0, 2022-05-06 12:19:26.653
83.0, -251.27078837295994, -174.94504012726247, -191.6605229792185, -164.9127584961243, 0.1600000075995922, 0.11200000531971455, 1.008000047877431, 0.0, 0.0, 0.0, 0.0, 0.0, 1.6518359666538472E9, 0.0, 2022-05-06 12:19:26.653
84.0, -251.64851826848462, -140.85211213119328, -162.1003537294455, -160.05088855372742, 0.1600000075995922, 0.11200000531971455, 1.008000047877431, 0.0, 0.0, 0.0, 0.0, 0.0, 1.6518359666546783E9, 0.0, 2022-05-06 12:19:26.654
84.0, -225.3869407796301, -74.71198141481727, -109.65573665080592, -165.95619058376178, 0.1600000075995922, 0.11200000531971455, 1.008000047877431, 0.0, 0.0, 0.0, 0.0, 0.0, 1.6518359666546783E9, 0.0, 2022-05-06 12:19:26.654
85.0, -218.41202736226842, -99.38784132245928, -129.892335311044, -165.3540666908957, 0.1600000075995922, 0.11200000531971455, 1.008000047877431, 0.0, 0.0, 0.0, 0.0, 0.0, 1.6518359666557343E9, 0.0, 2022-05-06 12:19:26.655
85.0, -244.71100385067984, -169.933574186638, -191.24165418418124, -178.5521736345254, 0.1600000075995922, 0.11200000531971455, 1.008000047877431, 0.0, 0.0, 0.0, 0.0, 0.0, 1.6518359666557343E9, 0.0, 2022-05-06 12:19:26.655
86.0, -250.9154978771694, -155.0712117627263, -167.36613286705688, -162.51174272457138, 0.1600000075995922, 0.11200000531971455, 1.008000047877431, 0.0, 0.0, 0.0, 0.0, 0.0, 1.6518359666567502E9, 0.0, 2022-05-06 12:19:26.656
86.0, -215.8651554924436, -69.65563667472452, -96.6184454052709, -141.65432067168877, 0.1600000075995922, 0.11200000531971455, 1.008000047877431, 0.0, 0.0, 0.0, 0.0, 0.0, 1.6518359666567502E9, 0.0, 2022-05-06 12:19:26.656
87.0, -208.2245398829691, -86.5973834739998, -123.34377048863098, -153.37890703277662, 0.1600000075995922, 0.11200000531971455, 1.008000047877431, 0.0, 0.0, 0.0, 0.0, 0.0, 1.6518359666827743E9, 0.0, 2022-05-06 12:19:26.682
87.0, -246.33038053149357, -176.08944951370358, -195.63603663211688, -177.52744104666635, 0.1600000075995922, 0.11200000531971455, 1.008000047877431, 0.0, 0.0, 0.0, 0.0, 0.0, 1.6518359666827743E9, 0.0, 2022-05-06 12:19:26.682
88.0, -240.4250785014592, -137.61335876956582, -149.14534028293565, -142.7201921590604, 0.1600000075995922, 0.11200000531971455, 1.008000047877431, 0.0, 0.0, 0.0, 0.0, 0.0, 1.6518359666836617E9, 0.0, 2022-05-06 12:19:26.683
88.0, -204.3013848294504, -55.5823931414634, -87.84090020926669, -134.95989975100383, 0.1600000075995922, 0.11200000531971455, 1.008000047877431, 0.0, 0.0, 0.0, 0.0, 0.0, 1.6518359666836617E9, 0.0, 2022-05-06 12:19:26.683
89.0, -208.05624438496307, -78.46310107037425, -114.10621759807691, -142.43221986247227, 0.1600000075995922, 0.11200000531971455, 1.008000047877431, 0.0, 0.0, 0.0, 0.0, 0.0, 1.6518359666847353E9, 0.0, 2022-05-06 12:19:26.684
89.0, -251.30818737251684, -171.14530177228153, -193.20510166091844, -176.14741796301678, 0.1600000075995922, 0.11200000531971455, 1.008000047877431, 0.0, 0.0, 0.0, 0.0, 0.0, 1.6518359666847353E9, 0.0, 2022-05-06 12:19:26.684
90.0, -251.7719349670224, -156.3726969473064, -177.4750824472867, -181.63011129805818, 0.1600000075995922, 0.11200000531971455, 1.008000047877431, 0.0, 0.0, 0.0, 0.0, 0.0, 1.6518359666857228E9, 0.0, 2022-05-06 12:19:26.685
90.0, -214.08870301349089, -62.628364657983184, -91.56584056513384, -133.6733741662465, 0.1600000075995922, 0.11200000531971455, 1.008000047877431, 0.0, 0.0, 0.0, 0.0, 0.0, 1.6518359666857228E9, 0.0, 2022-05-06 12:19:26.685
91.0, -209.27545177051798, -92.1174758085981, -123.53824528632686, -148.95834528515115, 0.1600000075995922, 0.11200000531971455, 1.008000047877431, 0.0, 0.0, 0.0, 0.0, 0.0, 1.65183596669575E9, 0.0, 2022-05-06 12:19:26.695
91.0, -248.92213120078668, -180.25195816438645, -201.80687155900523, -187.61395122716203, 0.1600000075995922, 0.11200000531971455, 1.008000047877431, 0.0, 0.0, 0.0, 0.0, 0.0, 1.65183596669575E9, 0.0, 2022-05-06 12:19:26.695
92.0, -260.27646746626124, -163.05215826816857, -177.1796303507872, -186.34986504213884, 0.1600000075995922, 0.11200000531971455, 1.008000047877431, 0.0, 0.0, 0.0, 0.0, 0.0, 1.651835966711717E9, 0.0, 2022-05-06 12:19:26.711
92.0, -223.65162720018998, -86.44404757581651, -115.79665237804875, -160.5445553478785, 0.1600000075995922, 0.11200000531971455, 1.008000047877431, 0.0, 0.0, 0.0, 0.0, 0.0, 1.651835966711717E9, 0.0, 2022-05-06 12:19:26.711
93.0, -203.65064223716035, -87.86520955897868, -122.56587129784748, -148.85362808639184, 0.1600000075995922, 0.11200000531971455, 1.008000047877431, 0.0, 0.0, 0.0, 0.0, 0.0, 1.651835966712666E9, 0.0, 2022-05-06 12:19:26.712
93.0, -261.3012000541203, -178.95047297980636, -196.0362059273757, -179.56568652251735, 0.1600000075995922, 0.11200000531971455, 1.008000047877431, 0.0, 0.0, 0.0, 0.0, 0.0, 1.651835966712666E9, 0.0, 2022-05-06 12:19:26.712
94.0, -258.30928008956835, -156.48863384593278, -173.92965728929266, -177.38532484835014, 0.1600000075995922, 0.11200000531971455, 1.008000047877431, 0.0, 0.0, 0.0, 0.0, 0.0, 1.6518359667417705E9, 0.0, 2022-05-06 12:19:26.741
94.0, -214.1223621130921, -63.372604749165475, -100.24240846233442, -140.09478239016607, 0.1600000075995922, 0.11200000531971455, 1.008000047877431, 0.0, 0.0, 0.0, 0.0, 0.0, 1.6518359667417705E9, 0.0, 2022-05-06 12:19:26.741
95.0, -205.75620591221377, -82.55455162189901, -107.68480937415734, -132.94783357484266, 0.1600000075995922, 0.11200000531971455, 1.008000047877431, 0.0, 0.0, 0.0, 0.0, 0.0, 1.651835966742669E9, 0.0, 2022-05-06 12:19:26.742
95.0, -232.64234669366851, -162.27425907738507, -182.7745206844993, -155.6527662058361, 0.1600000075995922, 0.11200000531971455, 1.008000047877431, 0.0, 0.0, 0.0, 0.0, 0.0, 1.651835966742669E9, 0.0, 2022-05-06 12:19:26.742
96.0, -244.63620585156605, -150.60577121563256, -176.03522096434608, -173.41355109540746, 0.1600000075995922, 0.11200000531971455, 1.008000047877431, 0.0, 0.0, 0.0, 0.0, 0.0, 1.6518359667436976E9, 0.0, 2022-05-06 12:19:26.743
96.0, -218.36340866284445, -72.7036551386118, -104.75272780889645, -151.39676005626097, 0.1600000075995922, 0.11200000531971455, 1.008000047877431, 0.0, 0.0, 0.0, 0.0, 0.0, 1.6518359667436976E9, 0.0, 2022-05-06 12:19:26.743
97.0, -213.02283152611926, -91.73974591307342, -124.69013447267935, -160.23414365155622, 0.1600000075995922, 0.11200000531971455, 1.008000047877431, 0.0, 0.0, 0.0, 0.0, 0.0, 1.6518359667557948E9, 0.0, 2022-05-06 12:19:26.755
97.0, -243.59651366388425, -173.49769884441048, -191.9971139752306, -175.27602127334103, 0.1600000075995922, 0.11200000531971455, 1.008000047877431, 0.0, 0.0, 0.0, 0.0, 0.0, 1.6518359667557948E9, 0.0, 2022-05-06 12:19:26.755
98.0, -246.7642089263536, -148.56752573978156, -162.76979582151398, -163.0540282181464, 0.1600000075995922, 0.11200000531971455, 1.008000047877431, 0.0, 0.0, 0.0, 0.0, 0.0, 1.651835966771721E9, 0.0, 2022-05-06 12:19:26.771
98.0, -203.10835674358532, -60.597598982043564, -75.4244323563762, -106.3272256902419, 0.1600000075995922, 0.11200000531971455, 1.008000047877431, 0.0, 0.0, 0.0, 0.0, 0.0, 1.651835966771721E9, 0.0, 2022-05-06 12:19:26.771
99.0, -199.65268918452784, -72.26234694384038, -106.79845308465883, -121.63463620888069, 0.1600000075995922, 0.11200000531971455, 1.008000047877431, 0.0, 0.0, 0.0, 0.0, 0.0, 1.6518359667726612E9, 0.0, 2022-05-06 12:19:26.772
99.0, -242.41096537793055, -169.75779888872057, -198.66161569627002, -202.39403585204855, 0.1600000075995922, 0.11200000531971455, 1.008000047877431, 0.0, 0.0, 0.0, 0.0, 0.0, 1.6518359667726612E9, 0.0, 2022-05-06 12:19:26.772
100.0, -263.82937242416665, -163.36256996449083, -185.20545565569773, -196.13718322617933, 0.1600000075995922, 0.11200000531971455, 1.008000047877431, 0.0, 0.0, 0.0, 0.0, 0.0, 1.6518359668018053E9, 0.0, 2022-05-06 12:19:26.801
100.0, -220.7906037340872, -74.38661011867225, -108.59734496334568, -153.19565193494782, 0.1600000075995922, 0.11200000531971455, 1.008000047877431, 0.0, 0.0, 0.0, 0.0, 0.0, 1.6518359668018053E9, 0.0, 2022-05-06 12:19:26.801
0.0, -223.5113809518516, -101.272750900127, -137.9705192153342, -164.3929124022834, 0.1600000075995922, 0.11200000531971455, 1.008000047877431, 0.0, 0.0, 0.0, 0.0, 0.0, 1.6518359668027008E9, 0.0, 2022-05-06 12:19:26.802
1.0, -259.10774873010814, -191.39312013238668, -213.09762952523306, -193.32103855954483, 0.1600000075995922, 0.11200000531971455, 1.008000047877431, 0.0, 0.0, 0.0, 0.0, 0.0, 1.6518359668037353E9, 0.0, 2022-05-06 12:19:26.803
1.0, -265.2374447574839, -169.27909169439226, -182.52394738746807, -189.13235060917214, 0.1600000075995922, 0.11200000531971455, 1.008000047877431, 0.0, 0.0, 0.0, 0.0, 0.0, 1.6518359668037353E9, 0.0, 2022-05-06 12:19:26.803
2.0, -227.74494770169258, -80.76313954312354, -106.25990749103948, -158.28939567459747, 0.1600000075995922, 0.11200000531971455, 1.008000047877431, 0.0, 0.0, 0.0, 0.0, 0.0, 1.651835966831777E9, 0.0, 2022-05-06 12:19:26.831
2.0, -220.89345098286867, -99.1223084256053, -126.88919564662501, -153.6481798295863, 0.1600000075995922, 0.11200000531971455, 1.008000047877431, 0.0, 0.0, 0.0, 0.0, 0.0, 1.651835966831777E9, 0.0, 2022-05-06 12:19:26.831
3.0, -260.2708576163277, -183.35233522765338, -202.54363185027614, -189.28194660739973, 0.1600000075995922, 0.11200000531971455, 1.008000047877431, 0.0, 0.0, 0.0, 0.0, 0.0, 1.65183596683272E9, 0.0, 2022-05-06 12:19:26.832
3.0, -258.35976873897016, -160.75959959533066, -185.141877356451, -180.46700241183862, 0.1600000075995922, 0.11200000531971455, 1.008000047877431, 0.0, 0.0, 0.0, 0.0, 0.0, 1.65183596683272E9, 0.0, 2022-05-06 12:19:26.832
4.0, -219.13569800369442, -78.43318187072873, -103.8850710191764, -143.6102883485146, 0.1600000075995922, 0.11200000531971455, 1.008000047877431, 0.0, 0.0, 0.0, 0.0, 0.0, 1.6518359668336825E9, 0.0, 2022-05-06 12:19:26.833
4.0, -224.9923813343048, -81.69437463209033, -115.3703037831001, -142.07692936668172, 0.1600000075995922, 0.11200000531971455, 1.008000047877431, 0.0, 0.0, 0.0, 0.0, 0.0, 1.6518359668336825E9, 0.0, 2022-05-06 12:19:26.833
5.0, -254.20847978815436, -174.3466561343521, -196.3690570234321, -184.3639781656675, 0.1600000075995922, 0.11200000531971455, 1.008000047877431, 0.0, 0.0, 0.0, 0.0, 0.0, 1.6518359668467772E9, 0.0, 2022-05-06 12:19:26.846
5.0, -254.21595958806574, -165.16146184317768, -182.04898009309545, -175.30594047298655, 0.1600000075995922, 0.11200000531971455, 1.008000047877431, 0.0, 0.0, 0.0, 0.0, 0.0, 1.6518359668467772E9, 0.0, 2022-05-06 12:19:26.846
6.0, -226.50704081635922, -73.58253162819892, -102.72196213295683, -140.40145418653265, 0.1600000075995922, 0.11200000531971455, 1.008000047877431, 0.0, 0.0, 0.0, 0.0, 0.0, 1.6518359668476653E9, 0.0, 2022-05-06 12:19:26.847
6.0, -232.31884534750134, -101.0857559023425, -139.87038839282468, -170.72082312731072, 0.1600000075995922, 0.11200000531971455, 1.008000047877431, 0.0, 0.0, 0.0, 0.0, 0.0, 1.6518359668476653E9, 0.0, 2022-05-06 12:19:26.847
7.0, -253.0827699014917, -174.72812592983246, -197.21801431337371, -183.28314707847312, 0.1600000075995922, 0.11200000531971455, 1.008000047877431, 0.0, 0.0, 0.0, 0.0, 0.0, 1.651835966876735E9, 0.0, 2022-05-06 12:19:26.876
7.0, -256.7179526584223, -160.0041398042813, -171.78669461468235, -165.01747569488361, 0.1600000075995922, 0.11200000531971455, 1.008000047877431, 0.0, 0.0, 0.0, 0.0, 0.0, 1.651835966876735E9, 0.0, 2022-05-06 12:19:26.876
8.0, -225.83385882433504, -65.71378212142736, -102.05625994084403, -138.25101171201095, 0.1600000075995922, 0.11200000531971455, 1.008000047877431, 0.0, 0.0, 0.0, 0.0, 0.0, 1.651835966877736E9, 0.0, 2022-05-06 12:19:26.877
8.0, -218.53357411082834, -75.49362050555646, -115.54607908101752, -145.32316252822056, 0.1600000075995922, 0.11200000531971455, 1.008000047877431, 0.0, 0.0, 0.0, 0.0, 0.0, 1.651835966877736E9, 0.0, 2022-05-06 12:19:26.877
9.0, -253.43806039728224, -168.77046530041844, -193.96804125187919, -195.30692543601617, 0.1600000075995922, 0.11200000531971455, 1.008000047877431, 0.0, 0.0, 0.0, 0.0, 0.0, 1.65183596687873E9, 0.0, 2022-05-06 12:19:26.878
9.0, -267.17471293453127, -172.5290647558868, -188.79201971320435, -196.29051912436262, 0.1600000075995922, 0.11200000531971455, 1.008000047877431, 0.0, 0.0, 0.0, 0.0, 0.0, 1.65183596687873E9, 0.0, 2022-05-06 12:19:26.878
10.0, -246.0031392853707, -104.21979206521064, -130.43836070457473, -176.880438354332, 0.1600000075995922, 0.11200000531971455, 1.008000047877431, 0.0, 0.0, 0.0, 0.0, 0.0, 1.651835966890788E9, 0.0, 2022-05-06 12:19:26.890
10.0, -224.22944174334407, -96.90454775188118, -127.23700634250417, -157.59003438288346, 0.1600000075995922, 0.11200000531971455, 1.008000047877431, 0.0, 0.0, 0.0, 0.0, 0.0, 1.651835966890788E9, 0.0, 2022-05-06 12:19:26.890
11.0, -244.94474759791046, -178.7522582821548, -198.24274690123275, -180.13415131578222, 0.1600000075995922, 0.11200000531971455, 1.008000047877431, 0.0, 0.0, 0.0, 0.0, 0.0, 1.6518359669387133E9, 0.0, 2022-05-06 12:19:26.938
11.0, -255.8203766690567, -166.4853864274919, -185.97587504656985, -175.16382427467033, 0.1600000075995922, 0.11200000531971455, 1.008000047877431, 0.0, 0.0, 0.0, 0.0, 0.0, 1.6518359669387133E9, 0.0, 2022-05-06 12:19:26.938
12.0, -225.12701773270965, -70.0707655698061, -106.42446308908984, -147.32026910455897, 0.1600000075995922, 0.11200000531971455, 1.008000047877431, 0.0, 0.0, 0.0, 0.0, 0.0, 1.6518359669396672E9, 0.0, 2022-05-06 12:19:26.939
12.0, -217.29940712545067, -82.47975362278521, -111.67154272692278, -145.22966502932832, 0.1600000075995922, 0.11200000531971455, 1.008000047877431, 0.0, 0.0, 0.0, 0.0, 0.0, 1.6518359669396672E9, 0.0, 2022-05-06 12:19:26.939
13.0, -251.10062292497605, -165.748626136221, -178.9598227296956, -151.2060251585208, 0.1600000075995922, 0.11200000531971455, 1.008000047877431, 0.0, 0.0, 0.0, 0.0, 0.0, 1.651835966940724E9, 0.0, 2022-05-06 12:19:26.940
13.0, -250.0497110374272, -159.15892241429538, -176.42791045969352, -161.29253533901647, 0.1600000075995922, 0.11200000531971455, 1.008000047877431, 0.0, 0.0, 0.0, 0.0, 0.0, 1.651835966940724E9, 0.0, 2022-05-06 12:19:26.940
14.0, -230.5199534688145, -81.01745274011046, -113.83320490131155, -160.03592895390466, 0.1600000075995922, 0.11200000531971455, 1.008000047877431, 0.0, 0.0, 0.0, 0.0, 0.0, 1.651835966941717E9, 0.0, 2022-05-06 12:19:26.941
14.0, -224.53237363975495, -83.84107720665634, -117.50204675784335, -158.99623676622286, 0.1600000075995922, 0.11200000531971455, 1.008000047877431, 0.0, 0.0, 0.0, 0.0, 0.0, 1.651835966941717E9, 0.0, 2022-05-06 12:19:26.941
15.0, -250.85378952790052, -171.47441296838224, -188.76958031347021, -176.79068075539544, 0.1600000075995922, 0.11200000531971455, 1.008000047877431, 0.0, 0.0, 0.0, 0.0, 0.0, 1.6518359669517033E9, 0.0, 2022-05-06 12:19:26.951
15.0, -248.65098845399916, -162.16954187862575, -170.00276233581826, -166.3189608794637, 0.1600000075995922, 0.11200000531971455, 1.008000047877431, 0.0, 0.0, 0.0, 0.0, 0.0, 1.6518359669517033E9, 0.0, 2022-05-06 12:19:26.951
16.0, -238.485940374434, -83.75131960771978, -111.89967662421986, -152.88524023862556, 0.1600000075995922, 0.11200000531971455, 1.008000047877431, 0.0, 0.0, 0.0, 0.0, 0.0, 1.6518359669526656E9, 0.0, 2022-05-06 12:19:26.952
16.0, -215.68003044463694, -84.23750660195947, -119.90680242935196, -150.37576736835763, 0.1600000075995922, 0.11200000531971455, 1.008000047877431, 0.0, 0.0, 0.0, 0.0, 0.0, 1.6518359669526656E9, 0.0, 2022-05-06 12:19:26.952
17.0, -260.8692416092381, -177.61158879566938, -197.97721400437877, -182.0714194928296, 0.1600000075995922, 0.11200000531971455, 1.008000047877431, 0.0, 0.0, 0.0, 0.0, 0.0, 1.6518359669667985E9, 0.0, 2022-05-06 12:19:26.966
17.0, -261.5312039013952, -174.6795072304085, -191.61938407970592, -188.94535561138764, 0.1600000075995922, 0.11200000531971455, 1.008000047877431, 0.0, 0.0, 0.0, 0.0, 0.0, 1.6518359669667985E9, 0.0, 2022-05-06 12:19:26.966
18.0, -233.78862603008747, -80.16101565025747, -111.68276242678985, -152.99743723729625, 0.1600000075995922, 0.11200000531971455, 1.008000047877431, 0.0, 0.0, 0.0, 0.0, 0.0, 1.651835966967684E9, 0.0, 2022-05-06 12:19:26.967
18.0, -213.8811385659501, -69.78279327321798, -104.38621761323884, -136.22024603607133, 0.1600000075995922, 0.11200000531971455, 1.008000047877431, 0.0, 0.0, 0.0, 0.0, 0.0, 1.651835966967684E9, 0.0, 2022-05-06 12:19:26.967
19.0, -253.74473219364882, -164.73511324822903, -192.23646757239476, -181.11774500412866, 0.1600000075995922, 0.11200000531971455, 1.008000047877431, 0.0, 0.0, 0.0, 0.0, 0.0, 1.6518359669967425E9, 0.0, 2022-05-06 12:19:26.996
19.0, -258.03065754286945, -163.02597896847874, -184.33405896602198, -178.1445245393552, 0.1600000075995922, 0.11200000531971455, 1.008000047877431, 0.0, 0.0, 0.0, 0.0, 0.0, 1.6518359669967425E9, 0.0, 2022-05-06 12:19:26.996
20.0, -232.38616354670376, -85.69980748463422, -117.47586745815352, -161.78246223321185, 0.1600000075995922, 0.11200000531971455, 1.008000047877431, 0.0, 0.0, 0.0, 0.0, 0.0, 1.651835966997664E9, 0.0, 2022-05-06 12:19:26.997
20.0, -232.15802964940667, -90.09045003261417, -120.78941881889477, -156.6513194940053, 0.1600000075995922, 0.11200000531971455, 1.008000047877431, 0.0, 0.0, 0.0, 0.0, 0.0, 1.651835966997664E9, 0.0, 2022-05-06 12:19:26.997
21.0, -258.88709463272244, -174.12600203696638, -196.57101162103936, -186.1853094440885, 0.1600000075995922, 0.12800000607967377, 1.008000047877431, 0.0, 0.0, 0.0, 0.0, 0.0, 1.6518359669986997E9, 0.0, 2022-05-06 12:19:26.998
21.0, -263.36749477963895, -170.1953671835363, -192.45338176982477, -182.31451298994943, 0.1600000075995922, 0.12800000607967377, 1.008000047877431, 0.0, 0.0, 0.0, 0.0, 0.0, 1.6518359669986997E9, 0.0, 2022-05-06 12:19:26.998
22.0, -225.63938402663916, -80.01515955198556, -111.7014619265683, -152.19335874682292, 0.1600000075995922, 0.12800000607967377, 1.008000047877431, 0.0, 0.0, 0.0, 0.0, 0.0, 1.651835967010775E9, 0.0, 2022-05-06 12:19:27.010
22.0, -219.91359719447792, -84.87702949438244, -115.00379358744249, -147.71295859990641, 0.1600000075995922, 0.12800000607967377, 1.008000047877431, 0.0, 0.0, 0.0, 0.0, 0.0, 1.651835967010775E9, 0.0, 2022-05-06 12:19:27.010
23.0, -243.4151285160333, -158.4408616228029, -179.775120920036, -154.84120791545138, 0.1600000075995922, 0.12800000607967377, 1.008000047877431, 0.0, 0.0, 0.0, 0.0, 0.0, 1.6518359670267136E9, 0.0, 2022-05-06 12:19:27.026
23.0, -260.88794110901654, -167.17352801933885, -184.6631701621227, -177.46386274741963, 0.1600000075995922, 0.12800000607967377, 1.008000047877431, 0.0, 0.0, 0.0, 0.0, 0.0, 1.6518359670267136E9, 0.0, 2022-05-06 12:19:27.026
24.0, -227.24006120767444, -80.88281634170562, -109.02369355829433, -154.29892242187634, 0.1600000075995922, 0.12800000607967377, 1.008000047877431, 0.0, 0.0, 0.0, 0.0, 0.0, 1.6518359670276976E9, 0.0, 2022-05-06 12:19:27.027
24.0, -202.5081028006971, -75.05979211069643, -109.34906485443935, -151.0938281598501, 0.1600000075995922, 0.12800000607967377, 1.008000047877431, 0.0, 0.0, 0.0, 0.0, 0.0, 1.6518359670276976E9, 0.0, 2022-05-06 12:19:27.027
25.0, -254.03644439019263, -178.50168498512357, -191.58198508014902, -180.79985350789502, 0.1600000075995922, 0.12800000607967377, 1.008000047877431, 0.0, 0.0, 0.0, 0.0, 0.0, 1.6518359670567212E9, 0.0, 2022-05-06 12:19:27.056
25.0, -258.62156173586845, -171.72872616536915, -181.87694469513372, -165.97862998349592, 0.1600000075995922, 0.12800000607967377, 1.008000047877431, 0.0, 0.0, 0.0, 0.0, 0.0, 1.6518359670567212E9, 0.0, 2022-05-06 12:19:27.056
26.0, -229.7009153785184, -84.04303180426359, -115.68071547942236, -156.73733719298616, 0.1600000075995922, 0.12800000607967377, 1.008000047877431, 0.0, 0.0, 0.0, 0.0, 0.0, 1.6518359670577056E9, 0.0, 2022-05-06 12:19:27.057
26.0, -223.27576725464314, -85.19866089057177, -117.60676395660266, -150.5665022660978, 0.1600000075995922, 0.12800000607967377, 1.008000047877431, 0.0, 0.0, 0.0, 0.0, 0.0, 1.6518359670577056E9, 0.0, 2022-05-06 12:19:27.057
27.0, -244.35010350495577, -162.2966984771192, -182.44914938835427, -159.11217366484925, 0.1600000075995922, 0.12800000607967377, 1.008000047877431, 0.0, 0.0, 0.0, 0.0, 0.0, 1.6518359670587335E9, 0.0, 2022-05-06 12:19:27.058
27.0, -255.21077297627926, -164.28632525354624, -184.1433240682818, -164.3181144031696, 0.1600000075995922, 0.12800000607967377, 1.008000047877431, 0.0, 0.0, 0.0, 0.0, 0.0, 1.6518359670587335E9, 0.0, 2022-05-06 12:19:27.058
28.0, -229.13993038516492, -82.62186982110143, -112.50928031699732, -162.57158112386242, 0.1600000075995922, 0.12800000607967377, 1.008000047877431, 0.0, 0.0, 0.0, 0.0, 0.0, 1.6518359670707874E9, 0.0, 2022-05-06 12:19:27.070
28.0, -207.9459173362702, -78.65009606815875, -110.52713334048167, -146.73684471147135, 0.1600000075995922, 0.12800000607967377, 1.008000047877431, 0.0, 0.0, 0.0, 0.0, 0.0, 1.6518359670707874E9, 0.0, 2022-05-06 12:19:27.070
29.0, -247.68235436547548, -175.25919172354043, -198.69153489591554, -189.02015361050144, 0.1600000075995922, 0.12800000607967377, 1.008000047877431, 0.0, 0.0, 0.0, 0.0, 0.0, 1.651835967085781E9, 0.0, 2022-05-06 12:19:27.085
29.0, -276.947071518749, -174.57479003164917, -195.16480923769996, -183.6982759735547, 0.1600000075995922, 0.12800000607967377, 1.008000047877431, 0.0, 0.0, 0.0, 0.0, 0.0, 1.651835967085781E9, 0.0, 2022-05-06 12:19:27.085
30.0, -234.46554792206734, -80.17597525008023, -115.57599828066304, -155.36105400929227, 0.1600000075995922, 0.12800000607967377, 1.008000047877431, 0.0, 0.0, 0.0, 0.0, 0.0, 1.6518359671177683E9, 0.0, 2022-05-06 12:19:27.117
30.0, -234.17757562547922, -91.5265716155991, -130.2251864071004, -173.89599818969145, 0.1600000075995922, 0.12800000607967377, 1.008000047877431, 0.0, 0.0, 0.0, 0.0, 0.0, 1.6518359671177683E9, 0.0, 2022-05-06 12:19:27.117
31.0, -247.46544016804546, -165.77480543591082, -186.8510116362013, -175.34333947254345, 0.1600000075995922, 0.12800000607967377, 1.008000047877431, 0.0, 0.0, 0.0, 0.0, 0.0, 1.6518359671187289E9, 0.0, 2022-05-06 12:19:27.118
31.0, -276.11307382863015, -177.43581349775195, -197.6668023080565, -189.34178500669077, 0.1600000075995922, 0.12800000607967377, 1.008000047877431, 0.0, 0.0, 0.0, 0.0, 0.0, 1.6518359671187289E9, 0.0, 2022-05-06 12:19:27.118
32.0, -238.93472836911678, -88.65432844962925, -120.14615602651611, -153.62200052989647, 0.1600000075995922, 0.12800000607967377, 1.008000047877431, 0.0, 0.0, 0.0, 0.0, 0.0, 1.6518359671196723E9, 0.0, 2022-05-06 12:19:27.119
32.0, -208.70137712731957, -79.16994216199964, -114.67094249138609, -148.2739435932599, 0.1600000075995922, 0.12800000607967377, 1.008000047877431, 0.0, 0.0, 0.0, 0.0, 0.0, 1.6518359671196723E9, 0.0, 2022-05-06 12:19:27.119
33.0, -243.9686337094754, -170.16918788384646, -192.1841089730151, -179.23283542646095, 0.1600000075995922, 0.12800000607967377, 1.008000047877431, 0.0, 0.0, 0.0, 0.0, 0.0, 1.6518359671206684E9, 0.0, 2022-05-06 12:19:27.120
33.0, -269.8786606024951, -177.62654839549214, -197.97721400437877, -187.78224672516808, 0.1600000075995922, 0.12800000607967377, 1.008000047877431, 0.0, 0.0, 0.0, 0.0, 0.0, 1.6518359671206684E9, 0.0, 2022-05-06 12:19:27.120
34.0, -241.10013044346124, -88.078383856453, -115.9649478760548, -152.55986894248053, 0.1600000075995922, 0.12800000607967377, 1.008000047877431, 0.0, 0.0, 0.0, 0.0, 0.0, 1.6518359671307569E9, 0.0, 2022-05-06 12:19:27.130
34.0, -205.36538636684418, -65.53800682350993, -98.35749888466671, -136.35862233443186, 0.1600000075995922, 0.12800000607967377, 1.008000047877431, 0.0, 0.0, 0.0, 0.0, 0.0, 1.6518359671307569E9, 0.0, 2022-05-06 12:19:27.130
35.0, -249.26059214677662, -169.05843759700656, -191.8549977769144, -185.69164264993742, 0.1600000075995922, 0.12800000607967377, 1.008000047877431, 0.0, 0.0, 0.0, 0.0, 0.0, 1.6518359671468103E9, 0.0, 2022-05-06 12:19:27.146
35.0, -258.39342783857137, -176.35498241055757, -193.76982655422762, -176.5139281586744, 0.1600000075995922, 0.12800000607967377, 1.008000047877431, 0.0, 0.0, 0.0, 0.0, 0.0, 1.6518359671468103E9, 0.0, 2022-05-06 12:19:27.146
36.0, -207.9907961357385, -77.2588532846421, -104.42735651275143, -143.99923794390634, 0.1600000075995922, 0.12800000607967377, 1.008000047877431, 0.0, 0.0, 0.0, 0.0, 0.0, 1.6518359671477242E9, 0.0, 2022-05-06 12:19:27.147
36.0, -206.81646754965186, -66.81331270840019, -103.07351272879168, -132.62994207860902, 0.1600000075995922, 0.12800000607967377, 1.008000047877431, 0.0, 0.0, 0.0, 0.0, 0.0, 1.6518359671477242E9, 0.0, 2022-05-06 12:19:27.147
37.0, -260.6822466114536, -163.64306246116757, -188.1412771209143, -172.9946823003702, 0.1600000075995922, 0.12800000607967377, 1.008000047877431, 0.0, 0.0, 0.0, 0.0, 0.0, 1.6518359671777232E9, 0.0, 2022-05-06 12:19:27.177
37.0, -259.3358826274052, -171.40335486922413, -188.1824160204269, -163.06524791801348, 0.1600000075995922, 0.12800000607967377, 1.008000047877431, 0.0, 0.0, 0.0, 0.0, 0.0, 1.6518359671777232E9, 0.0, 2022-05-06 12:19:27.177
38.0, -230.9986606631428, -92.92529419902712, -117.20285476138815, -165.62707938766107, 0.1600000075995922, 0.12800000607967377, 1.008000047877431, 0.0, 0.0, 0.0, 0.0, 0.0, 1.651835967178743E9, 0.0, 2022-05-06 12:19:27.178
38.0, -204.74082307424396, -70.27272016741335, -107.24350117938593, -154.63177351793274, 0.1600000075995922, 0.12800000607967377, 1.008000047877431, 0.0, 0.0, 0.0, 0.0, 0.0, 1.651835967178743E9, 0.0, 2022-05-06 12:19:27.178
39.0, -250.77899152878672, -163.0072794687003, -189.89529020013288, -181.17010360350832, 0.1600000075995922, 0.12800000607967377, 1.008000047877431, 0.0, 0.0, 0.0, 0.0, 0.0, 1.651835967179688E9, 0.0, 2022-05-06 12:19:27.179
39.0, -268.8614078145474, -180.39033446274698, -194.5888646445237, -185.6205845507793, 0.1600000075995922, 0.12800000607967377, 1.008000047877431, 0.0, 0.0, 0.0, 0.0, 0.0, 1.651835967179688E9, 0.0, 2022-05-06 12:19:27.179
40.0, -239.03196576796472, -100.0498036146164, -126.79943804768845, -159.78909555682912, 0.1600000075995922, 0.12800000607967377, 1.008000047877431, 0.0, 0.0, 0.0, 0.0, 0.0, 1.6518359671907816E9, 0.0, 2022-05-06 12:19:27.190
40.0, -211.6558980923146, -68.31301259063184, -101.7346285446547, -146.73684471147135, 0.1600000075995922, 0.12800000607967377, 1.008000047877431, 0.0, 0.0, 0.0, 0.0, 0.0, 1.6518359671907816E9, 0.0, 2022-05-06 12:19:27.190
41.0, -245.84232358727604, -164.15916865505278, -189.07999200979248, -178.8064868315123, 0.1600000075995922, 0.11200000531971455, 1.008000047877431, 0.0, 0.0, 0.0, 0.0, 0.0, 1.65183596720678E9, 0.0, 2022-05-06 12:19:27.206
41.0, -251.2726583229378, -162.31913787685335, -185.2578142550774, -165.04739489452913, 0.1600000075995922, 0.11200000531971455, 1.008000047877431, 0.0, 0.0, 0.0, 0.0, 0.0, 1.65183596720678E9, 0.0, 2022-05-06 12:19:27.206
42.0, -228.57146559190005, -83.02577901631594, -112.78603291371837, -142.9408462564461, 0.1600000075995922, 0.11200000531971455, 1.008000047877431, 0.0, 0.0, 0.0, 0.0, 0.0, 1.6518359672076693E9, 0.0, 2022-05-06 12:19:27.207
42.0, -212.00370878819376, -75.30288560781628, -109.56971895182505, -142.14050766592845, 0.1600000075995922, 0.11200000531971455, 1.008000047877431, 0.0, 0.0, 0.0, 0.0, 0.0, 1.6518359672076693E9, 0.0, 2022-05-06 12:19:27.207
43.0, -238.377483275719, -160.25471310131252, -181.86198509531096, -174.99926867661998, 0.1600000075995922, 0.11200000531971455, 1.008000047877431, 0.0, 0.0, 0.0, 0.0, 0.0, 1.651835967268752E9, 0.0, 2022-05-06 12:19:27.268
43.0, -260.5401304131374, -167.88784891087562, -194.42056914651766, -189.326825406868, 0.1600000075995922, 0.11200000531971455, 1.008000047877431, 0.0, 0.0, 0.0, 0.0, 0.0, 1.651835967268752E9, 0.0, 2022-05-06 12:19:27.268
44.0, -234.38327012304217, -90.66265472583473, -123.27271238947287, -158.85786046786234, 0.1600000075995922, 0.11200000531971455, 1.008000047877431, 0.0, 0.0, 0.0, 0.0, 0.0, 1.65183596726969E9, 0.0, 2022-05-06 12:19:27.269
44.0, -214.4757826589048, -81.62331653293222, -108.39165046578273, -147.5745823015459, 0.1600000075995922, 0.11200000531971455, 1.008000047877431, 0.0, 0.0, 0.0, 0.0, 0.0, 1.65183596726969E9, 0.0, 2022-05-06 12:19:27.269
45.0, -229.62237747944891, -150.25048071984202, -172.83386660227552, -158.15849917614833, 0.1600000075995922, 0.11200000531971455, 1.008000047877431, 0.0, 0.0, 0.0, 0.0, 0.0, 1.6518359672707105E9, 0.0, 2022-05-06 12:19:27.270
45.0, -258.03065754286945, -177.66768729500473, -197.4424083107151, -165.8028546855785, 0.1600000075995922, 0.11200000531971455, 1.008000047877431, 0.0, 0.0, 0.0, 0.0, 0.0, 1.6518359672707105E9, 0.0, 2022-05-06 12:19:27.270
46.0, -213.6567445686087, -74.06497872248292, -109.4388224533759, -137.05798362614587, 0.1600000075995922, 0.11200000531971455, 1.008000047877431, 0.0, 0.0, 0.0, 0.0, 0.0, 1.6518359672718477E9, 0.0, 2022-05-06 12:19:27.271
46.0, -198.77568264491856, -67.90536349546164, -95.85924571426585, -145.73081162339076, 0.1600000075995922, 0.11200000531971455, 1.008000047877431, 0.0, 0.0, 0.0, 0.0, 0.0, 1.6518359672718477E9, 0.0, 2022-05-06 12:19:27.271
47.0, -227.60657140333205, -148.63484393898398, -175.08528637560084, -167.67654456337914, 0.1600000075995922, 0.11200000531971455, 1.008000047877431, 0.0, 0.0, 0.0, 0.0, 0.0, 1.651835967298756E9, 0.0, 2022-05-06 12:19:27.298
47.0, -268.33782182075083, -172.70110015384853, -192.7413540664129, -181.79466689610854, 0.1600000075995922, 0.11200000531971455, 1.008000047877431, 0.0, 0.0, 0.0, 0.0, 0.0, 1.651835967298756E9, 0.0, 2022-05-06 12:19:27.298
48.0, -229.52514008060098, -88.62440924998373, -118.11539035057649, -157.25344338687137, 0.1600000075995922, 0.11200000531971455, 1.008000047877431, 0.0, 0.0, 0.0, 0.0, 0.0, 1.651835967299686E9, 0.0, 2022-05-06 12:19:27.299
48.0, -214.8048938550055, -70.86362436041236, -99.37101177265868, -145.11746803065762, 0.1600000075995922, 0.11200000531971455, 1.008000047877431, 0.0, 0.0, 0.0, 0.0, 0.0, 1.651835967299686E9, 0.0, 2022-05-06 12:19:27.299
49.0, -245.03450519684702, -158.36606362368912, -184.2218619673513, -179.8125199195929, 0.1600000075995922, 0.11200000531971455, 1.008000047877431, 0.0, 0.0, 0.0, 0.0, 0.0, 1.6518359673007271E9, 0.0, 2022-05-06 12:19:27.300
49.0, -262.47739859018475, -172.51036525610834, -199.00942639214918, -189.39040370611474, 0.1600000075995922, 0.11200000531971455, 1.008000047877431, 0.0, 0.0, 0.0, 0.0, 0.0, 1.6518359673007271E9, 0.0, 2022-05-06 12:19:27.300
50.0, -229.7046552784741, -96.19770666025579, -122.13952270289883, -159.71803745767102, 0.1600000075995922, 0.11200000531971455, 1.008000047877431, 0.0, 0.0, 0.0, 0.0, 0.0, 1.6518359673017292E9, 0.0, 2022-05-06 12:19:27.301
50.0, -217.6247784215957, -81.45128113497049, -109.20694865612313, -155.22641761088744, 0.1600000075995922, 0.11200000531971455, 1.008000047877431, 0.0, 0.0, 0.0, 0.0, 0.0, 1.6518359673017292E9, 0.0, 2022-05-06 12:19:27.301
51.0, -236.71322779543698, -152.43458229396492, -173.43973039509729, -166.86124637303874, 0.1600000075995922, 0.11200000531971455, 1.008000047877431, 0.0, 0.0, 0.0, 0.0, 0.0, 1.6518359673277533E9, 0.0, 2022-05-06 12:19:27.327
51.0, -247.83195036370307, -165.3708962406963, -185.94969574688002, -167.63914556382224, 0.1600000075995922, 0.11200000531971455, 1.008000047877431, 0.0, 0.0, 0.0, 0.0, 0.0, 1.6518359673277533E9, 0.0, 2022-05-06 12:19:27.327
52.0, -218.67943020910025, -86.99381286930293, -112.77107331389561, -142.15172736579552, 0.1600000075995922, 0.11200000531971455, 1.008000047877431, 0.0, 0.0, 0.0, 0.0, 0.0, 1.6518359673286786E9, 0.0, 2022-05-06 12:19:27.328
52.0, -197.41061916109174, -57.5832396177575, -84.79288174537942, -125.99161965725943, 0.1600000075995922, 0.11200000531971455, 1.008000047877431, 0.0, 0.0, 0.0, 0.0, 0.0, 1.6518359673286786E9, 0.0, 2022-05-06 12:19:27.328
53.0, -234.2187145249918, -151.73148110229522, -180.9606692059897, -173.98201588867232, 0.1600000075995922, 0.11200000531971455, 1.008000047877431, 0.0, 0.0, 0.0, 0.0, 0.0, 1.6518359673296728E9, 0.0, 2022-05-06 12:19:27.329
53.0, -258.14285454154015, -175.84261611662805, -196.8515041177161, -185.47098855255172, 0.1600000075995922, 0.11200000531971455, 1.008000047877431, 0.0, 0.0, 0.0, 0.0, 0.0, 1.6518359673296728E9, 0.0, 2022-05-06 12:19:27.329
54.0, -214.5431008581072, -82.64056932087988, -103.11839152825996, -133.43776046903804, 0.1600000075995922, 0.11200000531971455, 1.008000047877431, 0.0, 0.0, 0.0, 0.0, 0.0, 1.6518359673577166E9, 0.0, 2022-05-06 12:19:27.357
54.0, -206.15076535753906, -66.92550970707089, -95.83680631453171, -141.0521967788227, 0.1600000075995922, 0.11200000531971455, 1.008000047877431, 0.0, 0.0, 0.0, 0.0, 0.0, 1.6518359673577166E9, 0.0, 2022-05-06 12:19:27.357
55.0, -234.7011616192758, -158.34736412391067, -177.6919966447167, -173.26769499713555, 0.1600000075995922, 0.11200000531971455, 1.008000047877431, 0.0, 0.0, 0.0, 0.0, 0.0, 1.651835967358667E9, 0.0, 2022-05-06 12:19:27.358
55.0, -243.8938357103616, -170.51325867976993, -187.30353953083977, -174.03811438800767, 0.1600000075995922, 0.11200000531971455, 1.008000047877431, 0.0, 0.0, 0.0, 0.0, 0.0, 1.651835967358667E9, 0.0, 2022-05-06 12:19:27.358
56.0, -226.39110391773283, -91.27225841861218, -114.94021528819576, -146.17585971811786, 0.1600000075995922, 0.11200000531971455, 1.008000047877431, 0.0, 0.0, 0.0, 0.0, 0.0, 1.651835967359674E9, 0.0, 2022-05-06 12:19:27.359
56.0, -222.1463174680248, -69.49482097662985, -109.72305485000834, -159.19071156391874, 0.1600000075995922, 0.11200000531971455, 1.008000047877431, 0.0, 0.0, 0.0, 0.0, 0.0, 1.651835967359674E9, 0.0, 2022-05-06 12:19:27.359
57.0, -249.30921084620059, -155.2619466604665, -183.70575577346608, -183.75437447289005, 0.1600000075995922, 0.11200000531971455, 1.008000047877431, 0.0, 0.0, 0.0, 0.0, 0.0, 1.651835967371784E9, 0.0, 2022-05-06 12:19:27.371
57.0, -264.78117696288973, -182.58191583678126, -205.16904161917046, -192.5206999690272, 0.1600000075995922, 0.11200000531971455, 1.008000047877431, 0.0, 0.0, 0.0, 0.0, 0.0, 1.651835967371784E9, 0.0, 2022-05-06 12:19:27.371
58.0, -228.42934939358383, -103.11652157828212, -128.5609309268184, -163.4990763128735, 0.1600000075995922, 0.11200000531971455, 1.008000047877431, 0.0, 0.0, 0.0, 0.0, 0.0, 1.65183596738678E9, 0.0, 2022-05-06 12:19:27.386
58.0, -210.83312010206282, -75.64321650378406, -106.63389748660848, -145.58495552511886, 0.1600000075995922, 0.11200000531971455, 1.008000047877431, 0.0, 0.0, 0.0, 0.0, 0.0, 1.65183596738678E9, 0.0, 2022-05-06 12:19:27.386
59.0, -232.73397424258292, -157.67792203184217, -175.26480157347396, -165.2867484916933, 0.1600000075995922, 0.11200000531971455, 1.008000047877431, 0.0, 0.0, 0.0, 0.0, 0.0, 1.651835967387726E9, 0.0, 2022-05-06 12:19:27.387
59.0, -251.31379722245038, -174.58974963147193, -194.5140666454099, -181.0728662046604, 0.1600000075995922, 0.11200000531971455, 1.008000047877431, 0.0, 0.0, 0.0, 0.0, 0.0, 1.651835967387726E9, 0.0, 2022-05-06 12:19:27.387
60.0, -228.7360211899504, -90.49435922782868, -120.90909561747685, -152.4626315436326, 0.1600000075995922, 0.11200000531971455, 1.008000047877431, 0.0, 0.0, 0.0, 0.0, 0.0, 1.6518359673886943E9, 0.0, 2022-05-06 12:19:27.388
60.0, -202.49314320087433, -61.1772834751755, -96.23697560979053, -140.2705576880835, 0.1600000075995922, 0.11200000531971455, 1.008000047877431, 0.0, 0.0, 0.0, 0.0, 0.0, 1.6518359673886943E9, 0.0, 2022-05-06 12:19:27.388
61.0, -241.24972644168884, -160.82317789457738, -173.74266229150817, -169.99528253590688, 0.1600000075995922, 0.11200000531971455, 1.008000047877431, 0.0, 0.0, 0.0, 0.0, 0.0, 1.6518359674007387E9, 0.0, 2022-05-06 12:19:27.400
61.0, -242.35299692861736, -150.45991511736065, -177.74061534414068, -158.10240067681298, 0.1600000075995922, 0.11200000531971455, 1.008000047877431, 0.0, 0.0, 0.0, 0.0, 0.0, 1.6518359674007387E9, 0.0, 2022-05-06 12:19:27.400
62.0, -222.12761796824634, -92.24463240709156, -115.70689477911219, -144.62006133655086, 0.1600000075995922, 0.11200000531971455, 1.008000047877431, 0.0, 0.0, 0.0, 0.0, 0.0, 1.6518359674177182E9, 0.0, 2022-05-06 12:19:27.417
62.0, -200.52595582418144, -61.84672556724399, -95.14492482272908, -144.268510740716, 0.1600000075995922, 0.11200000531971455, 1.008000047877431, 0.0, 0.0, 0.0, 0.0, 0.0, 1.6518359674177182E9, 0.0, 2022-05-06 12:19:27.417
63.0, -222.42680996470153, -141.26724102627486, -164.0974603057839, -163.29338181531057, 0.1600000075995922, 0.11200000531971455, 1.008000047877431, 0.0, 0.0, 0.0, 0.0, 0.0, 1.651835967431774E9, 0.0, 2022-05-06 12:19:27.431
63.0, -248.3817156571895, -169.64560189004987, -196.4812540221028, -182.1013386924751, 0.1600000075995922, 0.11200000531971455, 1.008000047877431, 0.0, 0.0, 0.0, 0.0, 0.0, 1.651835967431774E9, 0.0, 2022-05-06 12:19:27.431
64.0, -243.44130781572312, -105.4202999509871, -131.31349729420617, -159.54600205970928, 0.1600000075995922, 0.11200000531971455, 1.008000047877431, 0.0, 0.0, 0.0, 0.0, 0.0, 1.6518359674327228E9, 0.0, 2022-05-06 12:19:27.432
64.0, -206.71175035089254, -66.6973758097738, -94.07905333535746, -129.9372141105123, 0.1600000075995922, 0.11200000531971455, 1.008000047877431, 0.0, 0.0, 0.0, 0.0, 0.0, 1.6518359674327228E9, 0.0, 2022-05-06 12:19:27.432
65.0, -230.8902035644278, -148.41044994164258, -173.99697548849508, -177.74809514405206, 0.1600000075995922, 0.11200000531971455, 1.008000047877431, 0.0, 0.0, 0.0, 0.0, 0.0, 1.6518359674467726E9, 0.0, 2022-05-06 12:19:27.446
65.0, -243.5946437139064, -171.54173116758466, -192.24768727226183, -178.75786813208833, 0.1600000075995922, 0.11200000531971455, 1.008000047877431, 0.0, 0.0, 0.0, 0.0, 0.0, 1.6518359674467726E9, 0.0, 2022-05-06 12:19:27.446
66.0, -221.12906468007714, -93.19830689579248, -117.87603675341234, -142.12180816615, 0.1600000075995922, 0.11200000531971455, 1.008000047877431, 0.0, 0.0, 0.0, 0.0, 0.0, 1.6518359674477365E9, 0.0, 2022-05-06 12:19:27.447
66.0, -213.24161567352712, -68.68700258620083, -103.09221222857013, -147.22303170571104, 0.1600000075995922, 0.11200000531971455, 1.008000047877431, 0.0, 0.0, 0.0, 0.0, 0.0, 1.6518359674477365E9, 0.0, 2022-05-06 12:19:27.447
67.0, -232.6666560433805, -144.61819138657302, -166.32644067937508, -167.9869562597014, 0.1600000075995922, 0.11200000531971455, 1.008000047877431, 0.0, 0.0, 0.0, 0.0, 0.0, 1.6518359674937532E9, 0.0, 2022-05-06 12:19:27.493
67.0, -251.34745632205158, -166.1861944310367, -183.17095007980242, -165.35032679094002, 0.1600000075995922, 0.11200000531971455, 1.008000047877431, 0.0, 0.0, 0.0, 0.0, 0.0, 1.6518359674937532E9, 0.0, 2022-05-06 12:19:27.493
68.0, -231.68680225498974, -102.07308949064463, -125.98787975730374, -156.35960729746148, 0.1600000075995922, 0.11200000531971455, 1.008000047877431, 0.0, 0.0, 0.0, 0.0, 0.0, 1.6518359674946752E9, 0.0, 2022-05-06 12:19:27.494
68.0, -213.8026006668806, -81.25680633727461, -111.46210832940415, -156.9467715905048, 0.1600000075995922, 0.11200000531971455, 1.008000047877431, 0.0, 0.0, 0.0, 0.0, 0.0, 1.6518359674946752E9, 0.0, 2022-05-06 12:19:27.494
69.0, -222.00420126970857, -138.91110405419022, -163.0203691185452, -163.095167117659, 0.1600000075995922, 0.11200000531971455, 1.008000047877431, 0.0, 0.0, 0.0, 0.0, 0.0, 1.651835967495728E9, 0.0, 2022-05-06 12:19:27.495
69.0, -255.37532857432961, -169.02477849740535, -193.7361674546264, -169.82324713794515, 0.1600000075995922, 0.11200000531971455, 1.008000047877431, 0.0, 0.0, 0.0, 0.0, 0.0, 1.651835967495728E9, 0.0, 2022-05-06 12:19:27.495
70.0, -235.05271221511066, -99.55613682046533, -126.3768293526955, -149.70632527628914, 0.1600000075995922, 0.11200000531971455, 1.008000047877431, 0.0, 0.0, 0.0, 0.0, 0.0, 1.6518359674966648E9, 0.0, 2022-05-06 12:19:27.496
70.0, -199.11601354088634, -57.0633935239166, -92.96830304851755, -142.22278546495363, 0.1600000075995922, 0.11200000531971455, 1.008000047877431, 0.0, 0.0, 0.0, 0.0, 0.0, 1.6518359674966648E9, 0.0, 2022-05-06 12:19:27.496
71.0, -221.52175417542458, -139.359892048873, -170.18975733360276, -158.98875696631148, 0.1600000075995922, 0.12800000607967377, 1.008000047877431, 0.0, 0.0, 0.0, 0.0, 0.0, 1.651835967506729E9, 0.0, 2022-05-06 12:19:27.506
71.0, -255.57354327198118, -183.6477873241529, -205.7075872127898, -189.71951490221545, 0.1600000075995922, 0.12800000607967377, 1.008000047877431, 0.0, 0.0, 0.0, 0.0, 0.0, 1.651835967506729E9, 0.0, 2022-05-06 12:19:27.506
72.0, -240.7111808480695, -107.36504792794585, -131.39203519327566, -162.62019982328638, 0.1600000075995922, 0.12800000607967377, 1.008000047877431, 0.0, 0.0, 0.0, 0.0, 0.0, 1.6518359675076716E9, 0.0, 2022-05-06 12:19:27.507
72.0, -208.2077103331685, -69.12457088101655, -100.11525186384097, -143.0081644556485, 0.1600000075995922, 0.12800000607967377, 1.008000047877431, 0.0, 0.0, 0.0, 0.0, 0.0, 1.6518359675076716E9, 0.0, 2022-05-06 12:19:27.507
73.0, -222.66990346182138, -138.31272006127983, -164.5013695009984, -167.8784991609864, 0.1600000075995922, 0.12800000607967377, 1.008000047877431, 0.0, 0.0, 0.0, 0.0, 0.0, 1.6518359675687928E9, 0.0, 2022-05-06 12:19:27.568
73.0, -249.5261250436306, -164.035751956515, -188.04403972206637, -173.34249299624935, 0.1600000075995922, 0.12800000607967377, 1.008000047877431, 0.0, 0.0, 0.0, 0.0, 0.0, 1.6518359675687928E9, 0.0, 2022-05-06 12:19:27.568
74.0, -218.16706391517073, -94.47735268063843, -115.91258927667513, -143.72996514709666, 0.1600000075995922, 0.12800000607967377, 1.008000047877431, 0.0, 0.0, 0.0, 0.0, 0.0, 1.6518359675696807E9, 0.0, 2022-05-06 12:19:27.569
74.0, -196.3896264731884, -65.00320112984627, -92.5419544535689, -135.9397535393946, 0.1600000075995922, 0.12800000607967377, 1.008000047877431, 0.0, 0.0, 0.0, 0.0, 0.0, 1.6518359675696807E9, 0.0, 2022-05-06 12:19:27.569
75.0, -230.96874146349728, -134.8084338027984, -161.96197743108496, -161.7974218330346, 0.1600000075995922, 0.12800000607967377, 1.008000047877431, 0.0, 0.0, 0.0, 0.0, 0.0, 1.651835967570681E9, 0.0, 2022-05-06 12:19:27.570
75.0, -264.03693687170744, -181.76287774648517, -202.12102315528318, -179.46096932375804, 0.1600000075995922, 0.12800000607967377, 1.008000047877431, 0.0, 0.0, 0.0, 0.0, 0.0, 1.651835967570681E9, 0.0, 2022-05-06 12:19:27.570
76.0, -228.58268529176712, -95.44972666911781, -120.96145421685651, -139.44403979787603, 0.1600000075995922, 0.12800000607967377, 1.008000047877431, 0.0, 0.0, 0.0, 0.0, 0.0, 1.6518359675716977E9, 0.0, 2022-05-06 12:19:27.571
76.0, -213.44731017109007, -64.71522883325815, -101.1025854521431, -137.52173122065142, 0.1600000075995922, 0.12800000607967377, 1.008000047877431, 0.0, 0.0, 0.0, 0.0, 0.0, 1.6518359675716977E9, 0.0, 2022-05-06 12:19:27.571
77.0, -220.96824898198247, -123.7233703341335, -153.1993918349035, -147.6119813011028, 0.1600000075995922, 0.12800000607967377, 1.008000047877431, 0.0, 0.0, 0.0, 0.0, 0.0, 1.6518359675817645E9, 0.0, 2022-05-06 12:19:27.581
77.0, -253.88310849200934, -177.25255839992315, -194.57390504470095, -169.74096933891997, 0.1600000075995922, 0.12800000607967377, 1.008000047877431, 0.0, 0.0, 0.0, 0.0, 0.0, 1.6518359675817645E9, 0.0, 2022-05-06 12:19:27.581
78.0, -237.38266988750547, -115.56664853077382, -144.6798997358419, -173.2115964978002, 0.1600000075995922, 0.12800000607967377, 1.008000047877431, 0.0, 0.0, 0.0, 0.0, 0.0, 1.6518359675827868E9, 0.0, 2022-05-06 12:19:27.582
78.0, -215.01058835256845, -69.22928807977587, -94.44556353101507, -149.7586838756688, 0.1600000075995922, 0.12800000607967377, 1.008000047877431, 0.0, 0.0, 0.0, 0.0, 0.0, 1.6518359675827868E9, 0.0, 2022-05-06 12:19:27.582
79.0, -228.20869529619813, -143.27182740252465, -174.5467407819815, -167.654105163645, 0.1600000075995922, 0.12800000607967377, 1.008000047877431, 0.0, 0.0, 0.0, 0.0, 0.0, 1.6518359675837176E9, 0.0, 2022-05-06 12:19:27.583
79.0, -250.32272373419255, -180.233258664608, -200.86441677017137, -184.6631701621227, 0.1600000075995922, 0.12800000607967377, 1.008000047877431, 0.0, 0.0, 0.0, 0.0, 0.0, 1.6518359675837176E9, 0.0, 2022-05-06 12:19:27.583
80.0, -254.36555558629334, -121.98057695478201, -147.93361269729212, -179.83869921928272, 0.1600000075995922, 0.12800000607967377, 1.0240000486373901, 0.0, 0.0, 0.0, 0.0, 0.0, 1.6518359676117768E9, 0.0, 2022-05-06 12:19:27.611
80.0, -217.68087692093104, -77.46454778220505, -106.82089248439297, -153.35646763304248, 0.1600000075995922, 0.12800000607967377, 1.0240000486373901, 0.0, 0.0, 0.0, 0.0, 0.0, 1.6518359676117768E9, 0.0, 2022-05-06 12:19:27.611
81.0, -239.67522856034338, -136.98505557700992, -167.2464560684748, -171.9923891122453, 0.1600000075995922, 0.12800000607967377, 1.0240000486373901, 0.0, 0.0, 0.0, 0.0, 0.0, 1.651835967612728E9, 0.0, 2022-05-06 12:19:27.612
81.0, -269.10450131166726, -186.57986888941377, -208.31429748190567, -185.9908346463926, 0.1600000075995922, 0.12800000607967377, 1.0240000486373901, 0.0, 0.0, 0.0, 0.0, 0.0, 1.651835967612728E9, 0.0, 2022-05-06 12:19:27.612
82.0, -249.27555174659938, -113.31896865740418, -134.99729875056073, -158.77932256879285, 0.1600000075995922, 0.12800000607967377, 1.0240000486373901, 0.0, 0.0, 0.0, 0.0, 0.0, 1.6518359676137207E9, 0.0, 2022-05-06 12:19:27.613
82.0, -210.7658019028604, -60.77337427996099, -92.37739885551855, -131.35837609367445, 0.1600000075995922, 0.12800000607967377, 1.0240000486373901, 0.0, 0.0, 0.0, 0.0, 0.0, 1.6518359676137207E9, 0.0, 2022-05-06 12:19:27.613
83.0, -229.5176602806896, -135.56389359384775, -167.95703706005588, -168.41704475460574, 0.1600000075995922, 0.12800000607967377, 1.0240000486373901, 0.0, 0.0, 0.0, 0.0, 0.0, 1.6518359676267197E9, 0.0, 2022-05-06 12:19:27.626
83.0, -250.95850672665983, -168.25061920657754, -193.3359981593676, -177.14971115114167, 0.1600000075995922, 0.12800000607967377, 1.0240000486373901, 0.0, 0.0, 0.0, 0.0, 0.0, 1.6518359676267197E9, 0.0, 2022-05-06 12:19:27.626
84.0, -243.42260831594467, -108.76751041132957, -133.50133876828477, -159.63575965864584, 0.1600000075995922, 0.12800000607967377, 1.0240000486373901, 0.0, 0.0, 0.0, 0.0, 0.0, 1.6518359676276655E9, 0.0, 2022-05-06 12:19:27.627
84.0, -204.14617898128927, -63.87749124318361, -97.75163509184495, -133.63223526673391, 0.1600000075995922, 0.12800000607967377, 1.0240000486373901, 0.0, 0.0, 0.0, 0.0, 0.0, 1.6518359676276655E9, 0.0, 2022-05-06 12:19:27.627
85.0, -240.8532970463857, -135.46291629504412, -162.14523252891377, -158.10614057676867, 0.1600000075995922, 0.12800000607967377, 1.0240000486373901, 0.0, 0.0, 0.0, 0.0, 0.0, 1.651835967640778E9, 0.0, 2022-05-06 12:19:27.640
85.0, -259.8632085211575, -170.17666768375784, -193.077945062425, -175.79212746722624, 0.1600000075995922, 0.12800000607967377, 1.0240000486373901, 0.0, 0.0, 0.0, 0.0, 0.0, 1.651835967640778E9, 0.0, 2022-05-06 12:19:27.640
86.0, -239.87718315795064, -111.52007677871734, -128.2617389303632, -146.680746212136, 0.1600000075995922, 0.12800000607967377, 1.0240000486373901, 0.0, 0.0, 0.0, 0.0, 0.0, 1.6518359676717813E9, 0.0, 2022-05-06 12:19:27.671
86.0, -214.883431754075, -71.4021699540317, -98.136844787281, -142.2714041643776, 0.1600000075995922, 0.12800000607967377, 1.0240000486373901, 0.0, 0.0, 0.0, 0.0, 0.0, 1.6518359676717813E9, 0.0, 2022-05-06 12:19:27.671
87.0, -230.42271606996655, -128.9480105722323, -155.60040760645643, -159.44876466086134, 0.1600000075995922, 0.12800000607967377, 1.0240000486373901, 0.0, 0.0, 0.0, 0.0, 0.0, 1.65183596767273E9, 0.0, 2022-05-06 12:19:27.672
87.0, -266.18363944627345, -182.63053453620523, -209.39886846905574, -201.84427055856213, 0.1600000075995922, 0.12800000607967377, 1.0240000486373901, 0.0, 0.0, 0.0, 0.0, 0.0, 1.65183596767273E9, 0.0, 2022-05-06 12:19:27.672
88.0, -250.3825621334836, -123.71589053422213, -146.9350594091229, -174.16527098650113, 0.1600000075995922, 0.12800000607967377, 1.0240000486373901, 0.0, 0.0, 0.0, 0.0, 0.0, 1.651835967673717E9, 0.0, 2022-05-06 12:19:27.673
88.0, -225.94605582300574, -76.90730268880725, -104.9958213060163, -150.43186586769298, 0.1600000075995922, 0.12800000607967377, 1.0240000486373901, 0.0, 0.0, 0.0, 0.0, 0.0, 1.651835967673717E9, 0.0, 2022-05-06 12:19:27.673
89.0, -237.4873870862648, -133.52938801795244, -166.97344337170944, -166.67799127520993, 0.1600000075995922, 0.12800000607967377, 1.0240000486373901, 0.0, 0.0, 0.0, 0.0, 0.0, 1.6518359676867547E9, 0.0, 2022-05-06 12:19:27.686
89.0, -262.58959558885545, -179.2721043759957, -199.72748718364164, -171.5436011175625, 0.1600000075995922, 0.12800000607967377, 1.0240000486373901, 0.0, 0.0, 0.0, 0.0, 0.0, 1.6518359676867547E9, 0.0, 2022-05-06 12:19:27.686
90.0, -251.38485532160848, -112.21569817047566, -142.77255075844005, -172.56085390551016, 0.1600000075995922, 0.12800000607967377, 1.0240000486373901, 0.0, 0.0, 0.0, 0.0, 0.0, 1.651835967687744E9, 0.0, 2022-05-06 12:19:27.687
90.0, -217.5798996221274, -71.51062705274671, -101.65609064558521, -153.74915712838992, 0.1600000075995922, 0.12800000607967377, 1.0240000486373901, 0.0, 0.0, 0.0, 0.0, 0.0, 1.651835967687744E9, 0.0, 2022-05-06 12:19:27.687
91.0, -223.90407044719905, -128.0579143827781, -155.32365500973538, -158.44273157278076, 0.1600000075995922, 0.11200000531971455, 1.0240000486373901, 0.0, 0.0, 0.0, 0.0, 0.0, 1.6518359677007275E9, 0.0, 2022-05-06 12:19:27.700
91.0, -256.3888414623216, -182.98582503199577, -207.75705238850787, -177.5124814468436, 0.1600000075995922, 0.11200000531971455, 1.0240000486373901, 0.0, 0.0, 0.0, 0.0, 0.0, 1.6518359677007275E9, 0.0, 2022-05-06 12:19:27.700
92.0, -269.59442820586264, -128.14393208175898, -147.37636760389432, -173.55566729372367, 0.1600000075995922, 0.11200000531971455, 1.0240000486373901, 0.0, 0.0, 0.0, 0.0, 0.0, 1.6518359677317283E9, 0.0, 2022-05-06 12:19:27.731
92.0, -223.0289338575676, -72.37828384246677, -98.6566908811219, -142.03953036712483, 0.1600000075995922, 0.11200000531971455, 1.0240000486373901, 0.0, 0.0, 0.0, 0.0, 0.0, 1.6518359677317283E9, 0.0, 2022-05-06 12:19:27.731
93.0, -218.81780650746077, -120.97080396674573, -150.54032296640798, -150.36080776853487, 0.1600000075995922, 0.11200000531971455, 1.0240000486373901, 0.0, 0.0, 0.0, 0.0, 0.0, 1.6518359677326705E9, 0.0, 2022-05-06 12:19:27.732
93.0, -253.70733319409192, -177.29743719939142, -197.04971881536767, -174.0231547881849, 0.1600000075995922, 0.11200000531971455, 1.0240000486373901, 0.0, 0.0, 0.0, 0.0, 0.0, 1.6518359677326705E9, 0.0, 2022-05-06 12:19:27.732
94.0, -240.68874144833535, -119.52720258384943, -133.28442457085475, -147.83637529844418, 0.1600000075995922, 0.11200000531971455, 1.0240000486373901, 0.0, 0.0, 0.0, 0.0, 0.0, 1.6518359677336953E9, 0.0, 2022-05-06 12:19:27.733
94.0, -208.79487462621182, -62.68446315731853, -94.57272012950853, -145.30446302844211, 0.1600000075995922, 0.11200000531971455, 1.0240000486373901, 0.0, 0.0, 0.0, 0.0, 0.0, 1.6518359677336953E9, 0.0, 2022-05-06 12:19:27.733
95.0, -236.85908389370888, -132.96466312464327, -164.59486699989066, -174.41584428353235, 0.1600000075995922, 0.11200000531971455, 1.0240000486373901, 0.0, 0.0, 0.0, 0.0, 0.0, 1.6518359677467337E9, 0.0, 2022-05-06 12:19:27.746
95.0, -260.7570446105674, -178.36330868676305, -197.2965522124432, -169.67739103967324, 0.1600000075995922, 0.11200000531971455, 1.0240000486373901, 0.0, 0.0, 0.0, 0.0, 0.0, 1.6518359677467337E9, 0.0, 2022-05-06 12:19:27.746
96.0, -231.1519965613261, -104.12629456631839, -124.46574047533795, -143.98427834408358, 0.1600000075995922, 0.11200000531971455, 1.0240000486373901, 0.0, 0.0, 0.0, 0.0, 0.0, 1.6518359677476656E9, 0.0, 2022-05-06 12:19:27.747
96.0, -205.7692955620587, -60.05905338842422, -88.14383210567757, -134.6382683548145, 0.1600000075995922, 0.11200000531971455, 1.0240000486373901, 0.0, 0.0, 0.0, 0.0, 0.0, 1.6518359677476656E9, 0.0, 2022-05-06 12:19:27.747
97.0, -231.13703696150333, -130.85161964967847, -168.3908654549159, -167.41849146643654, 0.1600000075995922, 0.11200000531971455, 1.0240000486373901, 0.0, 0.0, 0.0, 0.0, 0.0, 1.6518359677607331E9, 0.0, 2022-05-06 12:19:27.760
97.0, -262.85512848570943, -174.97869922686368, -205.24757951823995, -188.20485542016104, 0.1600000075995922, 0.11200000531971455, 1.0240000486373901, 0.0, 0.0, 0.0, 0.0, 0.0, 1.6518359677607331E9, 0.0, 2022-05-06 12:19:27.760
98.0, -244.79515159968287, -121.41959196142852, -142.66409365972504, -166.40123867848888, 0.1600000075995922, 0.11200000531971455, 1.0240000486373901, 0.0, 0.0, 0.0, 0.0, 0.0, 1.6518359677927797E9, 0.0, 2022-05-06 12:19:27.792
98.0, -221.7723274724558, -79.46165435854346, -106.8470717840828, -151.9465253497474, 0.1600000075995922, 0.11200000531971455, 1.0240000486373901, 0.0, 0.0, 0.0, 0.0, 0.0, 1.6518359677927797E9, 0.0, 2022-05-06 12:19:27.792
99.0, -227.61405120324343, -125.67185821104795, -163.40557881398126, -173.10687929904088, 0.1600000075995922, 0.11200000531971455, 1.0240000486373901, 0.0, 0.0, 0.0, 0.0, 0.0, 1.6518359677936864E9, 0.0, 2022-05-06 12:19:27.793
99.0, -265.95924544893205, -183.2326584290713, -206.17133480729535, -184.68934946181253, 0.1600000075995922, 0.11200000531971455, 1.0240000486373901, 0.0, 0.0, 0.0, 0.0, 0.0, 1.6518359677936864E9, 0.0, 2022-05-06 12:19:27.793
100.0, -260.25215811654925, -136.51756808254868, -152.50751034310088, -172.51597510604188, 0.1600000075995922, 0.11200000531971455, 1.0240000486373901, 0.0, 0.0, 0.0, 0.0, 0.0, 1.6518359677947311E9, 0.0, 2022-05-06 12:19:27.794
100.0, -213.45478997100145, -64.6965293334797, -95.96396291302517, -145.6485338243656, 0.1600000075995922, 0.11200000531971455, 1.0240000486373901, 0.0, 0.0, 0.0, 0.0, 0.0, 1.6518359677947311E9, 0.0, 2022-05-06 12:19:27.794
0.0, -227.29428975703195, -129.3051710180007, -157.2422236870043, -158.3118350743316, 0.1600000075995922, 0.11200000531971455, 1.0240000486373901, 0.0, 0.0, 0.0, 0.0, 0.0, 1.6518359677957315E9, 0.0, 2022-05-06 12:19:27.795
1.0, -262.3184528420679, -183.39160417718813, -203.47860683919862, -181.43189660040662, 0.1600000075995922, 0.11200000531971455, 1.0240000486373901, 0.0, 0.0, 0.0, 0.0, 0.0, 1.6518359678057156E9, 0.0, 2022-05-06 12:19:27.805
1.0, -251.53632126981393, -124.14784897910431, -144.14883394213393, -169.64373194007203, 0.1600000075995922, 0.11200000531971455, 1.0240000486373901, 0.0, 0.0, 0.0, 0.0, 0.0, 1.6518359678057156E9, 0.0, 2022-05-06 12:19:27.805
2.0, -199.5255325860344, -59.90384754026309, -87.92691790824756, -131.13024219637737, 0.1600000075995922, 0.11200000531971455, 1.0240000486373901, 0.0, 0.0, 0.0, 0.0, 0.0, 1.6518359678217292E9, 0.0, 2022-05-06 12:19:27.821
2.0, -230.791096215602, -128.6693880255334, -152.7618235400878, -156.49424369586632, 0.1600000075995922, 0.11200000531971455, 1.0240000486373901, 0.0, 0.0, 0.0, 0.0, 0.0, 1.6518359678217292E9, 0.0, 2022-05-06 12:19:27.821
3.0, -265.4375294051133, -175.0329277762212, -199.75366648333147, -182.59874538658187, 0.1600000075995922, 0.11200000531971455, 1.0240000486373901, 0.0, 0.0, 0.0, 0.0, 0.0, 1.6518359678227332E9, 0.0, 2022-05-06 12:19:27.822
3.0, -250.08524008700624, -125.61762966169044, -142.57807596074417, -161.73758343374357, 0.1600000075995922, 0.11200000531971455, 1.0240000486373901, 0.0, 0.0, 0.0, 0.0, 0.0, 1.6518359678227332E9, 0.0, 2022-05-06 12:19:27.822
4.0, -219.09268915420398, -70.18857241841033, -102.02260084124282, -142.58929566061124, 0.1600000075995922, 0.11200000531971455, 1.0240000486373901, 0.0, 0.0, 0.0, 0.0, 0.0, 1.65183596786772E9, 0.0, 2022-05-06 12:19:27.867
4.0, -230.78735631564632, -128.51231222739443, -160.1668254523538, -172.05222751153633, 0.1600000075995922, 0.11200000531971455, 1.0240000486373901, 0.0, 0.0, 0.0, 0.0, 0.0, 1.65183596786772E9, 0.0, 2022-05-06 12:19:27.867
5.0, -257.23592880228534, -176.31197356106713, -201.24588656565174, -184.20316246757284, 0.1600000075995922, 0.11200000531971455, 1.0240000486373901, 0.0, 0.0, 0.0, 0.0, 0.0, 1.6518359678687525E9, 0.0, 2022-05-06 12:19:27.868
5.0, -253.44367024721578, -132.48034608038142, -151.78196975169703, -170.63854532828555, 0.1600000075995922, 0.11200000531971455, 1.0240000486373901, 0.0, 0.0, 0.0, 0.0, 0.0, 1.6518359678687525E9, 0.0, 2022-05-06 12:19:27.868
6.0, -210.35254295775667, -59.84026924101636, -94.35206603212282, -133.96508636279032, 0.1600000075995922, 0.11200000531971455, 1.0240000486373901, 0.0, 0.0, 0.0, 0.0, 0.0, 1.6518359678827703E9, 0.0, 2022-05-06 12:19:27.882
6.0, -223.88350099744275, -116.25292017264292, -153.44248533202335, -157.17490548780188, 0.1600000075995922, 0.11200000531971455, 1.0240000486373901, 0.0, 0.0, 0.0, 0.0, 0.0, 1.6518359678827703E9, 0.0, 2022-05-06 12:19:27.882
7.0, -252.48251595860347, -173.37241219589487, -205.89832211053, -193.83340485347435, 0.1600000075995922, 0.11200000531971455, 1.0240000486373901, 0.0, 0.0, 0.0, 0.0, 0.0, 1.6518359678837488E9, 0.0, 2022-05-06 12:19:27.883
7.0, -246.93998422427103, -119.78712563076988, -145.4203999270685, -170.3617927315645, 0.1600000075995922, 0.11200000531971455, 1.0240000486373901, 0.0, 0.0, 0.0, 0.0, 0.0, 1.6518359678837488E9, 0.0, 2022-05-06 12:19:27.883
8.0, -234.52351637138054, -78.79408221645281, -110.57201213994995, -148.40110019175336, 0.1600000075995922, 0.11200000531971455, 1.0240000486373901, 0.0, 0.0, 0.0, 0.0, 0.0, 1.651835967884711E9, 0.0, 2022-05-06 12:19:27.884
8.0, -237.62763333460316, -130.82731029996648, -167.83362036151811, -173.20411669788882, 0.1600000075995922, 0.11200000531971455, 1.0240000486373901, 0.0, 0.0, 0.0, 0.0, 0.0, 1.651835967884711E9, 0.0, 2022-05-06 12:19:27.884
9.0, -253.57830664562061, -172.1756442100741, -197.39378961129114, -176.33815286075696, 0.1600000075995922, 0.11200000531971455, 1.0240000486373901, 0.0, 0.0, 0.0, 0.0, 0.0, 1.6518359678857388E9, 0.0, 2022-05-06 12:19:27.885
9.0, -240.41385880159214, -120.5949440211989, -135.07583664963022, -157.7209308813326, 0.1600000075995922, 0.11200000531971455, 1.0240000486373901, 0.0, 0.0, 0.0, 0.0, 0.0, 1.6518359678857388E9, 0.0, 2022-05-06 12:19:27.885
10.0, -221.29923012806103, -73.89481327449903, -106.17388979205862, -154.24656382249668, 0.1600000075995922, 0.11200000531971455, 1.0240000486373901, 0.0, 0.0, 0.0, 0.0, 0.0, 1.651835967895778E9, 0.0, 2022-05-06 12:19:27.895
10.0, -223.07194270705804, -114.42036919435486, -152.43645224394277, -167.79622136196122, 0.1600000075995922, 0.11200000531971455, 1.0240000486373901, 0.0, 0.0, 0.0, 0.0, 0.0, 1.651835967895778E9, 0.0, 2022-05-06 12:19:27.895
11.0, -251.90657136542723, -175.76220826758072, -201.18230826640502, -181.8844244950451, 0.1600000075995922, 0.11200000531971455, 1.0240000486373901, 0.0, 0.0, 0.0, 0.0, 0.0, 1.6518359679117396E9, 0.0, 2022-05-06 12:19:27.911
11.0, -238.97773721860722, -124.38346267631277, -143.35597515152767, -161.80864153290167, 0.1600000075995922, 0.11200000531971455, 1.0240000486373901, 0.0, 0.0, 0.0, 0.0, 0.0, 1.6518359679117396E9, 0.0, 2022-05-06 12:19:27.911
12.0, -226.88664066186175, -72.48487099120393, -103.54474012320861, -146.78172351093963, 0.1600000075995922, 0.11200000531971455, 1.0240000486373901, 0.0, 0.0, 0.0, 0.0, 0.0, 1.6518359679126656E9, 0.0, 2022-05-06 12:19:27.912
12.0, -230.19645212264732, -126.76577894808725, -156.9131124909036, -165.25682929204777, 0.1600000075995922, 0.11200000531971455, 1.0240000486373901, 0.0, 0.0, 0.0, 0.0, 0.0, 1.6518359679126656E9, 0.0, 2022-05-06 12:19:27.912
13.0, -255.85590571863577, -188.01038062246516, -212.39452833356336, -198.11933020269498, 0.1600000075995922, 0.11200000531971455, 1.0240000486373901, 0.0, 0.0, 0.0, 0.0, 0.0, 1.651835967941774E9, 0.0, 2022-05-06 12:19:27.941
13.0, -251.4727429705672, -128.119622732047, -147.7914964989759, -164.78560189763084, 0.1600000075995922, 0.11200000531971455, 1.0240000486373901, 0.0, 0.0, 0.0, 0.0, 0.0, 1.651835967941774E9, 0.0, 2022-05-06 12:19:27.941
14.0, -208.6396687780507, -62.757391206454486, -89.30320109194145, -132.51774507993832, 0.1600000075995922, 0.11200000531971455, 1.0240000486373901, 0.0, 0.0, 0.0, 0.0, 0.0, 1.6518359679427292E9, 0.0, 2022-05-06 12:19:27.942
14.0, -214.31309701083228, -118.36222374765202, -150.37950726831332, -154.84120791545138, 0.1600000075995922, 0.11200000531971455, 1.0240000486373901, 0.0, 0.0, 0.0, 0.0, 0.0, 1.6518359679427292E9, 0.0, 2022-05-06 12:19:27.942
15.0, -256.2224159142934, -170.9900959241204, -193.60153105622157, -174.68885698029771, 0.1600000075995922, 0.11200000531971455, 1.0240000486373901, 0.0, 0.0, 0.0, 0.0, 0.0, 1.6518359679437284E9, 0.0, 2022-05-06 12:19:27.943
15.0, -246.11720623401925, -123.79255848331377, -134.91876085149124, -154.55323561886325, 0.1600000075995922, 0.11200000531971455, 1.0240000486373901, 0.0, 0.0, 0.0, 0.0, 0.0, 1.6518359679437284E9, 0.0, 2022-05-06 12:19:27.943
16.0, -215.73051909403875, -65.46881867432967, -97.22056929813698, -134.2306192596443, 0.1600000075995922, 0.11200000531971455, 1.0240000486373901, 0.0, 0.0, 0.0, 0.0, 0.0, 1.651835967955793E9, 0.0, 2022-05-06 12:19:27.955
16.0, -229.74392422800884, -117.20659466134384, -156.4643244962208, -172.9498035009019, 0.1600000075995922, 0.11200000531971455, 1.0240000486373901, 0.0, 0.0, 0.0, 0.0, 0.0, 1.651835967955793E9, 0.0, 2022-05-06 12:19:27.955
17.0, -257.1835702029057, -180.0630932166241, -205.91702161030844, -190.71806819038466, 0.1600000075995922, 0.11200000531971455, 1.0240000486373901, 0.0, 0.0, 0.0, 0.0, 0.0, 1.651835967971766E9, 0.0, 2022-05-06 12:19:27.971
17.0, -265.0971985091455, -146.6022083130665, -163.85062690870836, -184.67064996203408, 0.1600000075995922, 0.11200000531971455, 1.0240000486373901, 0.0, 0.0, 0.0, 0.0, 0.0, 1.651835967971766E9, 0.0, 2022-05-06 12:19:27.971
18.0, -213.09388962527737, -68.6813927362673, -98.16302408697084, -146.55358961364254, 0.1600000075995922, 0.11200000531971455, 1.0240000486373901, 0.0, 0.0, 0.0, 0.0, 0.0, 1.6518359679726925E9, 0.0, 2022-05-06 12:19:27.972
18.0, -218.69251985894516, -117.71896095527336, -149.11542108329013, -154.23160422267392, 0.1600000075995922, 0.11200000531971455, 1.0240000486373901, 0.0, 0.0, 0.0, 0.0, 0.0, 1.6518359679726925E9, 0.0, 2022-05-06 12:19:27.972
19.0, -259.82019967166707, -190.52359339268878, -215.932473691646, -190.34781809477136, 0.1600000075995922, 0.11200000531971455, 1.0240000486373901, 0.0, 0.0, 0.0, 0.0, 0.0, 1.651835967985831E9, 0.0, 2022-05-06 12:19:27.985
19.0, -246.2518426324241, -132.37188898166642, -153.4200459322892, -177.62841834546998, 0.1600000075995922, 0.11200000531971455, 1.0240000486373901, 0.0, 0.0, 0.0, 0.0, 0.0, 1.651835967985831E9, 0.0, 2022-05-06 12:19:27.985
20.0, -214.39537480985746, -70.07263551978394, -93.98181593650952, -138.10889551369473, 0.1600000075995922, 0.11200000531971455, 1.0240000486373901, 0.0, 0.0, 0.0, 0.0, 0.0, 1.6518359680017724E9, 0.0, 2022-05-06 12:19:28.001
20.0, -225.33832208020613, -122.88002289412543, -158.2407769751735, -164.58364730002359, 0.1600000075995922, 0.11200000531971455, 1.0240000486373901, 0.0, 0.0, 0.0, 0.0, 0.0, 1.6518359680017724E9, 0.0, 2022-05-06 12:19:28.001
21.0, -254.16921083861962, -179.28145412588492, -205.66644831327721, -181.921823494602, 0.1600000075995922, 0.11200000531971455, 1.0240000486373901, 0.0, 0.0, 0.0, 0.0, 0.0, 1.6518359680027287E9, 0.0, 2022-05-06 12:19:28.002
21.0, -226.73330476367846, -121.38780281180516, -138.62500170757994, -151.89790665032342, 0.1600000075995922, 0.11200000531971455, 1.0240000486373901, 0.0, 0.0, 0.0, 0.0, 0.0, 1.6518359680027287E9, 0.0, 2022-05-06 12:19:28.002
22.0, -202.90266224602237, -63.78586369426921, -93.00570204807445, -136.59423603164032, 0.1600000075995922, 0.11200000531971455, 1.0240000486373901, 0.0, 0.0, 0.0, 0.0, 0.0, 1.6518359680157287E9, 0.0, 2022-05-06 12:19:28.015
22.0, -216.73281228216365, -107.08268548129126, -137.4918120210059, -146.17585971811786, 0.1600000075995922, 0.11200000531971455, 1.0240000486373901, 0.0, 0.0, 0.0, 0.0, 0.0, 1.6518359680157287E9, 0.0, 2022-05-06 12:19:28.015
23.0, -260.3737048651092, -175.3209000728093, -194.3308115475811, -175.99782196478918, 0.1600000075995922, 0.11200000531971455, 1.0240000486373901, 0.0, 0.0, 0.0, 0.0, 0.0, 1.6518359680467997E9, 0.0, 2022-05-06 12:19:28.046
23.0, -244.27717545581982, -130.7151133012958, -148.65167348878458, -158.5025699720718, 0.1600000075995922, 0.11200000531971455, 1.0240000486373901, 0.0, 0.0, 0.0, 0.0, 0.0, 1.6518359680467997E9, 0.0, 2022-05-06 12:19:28.046
24.0, -212.9330739271827, -67.34998835204169, -94.40442463150248, -136.79619062924758, 0.1600000075995922, 0.11200000531971455, 1.0240000486373901, 0.0, 0.0, 0.0, 0.0, 0.0, 1.6518359680477276E9, 0.0, 2022-05-06 12:19:28.047
24.0, -216.0858095898293, -107.31829917849973, -143.94687934452668, -149.60160807752982, 0.1600000075995922, 0.11200000531971455, 1.0240000486373901, 0.0, 0.0, 0.0, 0.0, 0.0, 1.6518359680477276E9, 0.0, 2022-05-06 12:19:28.047
25.0, -249.77482839068398, -171.5847400170751, -197.94729480473325, -180.97936870576814, 0.1600000075995922, 0.11200000531971455, 1.0240000486373901, 0.0, 0.0, 0.0, 0.0, 0.0, 1.651835968048689E9, 0.0, 2022-05-06 12:19:28.048
25.0, -252.70690995594487, -133.3816619697027, -156.2399304988794, -180.74001510860398, 0.1600000075995922, 0.11200000531971455, 1.0240000486373901, 0.0, 0.0, 0.0, 0.0, 0.0, 1.651835968048689E9, 0.0, 2022-05-06 12:19:28.048
26.0, -216.47475918522105, -71.86404759855941, -103.7354750209488, -156.13895320007578, 0.1600000075995922, 0.11200000531971455, 1.0240000486373901, 0.0, 0.0, 0.0, 0.0, 0.0, 1.6518359680617456E9, 0.0, 2022-05-06 12:19:28.061
26.0, -222.03973031928763, -113.28343960782513, -149.7212848761119, -160.89610594371334, 0.1600000075995922, 0.11200000531971455, 1.0240000486373901, 0.0, 0.0, 0.0, 0.0, 0.0, 1.6518359680617456E9, 0.0, 2022-05-06 12:19:28.061
27.0, -256.4842089111917, -179.37869152473286, -201.2645860654302, -183.41404357692227, 0.1600000075995922, 0.11200000531971455, 1.0240000486373901, 0.0, 0.0, 0.0, 0.0, 0.0, 1.6518359680627296E9, 0.0, 2022-05-06 12:19:28.062
27.0, -245.41036514239386, -134.86640225211158, -145.48771812627092, -155.92951880255714, 0.1600000075995922, 0.11200000531971455, 1.0240000486373901, 0.0, 0.0, 0.0, 0.0, 0.0, 1.6518359680627296E9, 0.0, 2022-05-06 12:19:28.062
28.0, -203.0746976439841, -60.21051933662966, -85.01727574272081, -127.263185642194, 0.1600000075995922, 0.11200000531971455, 1.0240000486373901, 0.0, 0.0, 0.0, 0.0, 0.0, 1.6518359680757318E9, 0.0, 2022-05-06 12:19:28.075
28.0, -218.72243905859068, -100.91559045435861, -138.8606154047884, -152.50377044314519, 0.1600000075995922, 0.11200000531971455, 1.0240000486373901, 0.0, 0.0, 0.0, 0.0, 0.0, 1.6518359680757318E9, 0.0, 2022-05-06 12:19:28.075
29.0, -255.30240052519366, -169.66617133980617, -195.1835087374784, -182.85305858356878, 0.1600000075995922, 0.11200000531971455, 1.0240000486373901, 0.0, 0.0, 0.0, 0.0, 0.0, 1.6518359681067388E9, 0.0, 2022-05-06 12:19:28.106
29.0, -244.19115775683895, -122.83140419470146, -136.51569813257083, -154.72901091678068, 0.1600000075995922, 0.11200000531971455, 1.0240000486373901, 0.0, 0.0, 0.0, 0.0, 0.0, 1.6518359681067388E9, 0.0, 2022-05-06 12:19:28.106
30.0, -213.3070639227517, -76.90169283887371, -106.59649848705158, -156.6475795940496, 0.1600000075995922, 0.11200000531971455, 1.0240000486373901, 0.0, 0.0, 0.0, 0.0, 0.0, 1.651835968107675E9, 0.0, 2022-05-06 12:19:28.107
30.0, -230.04685612441972, -122.53221219824627, -155.70138490526006, -169.86064613750204, 0.1600000075995922, 0.11200000531971455, 1.0240000486373901, 0.0, 0.0, 0.0, 0.0, 0.0, 1.651835968107675E9, 0.0, 2022-05-06 12:19:28.107
31.0, -258.7019695849158, -188.2235549199395, -208.2694186824374, -182.89793738303706, 0.1600000075995922, 0.11200000531971455, 1.0240000486373901, 0.0, 0.0, 0.0, 0.0, 0.0, 1.65183596810868E9, 0.0, 2022-05-06 12:19:28.108
31.0, -259.9286567703821, -147.0921352072619, -163.469157113228, -179.53576732287183, 0.1600000075995922, 0.11200000531971455, 1.0240000486373901, 0.0, 0.0, 0.0, 0.0, 0.0, 1.65183596810868E9, 0.0, 2022-05-06 12:19:28.108
32.0, -220.0501035428606, -86.94332421990111, -108.02140037016943, -156.5054633957334, 0.1600000075995922, 0.11200000531971455, 1.0240000486373901, 0.0, 0.0, 0.0, 0.0, 0.0, 1.6518359681217325E9, 0.0, 2022-05-06 12:19:28.121
32.0, -222.0920889186673, -124.0057327807881, -159.6544591584243, -174.00819518836215, 0.1600000075995922, 0.11200000531971455, 1.0240000486373901, 0.0, 0.0, 0.0, 0.0, 0.0, 1.6518359681217325E9, 0.0, 2022-05-06 12:19:28.121
33.0, -249.59157329285517, -182.6997226853855, -207.4840396917425, -185.41489005321637, 0.1600000075995922, 0.11200000531971455, 1.0240000486373901, 0.0, 0.0, 0.0, 0.0, 0.0, 1.651835968122661E9, 0.0, 2022-05-06 12:19:28.122
33.0, -246.9923428236507, -132.87303557572886, -152.95255843782797, -164.0226623066701, 0.1600000075995922, 0.11200000531971455, 1.0240000486373901, 0.0, 0.0, 0.0, 0.0, 0.0, 1.651835968122661E9, 0.0, 2022-05-06 12:19:28.122
34.0, -208.90146177494898, -63.77464399440214, -89.75572898657992, -136.46707943314686, 0.1600000075995922, 0.11200000531971455, 1.0240000486373901, 0.0, 0.0, 0.0, 0.0, 0.0, 1.6518359681687849E9, 0.0, 2022-05-06 12:19:28.168
34.0, -210.1580681600608, -93.23757584532723, -128.40011522872373, -144.92299323296174, 0.1600000075995922, 0.11200000531971455, 1.0240000486373901, 0.0, 0.0, 0.0, 0.0, 0.0, 1.6518359681687849E9, 0.0, 2022-05-06 12:19:28.168
35.0, -233.92887227842584, -162.612720023375, -194.14007664984092, -175.89310476602986, 0.1600000075995922, 0.11200000531971455, 1.0240000486373901, 0.0, 0.0, 0.0, 0.0, 0.0, 1.6518359681696887E9, 0.0, 2022-05-06 12:19:28.169
35.0, -248.4733432061039, -130.39722180506214, -144.6088416366838, -157.9490647786297, 0.1600000075995922, 0.11200000531971455, 1.0240000486373901, 0.0, 0.0, 0.0, 0.0, 0.0, 1.6518359681696887E9, 0.0, 2022-05-06 12:19:28.169
36.0, -200.16131557850167, -48.9309810702689, -83.760669357609, -125.224940166343, 0.1600000075995922, 0.11200000531971455, 1.0240000486373901, 0.0, 0.0, 0.0, 0.0, 0.0, 1.6518359681707315E9, 0.0, 2022-05-06 12:19:28.170
36.0, -216.61687538353726, -101.9178836424835, -139.70209289481863, -155.5704884068109, 0.1600000075995922, 0.11200000531971455, 1.0240000486373901, 0.0, 0.0, 0.0, 0.0, 0.0, 1.6518359681707315E9, 0.0, 2022-05-06 12:19:28.170
37.0, -259.2255555787124, -181.93678309442475, -210.03839136147872, -193.30233905976638, 0.1600000075995922, 0.11200000531971455, 1.0240000486373901, 0.0, 0.0, 0.0, 0.0, 0.0, 1.6518359681716907E9, 0.0, 2022-05-06 12:19:28.171
37.0, -253.83635974256322, -149.24631758173928, -162.67629832262173, -185.1082182568498, 0.1600000075995922, 0.11200000531971455, 1.0240000486373901, 0.0, 0.0, 0.0, 0.0, 0.0, 1.6518359681716907E9, 0.0, 2022-05-06 12:19:28.171
38.0, -213.88674841588363, -71.35168130462989, -98.02464778861031, -148.50955729046836, 0.1600000075995922, 0.11200000531971455, 1.0240000486373901, 0.0, 0.0, 0.0, 0.0, 0.0, 1.6518359681818025E9, 0.0, 2022-05-06 12:19:28.181
38.0, -222.24168491689488, -112.04553272249177, -144.35826833965257, -164.73698319820687, 0.1600000075995922, 0.11200000531971455, 1.0240000486373901, 0.0, 0.0, 0.0, 0.0, 0.0, 1.6518359681818025E9, 0.0, 2022-05-06 12:19:28.181
39.0, -248.51822200557217, -170.15983813395724, -192.01581347500905, -174.47942258277908, 0.1600000075995922, 0.11200000531971455, 1.0240000486373901, 0.0, 0.0, 0.0, 0.0, 0.0, 1.6518359681827228E9, 0.0, 2022-05-06 12:19:28.182
39.0, -248.70521700335667, -128.47865312779322, -147.52222370216623, -162.50426292466, 0.1600000075995922, 0.11200000531971455, 1.0240000486373901, 0.0, 0.0, 0.0, 0.0, 0.0, 1.6518359681827228E9, 0.0, 2022-05-06 12:19:28.182
40.0, -209.24179267091677, -68.11666784295812, -96.66332420473918, -141.40374737465754, 0.1600000075995922, 0.11200000531971455, 1.008000047877431, 0.0, 0.0, 0.0, 0.0, 0.0, 1.6518359681957257E9, 0.0, 2022-05-06 12:19:28.195
40.0, -205.12416281970218, -92.11186595866457, -123.6354826851748, -133.4901190684177, 0.1600000075995922, 0.11200000531971455, 1.008000047877431, 0.0, 0.0, 0.0, 0.0, 0.0, 1.6518359681957257E9, 0.0, 2022-05-06 12:19:28.195
41.0, -234.7179911690764, -147.52222370216623, -171.45384351862594, -143.80850304616615, 0.1600000075995922, 0.11200000531971455, 1.008000047877431, 0.0, 0.0, 0.0, 0.0, 0.0, 1.651835968226775E9, 0.0, 2022-05-06 12:19:28.226
41.0, -250.1338587864302, -140.43885318608955, -157.2422236870043, -171.76051531499252, 0.1600000075995922, 0.11200000531971455, 1.008000047877431, 0.0, 0.0, 0.0, 0.0, 0.0, 1.651835968226775E9, 0.0, 2022-05-06 12:19:28.226
42.0, -208.85284307552502, -70.61492101335898, -101.71218914492056, -156.015536501538, 0.1600000075995922, 0.11200000531971455, 1.008000047877431, 0.0, 0.0, 0.0, 0.0, 0.0, 1.6518359682277722E9, 0.0, 2022-05-06 12:19:28.227
42.0, -221.58346252469346, -118.95686784060672, -154.58689471846446, -175.5490339701064, 0.1600000075995922, 0.11200000531971455, 1.008000047877431, 0.0, 0.0, 0.0, 0.0, 0.0, 1.6518359682277722E9, 0.0, 2022-05-06 12:19:28.227
43.0, -255.23508232599124, -184.70804896159098, -208.9687799741514, -189.9214694998227, 0.1600000075995922, 0.11200000531971455, 1.008000047877431, 0.0, 0.0, 0.0, 0.0, 0.0, 1.6518359682286563E9, 0.0, 2022-05-06 12:19:28.228
43.0, -240.0623082057573, -136.62789513124153, -154.17550572333857, -162.92313171969727, 0.1600000075995922, 0.11200000531971455, 1.008000047877431, 0.0, 0.0, 0.0, 0.0, 0.0, 1.6518359682286563E9, 0.0, 2022-05-06 12:19:28.228
44.0, -200.50538637442514, -56.377121882047504, -80.95574439084157, -130.79365120036528, 0.1600000075995922, 0.11200000531971455, 1.008000047877431, 0.0, 0.0, 0.0, 0.0, 0.0, 1.6518359682417796E9, 0.0, 2022-05-06 12:19:28.241
44.0, -216.58321628393605, -100.89689095458016, -138.24727181205526, -148.9396457853727, 0.1600000075995922, 0.11200000531971455, 1.008000047877431, 0.0, 0.0, 0.0, 0.0, 0.0, 1.6518359682417796E9, 0.0, 2022-05-06 12:19:28.241
45.0, -251.1772908740677, -179.96211591782048, -208.72942637698725, -187.04548643389717, 0.1600000075995922, 0.11200000531971455, 1.008000047877431, 0.0, 0.0, 0.0, 0.0, 0.0, 1.6518359682427373E9, 0.0, 2022-05-06 12:19:28.242
45.0, -247.5458480170928, -141.21301247691736, -155.59292780654505, -170.75822212686762, 0.1600000075995922, 0.11200000531971455, 1.008000047877431, 0.0, 0.0, 0.0, 0.0, 0.0, 1.6518359682427373E9, 0.0, 2022-05-06 12:19:28.242
46.0, -205.95816050982103, -72.12958049541339, -93.55546734156087, -137.88076161639765, 0.1600000075995922, 0.11200000531971455, 1.008000047877431, 0.0, 0.0, 0.0, 0.0, 0.0, 1.6518359682557757E9, 0.0, 2022-05-06 12:19:28.255
46.0, -208.3741358811967, -98.12188518745825, -127.61847613798454, -140.57348958449438, 0.1600000075995922, 0.11200000531971455, 1.008000047877431, 0.0, 0.0, 0.0, 0.0, 0.0, 1.6518359682557757E9, 0.0, 2022-05-06 12:19:28.255
47.0, -237.388279737439, -162.56410132395104, -185.80383964860812, -163.60753341158852, 0.1600000075995922, 0.11200000531971455, 1.008000047877431, 0.0, 0.0, 0.0, 0.0, 0.0, 1.6518359682887385E9, 0.0, 2022-05-06 12:19:28.288
47.0, -255.4781758231111, -147.44742570305243, -163.08020751783624, -176.19603666244075, 0.1600000075995922, 0.11200000531971455, 1.008000047877431, 0.0, 0.0, 0.0, 0.0, 0.0, 1.6518359682887385E9, 0.0, 2022-05-06 12:19:28.288
48.0, -208.9313809745945, -68.1241476428695, -92.55317415343598, -139.601115596015, 0.1600000075995922, 0.11200000531971455, 1.008000047877431, 0.0, 0.0, 0.0, 0.0, 0.0, 1.6518359682896824E9, 0.0, 2022-05-06 12:19:28.289
48.0, -204.47716012736782, -97.54220069432631, -132.20359348366037, -140.48747188551351, 0.1600000075995922, 0.11200000531971455, 1.008000047877431, 0.0, 0.0, 0.0, 0.0, 0.0, 1.6518359682896824E9, 0.0, 2022-05-06 12:19:28.289
49.0, -242.91959177190438, -167.27263536816463, -191.84003817709163, -168.71623675106093, 0.1600000075995922, 0.11200000531971455, 1.008000047877431, 0.0, 0.0, 0.0, 0.0, 0.0, 1.651835968290728E9, 0.0, 2022-05-06 12:19:28.290
49.0, -246.30046133184806, -136.72139263013378, -147.5297035020776, -154.80380891589448, 0.1600000075995922, 0.11200000531971455, 1.008000047877431, 0.0, 0.0, 0.0, 0.0, 0.0, 1.651835968290728E9, 0.0, 2022-05-06 12:19:28.290
50.0, -216.25784498779103, -69.52661012625322, -99.15409757522866, -136.84480932867154, 0.1600000075995922, 0.11200000531971455, 1.008000047877431, 0.0, 0.0, 0.0, 0.0, 0.0, 1.651835968291715E9, 0.0, 2022-05-06 12:19:28.291
50.0, -216.21670608827844, -98.78384747961536, -137.32725642295554, -154.44477852014825, 0.1600000075995922, 0.11200000531971455, 1.008000047877431, 0.0, 0.0, 0.0, 0.0, 0.0, 1.651835968291715E9, 0.0, 2022-05-06 12:19:28.291
51.0, -247.14941862178966, -170.4291109307669, -189.88033060031012, -172.213043209631, 0.1600000075995922, 0.11200000531971455, 1.008000047877431, 0.0, 0.0, 0.0, 0.0, 0.0, 1.651835968316724E9, 0.0, 2022-05-06 12:19:28.316
51.0, -251.3605459718965, -145.07258923118934, -161.40473233768716, -172.9535434008576, 0.1600000075995922, 0.11200000531971455, 1.008000047877431, 0.0, 0.0, 0.0, 0.0, 0.0, 1.651835968316724E9, 0.0, 2022-05-06 12:19:28.316
52.0, -217.62664837157354, -72.18567899474874, -103.62701792223379, -153.89501322666183, 0.1600000075995922, 0.11200000531971455, 1.008000047877431, 0.0, 0.0, 0.0, 0.0, 0.0, 1.6518359683176908E9, 0.0, 2022-05-06 12:19:28.317
52.0, -218.80471685761586, -101.60747194616124, -135.6779605424963, -161.51318943640217, 0.1600000075995922, 0.11200000531971455, 1.008000047877431, 0.0, 0.0, 0.0, 0.0, 0.0, 1.6518359683176908E9, 0.0, 2022-05-06 12:19:28.317
53.0, -256.1027391157113, -183.08493238082156, -206.46304700383916, -185.08577885711566, 0.1600000075995922, 0.11200000531971455, 1.008000047877431, 0.0, 0.0, 0.0, 0.0, 0.0, 1.6518359683467188E9, 0.0, 2022-05-06 12:19:28.346
53.0, -269.4766213572584, -160.77268924517557, -177.81541334325448, -183.70575577346608, 0.1600000075995922, 0.11200000531971455, 1.008000047877431, 0.0, 0.0, 0.0, 0.0, 0.0, 1.6518359683467188E9, 0.0, 2022-05-06 12:19:28.346
54.0, -232.60120779415593, -85.43988443771377, -113.26848000800237, -159.28794896276668, 0.1600000075995922, 0.11200000531971455, 1.008000047877431, 0.0, 0.0, 0.0, 0.0, 0.0, 1.6518359683477204E9, 0.0, 2022-05-06 12:19:28.347
54.0, -224.3435086919926, -114.40166969457641, -146.66204671235755, -163.78704860946164, 0.1600000075995922, 0.11200000531971455, 1.008000047877431, 0.0, 0.0, 0.0, 0.0, 0.0, 1.6518359683477204E9, 0.0, 2022-05-06 12:19:28.347
55.0, -237.86324703181162, -167.48580966563895, -188.4367292174138, -167.90093856072053, 0.1600000075995922, 0.11200000531971455, 1.008000047877431, 0.0, 0.0, 0.0, 0.0, 0.0, 1.6518359683487313E9, 0.0, 2022-05-06 12:19:28.348
55.0, -247.89739861292765, -145.54755652556196, -161.93205823143944, -171.248149021063, 0.1600000075995922, 0.11200000531971455, 1.008000047877431, 0.0, 0.0, 0.0, 0.0, 0.0, 1.6518359683487313E9, 0.0, 2022-05-06 12:19:28.348
56.0, -222.55583651317284, -73.82375517534092, -106.76105408510193, -152.58978814212605, 0.1600000075995922, 0.11200000531971455, 1.008000047877431, 0.0, 0.0, 0.0, 0.0, 0.0, 1.6518359683767705E9, 0.0, 2022-05-06 12:19:28.376
56.0, -227.2419311576523, -101.00908795325086, -131.42943419283256, -149.99803747283295, 0.1600000075995922, 0.11200000531971455, 1.008000047877431, 0.0, 0.0, 0.0, 0.0, 0.0, 1.6518359683767705E9, 0.0, 2022-05-06 12:19:28.376
57.0, -256.20371641451493, -174.2886876850389, -191.86995737673715, -176.02026136452332, 0.1600000075995922, 0.11200000531971455, 1.008000047877431, 0.0, 0.0, 0.0, 0.0, 0.0, 1.6518359683777297E9, 0.0, 2022-05-06 12:19:28.377
57.0, -268.5491261682473, -160.59317404730245, -175.49293547077104, -177.37784504843876, 0.1600000075995922, 0.11200000531971455, 1.008000047877431, 0.0, 0.0, 0.0, 0.0, 0.0, 1.6518359683777297E9, 0.0, 2022-05-06 12:19:28.377
58.0, -230.9107730141841, -75.84704105136916, -101.9178836424835, -142.26392436446622, 0.1600000075995922, 0.11200000531971455, 1.008000047877431, 0.0, 0.0, 0.0, 0.0, 0.0, 1.6518359683786795E9, 0.0, 2022-05-06 12:19:28.378
58.0, -223.9022004972212, -97.8787916903384, -141.39252767479047, -159.0149362660013, 0.1600000075995922, 0.11200000531971455, 1.008000047877431, 0.0, 0.0, 0.0, 0.0, 0.0, 1.6518359683786795E9, 0.0, 2022-05-06 12:19:28.378
59.0, -255.2463020258583, -178.09590583993122, -201.91158875776455, -182.69224288547412, 0.1600000075995922, 0.11200000531971455, 1.008000047877431, 0.0, 0.0, 0.0, 0.0, 0.0, 1.6518359684087465E9, 0.0, 2022-05-06 12:19:28.408
59.0, -252.71812965581194, -148.61427448922768, -158.96257766662166, -164.25827600387856, 0.1600000075995922, 0.11200000531971455, 1.008000047877431, 0.0, 0.0, 0.0, 0.0, 0.0, 1.6518359684087465E9, 0.0, 2022-05-06 12:19:28.408
60.0, -212.39826823351905, -61.220292324665934, -93.3983915434219, -137.59652921976522, 0.1600000075995922, 0.11200000531971455, 1.008000047877431, 0.0, 0.0, 0.0, 0.0, 0.0, 1.6518359684096556E9, 0.0, 2022-05-06 12:19:28.409
60.0, -213.4491801210679, -95.507695118431, -129.35752961738035, -143.31857615197077, 0.1600000075995922, 0.11200000531971455, 1.008000047877431, 0.0, 0.0, 0.0, 0.0, 0.0, 1.6518359684096556E9, 0.0, 2022-05-06 12:19:28.409
61.0, -248.19659060938284, -167.2053171689622, -190.2169215963222, -163.75712940981612, 0.1600000075995922, 0.11200000531971455, 1.008000047877431, 0.0, 0.0, 0.0, 0.0, 0.0, 1.6518359684107313E9, 0.0, 2022-05-06 12:19:28.410
61.0, -253.35017274832353, -152.70572504075244, -171.42766421893612, -178.88876463053748, 0.1600000075995922, 0.11200000531971455, 1.008000047877431, 0.0, 0.0, 0.0, 0.0, 0.0, 1.6518359684107313E9, 0.0, 2022-05-06 12:19:28.410
62.0, -228.22552484599873, -74.17904567113146, -108.32433226658031, -154.73275081673637, 0.1600000075995922, 0.11200000531971455, 1.008000047877431, 0.0, 0.0, 0.0, 0.0, 0.0, 1.651835968411729E9, 0.0, 2022-05-06 12:19:28.411
62.0, -235.51458985963836, -106.95178898284212, -141.54586357297376, -160.63057304685935, 0.1600000075995922, 0.11200000531971455, 1.008000047877431, 0.0, 0.0, 0.0, 0.0, 0.0, 1.651835968411729E9, 0.0, 2022-05-06 12:19:28.411
63.0, -255.4407768235542, -174.9917888767086, -192.10183117398992, -172.03726791171357, 0.1600000075995922, 0.11200000531971455, 1.008000047877431, 0.0, 0.0, 0.0, 0.0, 0.0, 1.6518359684207652E9, 0.0, 2022-05-06 12:19:28.420
63.0, -262.20625584339723, -149.77364347549155, -173.96331638889387, -181.14766420377418, 0.1600000075995922, 0.11200000531971455, 1.008000047877431, 0.0, 0.0, 0.0, 0.0, 0.0, 1.6518359684207652E9, 0.0, 2022-05-06 12:19:28.420
64.0, -221.0149977314286, -70.50272401468828, -99.8833780665882, -141.22423217678443, 0.1600000075995922, 0.11200000531971455, 1.008000047877431, 0.0, 0.0, 0.0, 0.0, 0.0, 1.6518359684357784E9, 0.0, 2022-05-06 12:19:28.435
64.0, -208.20584038319066, -89.34060009149835, -123.87483628233895, -137.66010751901194, 0.1600000075995922, 0.11200000531971455, 1.008000047877431, 0.0, 0.0, 0.0, 0.0, 0.0, 1.6518359684357784E9, 0.0, 2022-05-06 12:19:28.435
65.0, -250.77338167885318, -176.78694085543975, -195.1498496378772, -167.78500166209415, 0.1600000075995922, 0.11200000531971455, 1.008000047877431, 0.0, 0.0, 0.0, 0.0, 0.0, 1.6518359684517777E9, 0.0, 2022-05-06 12:19:28.451
65.0, -270.591111544054, -158.70078466972336, -174.67015748051926, -181.79840679606423, 0.1600000075995922, 0.11200000531971455, 1.008000047877431, 0.0, 0.0, 0.0, 0.0, 0.0, 1.6518359684517777E9, 0.0, 2022-05-06 12:19:28.451
