%OpenBCI Raw EEG Data
%Number of channels = 4
%Sample Rate = 200 Hz
%Board = OpenBCI_GUI$BoardGanglionBLE
Sample Index, EXG Channel 0, EXG Channel 1, EXG Channel 2, EXG Channel 3, Accel Channel 0, Accel Channel 1, Accel Channel 2, Other, Other, Other, Other, Other, Timestamp, Other, Timestamp (Formatted)
64.0, -43.233243487775326, -71.83599834889174, -50.24181600473821, -44.489849872887135, 0.0, 0.0, 0.0, 0.0, 0.0, 0.0, 0.0, 0.0, 1.6518363562158792E9, 0.0, 2022-05-06 12:25:56.215
64.0, -241.71908388612792, 153.45557498186827, 181.9049939448014, 175.05349722597748, 0.0, 0.0, 0.0, 0.0, 0.0, 0.0, 0.0, 0.0, 1.6518363562158792E9, 0.0, 2022-05-06 12:25:56.215
0.0, -197.9285953049548, -47.82210073340684, -96.5062484066002, -138.87183510465547, 0.0, 0.0, 0.0, 0.0, 0.0, 0.0, 0.0, 0.0, 1.6518363562408383E9, 0.0, 2022-05-06 12:25:56.240
1.0, -236.2027314514853, -159.151442614384, -175.26854147342965, -171.67075771605596, 0.0, 0.11200000531971455, 0.0, 0.0, 0.0, 0.0, 0.0, 0.0, 1.6518363562528608E9, 0.0, 2022-05-06 12:25:56.252
1.0, -275.7858325825073, -213.58942636940628, -222.35388191556558, -205.23261991841719, 0.0, 0.11200000531971455, 0.0, 0.0, 0.0, 0.0, 0.0, 0.0, 1.6518363562528608E9, 0.0, 2022-05-06 12:25:56.252
2.0, -237.90064603136852, -99.32052312325686, -137.2300190241076, -164.3592533026822, 0.1600000075995922, 0.11200000531971455, 0.0, 0.0, 0.0, 0.0, 0.0, 0.0, 1.6518363562698507E9, 0.0, 2022-05-06 12:25:56.269
2.0, -192.84233136521652, -31.590934925712645, -83.08748736558482, -118.4071025471203, 0.1600000075995922, 0.11200000531971455, 0.0, 0.0, 0.0, 0.0, 0.0, 0.0, 1.6518363562698507E9, 0.0, 2022-05-06 12:25:56.269
3.0, -246.16208503348753, -156.32033834792674, -183.82917247200385, -171.38652531942353, 0.1600000075995922, 0.11200000531971455, 0.0, 0.0, 0.0, 0.0, 0.0, 0.0, 1.6518363562708428E9, 0.0, 2022-05-06 12:25:56.270
3.0, -296.3852015384473, -229.49522088095546, -234.67685226956382, -230.29742942145094, 0.1600000075995922, 0.11200000531971455, 0.0, 0.0, 0.0, 0.0, 0.0, 0.0, 1.6518363562708428E9, 0.0, 2022-05-06 12:25:56.270
4.0, -250.08524008700624, -112.04740267246962, -144.33956883987412, -180.65025750966743, 0.1600000075995922, 0.11200000531971455, 0.0, 0.0, 0.0, 0.0, 0.0, 0.0, 1.6518363562829452E9, 0.0, 2022-05-06 12:25:56.282
4.0, -201.82557105878368, -48.55886102467775, -96.35665240837261, -131.4892725921236, 0.1600000075995922, 0.11200000531971455, 0.0, 0.0, 0.0, 0.0, 0.0, 0.0, 1.6518363562829452E9, 0.0, 2022-05-06 12:25:56.282
5.0, -238.57008812343702, -161.3692032881081, -179.68910322105512, -166.93604437215254, 0.1600000075995922, 0.11200000531971455, 0.0, 0.0, 0.0, 0.0, 0.0, 0.0, 1.6518363562988763E9, 0.0, 2022-05-06 12:25:56.298
5.0, -293.7186528700404, -223.37300465349108, -226.9090800615959, -211.15662144823, 0.1600000075995922, 0.11200000531971455, 0.0, 0.0, 0.0, 0.0, 0.0, 0.0, 1.6518363562988763E9, 0.0, 2022-05-06 12:25:56.298
6.0, -256.4729892113246, -106.422593139112, -146.95749880885705, -180.57171961059794, 0.1600000075995922, 0.11200000531971455, 0.0, 0.0, 0.0, 0.0, 0.0, 0.0, 1.651836356299836E9, 0.0, 2022-05-06 12:25:56.299
6.0, -199.94814128102735, -43.85032698046416, -89.27702179225162, -128.6693880255334, 0.1600000075995922, 0.11200000531971455, 0.0, 0.0, 0.0, 0.0, 0.0, 0.0, 1.651836356299836E9, 0.0, 2022-05-06 12:25:56.299
7.0, -250.64248518040404, -164.0768908560276, -184.17324326792732, -185.53830675175413, 0.1600000075995922, 0.11200000531971455, 0.0, 0.0, 0.0, 0.0, 0.0, 0.0, 1.6518363563299005E9, 0.0, 2022-05-06 12:25:56.329
7.0, -295.3829083503224, -224.73058833740652, -231.99534400133416, -211.38849524548277, 0.1600000075995922, 0.11200000531971455, 0.0, 0.0, 0.0, 0.0, 0.0, 0.0, 1.6518363563299005E9, 0.0, 2022-05-06 12:25:56.329
8.0, -249.63271219236776, -105.85412834584713, -139.3094033994712, -169.84942643763497, 0.1600000075995922, 0.11200000531971455, 0.0, 0.0, 0.0, 0.0, 0.0, 0.0, 1.6518363563308256E9, 0.0, 2022-05-06 12:25:56.330
8.0, -194.60382424434647, -43.33796068653464, -97.3963445960544, -139.35428219893947, 0.1600000075995922, 0.11200000531971455, 0.0, 0.0, 0.0, 0.0, 0.0, 0.0, 1.6518363563308256E9, 0.0, 2022-05-06 12:25:56.330
9.0, -247.2429161206819, -163.8225776590407, -185.37749105365947, -173.5855864933692, 0.1600000075995922, 0.11200000531971455, 0.0, 0.0, 0.0, 0.0, 0.0, 0.0, 1.6518363563318267E9, 0.0, 2022-05-06 12:25:56.331
9.0, -300.91422038478777, -231.82143865339458, -236.43460524873808, -212.65258143050596, 0.1600000075995922, 0.11200000531971455, 0.0, 0.0, 0.0, 0.0, 0.0, 0.0, 1.6518363563318267E9, 0.0, 2022-05-06 12:25:56.331
10.0, -249.4307575947605, -106.6432472364977, -145.32316252822056, -170.04016133537516, 0.1600000075995922, 0.11200000531971455, 1.008000047877431, 0.0, 0.0, 0.0, 0.0, 0.0, 1.6518363563429253E9, 0.0, 2022-05-06 12:25:56.342
10.0, -218.02307776687667, -67.01526730600744, -109.37150425417349, -150.0204768725671, 0.1600000075995922, 0.11200000531971455, 1.008000047877431, 0.0, 0.0, 0.0, 0.0, 0.0, 1.6518363563429253E9, 0.0, 2022-05-06 12:25:56.342
11.0, -246.6520119276829, -179.39926097448915, -194.64870304381475, -187.37833752995357, 0.1600000075995922, 0.04800000227987766, 1.008000047877431, 0.0, 0.0, 0.0, 0.0, 0.0, 1.6518363563738763E9, 0.0, 2022-05-06 12:25:56.373
11.0, -282.9402611977421, -188.4236395675689, -207.68973418930545, -190.75920708989725, 0.1600000075995922, 0.04800000227987766, 1.008000047877431, 0.0, 0.0, 0.0, 0.0, 0.0, 1.6518363563738763E9, 0.0, 2022-05-06 12:25:56.373
12.0, -249.64019199227914, -96.67267395462841, -128.39637532876804, -155.9033395028673, 0.0800000037997961, 0.04800000227987766, 1.008000047877431, 0.0, 0.0, 0.0, 0.0, 0.0, 1.6518363563898785E9, 0.0, 2022-05-06 12:25:56.389
12.0, -215.94369339151308, -72.63633693940938, -108.31311256671324, -144.24607134098187, 0.0800000037997961, 0.04800000227987766, 1.008000047877431, 0.0, 0.0, 0.0, 0.0, 0.0, 1.6518363563898785E9, 0.0, 2022-05-06 12:25:56.389
13.0, -255.63151172129437, -167.521338715218, -192.1841089730151, -184.54349336354062, 0.0800000037997961, 0.04800000227987766, 1.008000047877431, 0.0, 0.0, 0.0, 0.0, 0.0, 1.6518363563908389E9, 0.0, 2022-05-06 12:25:56.390
13.0, -270.56867214431986, -182.83996893372387, -195.8118119300343, -174.19145028619096, 0.0800000037997961, 0.04800000227987766, 1.008000047877431, 0.0, 0.0, 0.0, 0.0, 0.0, 1.6518363563908389E9, 0.0, 2022-05-06 12:25:56.390
14.0, -234.91620586672798, -94.66808757837862, -124.4096419760026, -150.2411309699528, 0.0800000037997961, 0.04800000227987766, 1.008000047877431, 0.0, 0.0, 0.0, 0.0, 0.0, 1.651836356391852E9, 0.0, 2022-05-06 12:25:56.391
14.0, -212.5590839316137, -84.91442849393934, -125.84576355898753, -171.92507091304287, 0.0800000037997961, 0.04800000227987766, 1.008000047877431, 0.0, 0.0, 0.0, 0.0, 0.0, 1.651836356391852E9, 0.0, 2022-05-06 12:25:56.391
15.0, -272.1095109260641, -182.88484773319215, -202.25191965373233, -201.03271226817742, 0.0800000037997961, 0.04800000227987766, 1.008000047877431, 0.0, 0.0, 0.0, 0.0, 0.0, 1.6518363563928924E9, 0.0, 2022-05-06 12:25:56.392
15.0, -285.7414462645538, -199.59846063517034, -215.99605199089274, -200.04911857983097, 0.0800000037997961, 0.04800000227987766, 1.008000047877431, 0.0, 0.0, 0.0, 0.0, 0.0, 1.6518363563928924E9, 0.0, 2022-05-06 12:25:56.392
16.0, -240.69809119822457, -100.91372050438076, -128.98727952176705, -157.21230448735878, 0.0800000037997961, 0.04800000227987766, 1.008000047877431, 0.0, 0.0, 0.0, 0.0, 0.0, 1.6518363564029324E9, 0.0, 2022-05-06 12:25:56.402
16.0, -224.66140018822625, -84.27116570156068, -121.16340881446376, -158.1285799765028, 0.0800000037997961, 0.04800000227987766, 1.008000047877431, 0.0, 0.0, 0.0, 0.0, 0.0, 1.6518363564029324E9, 0.0, 2022-05-06 12:25:56.402
17.0, -260.556959962938, -166.39562882855535, -185.67294315015897, -175.51537487050518, 0.0800000037997961, 0.04800000227987766, 1.008000047877431, 0.0, 0.0, 0.0, 0.0, 0.0, 1.651836356418882E9, 0.0, 2022-05-06 12:25:56.418
17.0, -275.98030738020316, -190.99669073708355, -211.65028824238107, -195.54627903318033, 0.0800000037997961, 0.04800000227987766, 1.008000047877431, 0.0, 0.0, 0.0, 0.0, 0.0, 1.651836356418882E9, 0.0, 2022-05-06 12:25:56.418
18.0, -240.39889920176938, -98.94653312768787, -135.20673314807937, -166.47977657755837, 0.0800000037997961, 0.04800000227987766, 1.008000047877431, 0.0, 0.0, 0.0, 0.0, 0.0, 1.6518363564198763E9, 0.0, 2022-05-06 12:25:56.419
18.0, -215.88759489217773, -75.4076028065756, -104.5844323108904, -132.4915657802485, 0.0800000037997961, 0.04800000227987766, 1.008000047877431, 0.0, 0.0, 0.0, 0.0, 0.0, 1.6518363564198763E9, 0.0, 2022-05-06 12:25:56.419
19.0, -253.66806424455717, -166.91173502244055, -189.79805280128494, -170.17479773378, 0.0800000037997961, 0.04800000227987766, 1.008000047877431, 0.0, 0.0, 0.0, 0.0, 0.0, 1.651836356449888E9, 0.0, 2022-05-06 12:25:56.449
19.0, -293.9093877677806, -199.19081154000014, -225.58515547728166, -225.7571908752434, 0.0800000037997961, 0.04800000227987766, 1.008000047877431, 0.0, 0.0, 0.0, 0.0, 0.0, 1.651836356449888E9, 0.0, 2022-05-06 12:25:56.449
20.0, -244.10887995781377, -99.91516721621156, -128.40011522872373, -166.95848377188668, 0.0800000037997961, 0.04800000227987766, 0.5120000243186951, 0.0, 0.0, 0.0, 0.0, 0.0, 1.6518363564508395E9, 0.0, 2022-05-06 12:25:56.450
20.0, -230.03937632450834, -87.01251236908138, -123.96085398131981, -151.88668695045635, 0.0800000037997961, 0.04800000227987766, 0.5120000243186951, 0.0, 0.0, 0.0, 0.0, 0.0, 1.6518363564508395E9, 0.0, 2022-05-06 12:25:56.450
21.0, -252.96496305288747, -176.91970730386674, -192.1429700735025, -184.26674076681957, 0.0800000037997961, 0.0800000037997961, 0.5120000243186951, 0.0, 0.0, 0.0, 0.0, 0.0, 1.6518363564521353E9, 0.0, 2022-05-06 12:25:56.452
21.0, -279.4471946391277, -192.13736022356898, -203.58706393791363, -199.9331816812046, 0.0800000037997961, 0.0800000037997961, 0.5120000243186951, 0.0, 0.0, 0.0, 0.0, 0.0, 1.6518363564521353E9, 0.0, 2022-05-06 12:25:56.452
22.0, -251.6148591688834, -100.38639461062849, -134.42883395729586, -167.3212540675886, 0.12800000607967377, 0.0800000037997961, 0.5120000243186951, 0.0, 0.0, 0.0, 0.0, 0.0, 1.6518363564789147E9, 0.0, 2022-05-06 12:25:56.478
22.0, -229.70278532849625, -90.54671782720834, -126.58626375021413, -164.41535180201754, 0.12800000607967377, 0.0800000037997961, 0.5120000243186951, 0.0, 0.0, 0.0, 0.0, 0.0, 1.6518363564789147E9, 0.0, 2022-05-06 12:25:56.478
23.0, -262.98415503418073, -182.48093853797764, -200.87563647003844, -186.86223133606836, 0.12800000607967377, 0.0800000037997961, 0.5120000243186951, 0.0, 0.0, 0.0, 0.0, 0.0, 1.6518363564798489E9, 0.0, 2022-05-06 12:25:56.479
23.0, -272.61065752012655, -182.28646374028176, -199.2226006896235, -184.19942256761715, 0.12800000607967377, 0.0800000037997961, 0.5120000243186951, 0.0, 0.0, 0.0, 0.0, 0.0, 1.6518363564798489E9, 0.0, 2022-05-06 12:25:56.479
24.0, -235.88110005529597, -90.43826072849333, -124.21142727835104, -156.85701399156824, 0.12800000607967377, 0.0800000037997961, 0.5120000243186951, 0.0, 0.0, 0.0, 0.0, 0.0, 1.6518363564808617E9, 0.0, 2022-05-06 12:25:56.480
24.0, -214.29439751105383, -86.90779517032206, -122.53969199815765, -164.6547053991817, 0.12800000607967377, 0.0800000037997961, 0.5120000243186951, 0.0, 0.0, 0.0, 0.0, 0.0, 1.6518363564808617E9, 0.0, 2022-05-06 12:25:56.480
25.0, -274.9667944922112, -182.99704473186284, -200.61384347314015, -190.3665175945498, 0.12800000607967377, 0.0800000037997961, 0.5120000243186951, 0.0, 0.0, 0.0, 0.0, 0.0, 1.6518363564928944E9, 0.0, 2022-05-06 12:25:56.492
25.0, -276.39169637532905, -175.83139641676098, -196.1147438264452, -180.56049991073087, 0.12800000607967377, 0.0800000037997961, 0.5120000243186951, 0.0, 0.0, 0.0, 0.0, 0.0, 1.6518363564928944E9, 0.0, 2022-05-06 12:25:56.492
26.0, -245.432804542128, -97.6039090435952, -128.18320103129372, -152.73938414035365, 0.12800000607967377, 0.0800000037997961, 0.5120000243186951, 0.0, 0.0, 0.0, 0.0, 0.0, 1.6518363565088875E9, 0.0, 2022-05-06 12:25:56.508
26.0, -224.3883874914609, -82.53959202207625, -118.4819005462341, -151.92034605005756, 0.12800000607967377, 0.0800000037997961, 0.5120000243186951, 0.0, 0.0, 0.0, 0.0, 0.0, 1.6518363565088875E9, 0.0, 2022-05-06 12:25:56.508
27.0, -256.45054981159046, -176.47465920913965, -192.40102317044511, -180.56797971064225, 0.12800000607967377, 0.0800000037997961, 0.5120000243186951, 0.0, 0.0, 0.0, 0.0, 0.0, 1.651836356509921E9, 0.0, 2022-05-06 12:25:56.509
27.0, -269.8842704524286, -185.3494418039918, -211.3398765460588, -190.7068484905176, 0.12800000607967377, 0.0800000037997961, 0.5120000243186951, 0.0, 0.0, 0.0, 0.0, 0.0, 1.651836356509921E9, 0.0, 2022-05-06 12:25:56.509
28.0, -250.0590607873164, -110.28216989338398, -147.7166984998621, -189.71951490221545, 0.12800000607967377, 0.0800000037997961, 0.5120000243186951, 0.0, 0.0, 0.0, 0.0, 0.0, 1.6518363565228841E9, 0.0, 2022-05-06 12:25:56.522
28.0, -248.77253520255908, -110.04281629621983, -141.29903017589822, -178.1781836389564, 0.12800000607967377, 0.0800000037997961, 0.5120000243186951, 0.0, 0.0, 0.0, 0.0, 0.0, 1.6518363565228841E9, 0.0, 2022-05-06 12:25:56.522
29.0, -262.83455903595313, -183.344855427742, -209.1520350719802, -200.58018437353894, 0.12800000607967377, 0.0800000037997961, 0.5120000243186951, 0.0, 0.0, 0.0, 0.0, 0.0, 1.651836356538881E9, 0.0, 2022-05-06 12:25:56.538
29.0, -280.7112808241509, -192.21963802259415, -205.6739281131886, -192.0756518743001, 0.12800000607967377, 0.0800000037997961, 0.5120000243186951, 0.0, 0.0, 0.0, 0.0, 0.0, 1.651836356538881E9, 0.0, 2022-05-06 12:25:56.538
30.0, -242.45958407735452, -92.14365510828793, -124.79859157139435, -151.07886856002733, 0.12800000607967377, 0.0800000037997961, 0.7680000364780426, 0.0, 0.0, 0.0, 0.0, 0.0, 1.6518363565398562E9, 0.0, 2022-05-06 12:25:56.539
30.0, -231.77842980390415, -96.25006525963545, -132.91043457528576, -166.15440528141335, 0.12800000607967377, 0.0800000037997961, 0.7680000364780426, 0.0, 0.0, 0.0, 0.0, 0.0, 1.6518363565398562E9, 0.0, 2022-05-06 12:25:56.539
31.0, -255.57915312191471, -183.37103472743183, -197.371350211557, -186.5144206401892, 0.12800000607967377, 0.09600000455975533, 0.7680000364780426, 0.0, 0.0, 0.0, 0.0, 0.0, 1.6518363565529087E9, 0.0, 2022-05-06 12:25:56.552
31.0, -267.53561328025535, -186.76312398724258, -207.21850679488853, -194.4056095466949, 0.12800000607967377, 0.09600000455975533, 0.7680000364780426, 0.0, 0.0, 0.0, 0.0, 0.0, 1.6518363565529087E9, 0.0, 2022-05-06 12:25:56.552
32.0, -235.40239286096767, -98.1948132365942, -123.53824528632686, -153.7902960279025, 0.144000006839633, 0.09600000455975533, 0.7680000364780426, 0.0, 0.0, 0.0, 0.0, 0.0, 1.651836356568879E9, 0.0, 2022-05-06 12:25:56.568
32.0, -226.96143866097555, -92.27829150669277, -127.7830317360349, -151.07886856002733, 0.144000006839633, 0.09600000455975533, 0.7680000364780426, 0.0, 0.0, 0.0, 0.0, 0.0, 1.651836356568879E9, 0.0, 2022-05-06 12:25:56.568
33.0, -262.6176448385231, -169.91487468685955, -186.1404306446202, -158.36045377375558, 0.144000006839633, 0.09600000455975533, 0.7680000364780426, 0.0, 0.0, 0.0, 0.0, 0.0, 1.651836356569852E9, 0.0, 2022-05-06 12:25:56.569
33.0, -271.3802304347046, -175.13951492495835, -192.21028827270493, -170.15983813395724, 0.144000006839633, 0.09600000455975533, 0.7680000364780426, 0.0, 0.0, 0.0, 0.0, 0.0, 1.651836356569852E9, 0.0, 2022-05-06 12:25:56.569
34.0, -251.0239549758844, -99.33922262303531, -145.71211212361231, -174.33356648450717, 0.144000006839633, 0.09600000455975533, 0.7680000364780426, 0.0, 0.0, 0.0, 0.0, 0.0, 1.651836356582968E9, 0.0, 2022-05-06 12:25:56.582
34.0, -235.18547866353765, -100.06476321443915, -134.78038455313072, -173.74266229150817, 0.144000006839633, 0.09600000455975533, 0.7680000364780426, 0.0, 0.0, 0.0, 0.0, 0.0, 1.651836356582968E9, 0.0, 2022-05-06 12:25:56.582
35.0, -267.2252015839331, -190.18513244669884, -214.94888000329956, -201.58995736157522, 0.144000006839633, 0.09600000455975533, 0.7680000364780426, 0.0, 0.0, 0.0, 0.0, 0.0, 1.6518363565988812E9, 0.0, 2022-05-06 12:25:56.598
35.0, -292.3461095863022, -204.9913963712752, -222.8699881094508, -210.14310856023803, 0.144000006839633, 0.09600000455975533, 0.7680000364780426, 0.0, 0.0, 0.0, 0.0, 0.0, 1.6518363565988812E9, 0.0, 2022-05-06 12:25:56.598
36.0, -252.45633665891364, -123.21474394015968, -143.31857615197077, -182.5538665871136, 0.144000006839633, 0.09600000455975533, 0.7680000364780426, 0.0, 0.0, 0.0, 0.0, 0.0, 1.6518363565998738E9, 0.0, 2022-05-06 12:25:56.599
36.0, -245.38044594274834, -95.67786056641489, -139.18224680097774, -170.26829523267224, 0.144000006839633, 0.09600000455975533, 0.7680000364780426, 0.0, 0.0, 0.0, 0.0, 0.0, 1.6518363565998738E9, 0.0, 2022-05-06 12:25:56.599
37.0, -266.45852209301665, -181.4225468505174, -205.96190040977672, -197.58078460907564, 0.144000006839633, 0.09600000455975533, 0.7680000364780426, 0.0, 0.0, 0.0, 0.0, 0.0, 1.6518363566129255E9, 0.0, 2022-05-06 12:25:56.612
37.0, -284.09963018400595, -194.7552901925519, -213.25470532337204, -199.09544409113005, 0.144000006839633, 0.09600000455975533, 0.7680000364780426, 0.0, 0.0, 0.0, 0.0, 0.0, 1.6518363566129255E9, 0.0, 2022-05-06 12:25:56.612
38.0, -249.05302769923583, -106.18697944190353, -141.01853767922148, -167.82988046156242, 0.144000006839633, 0.09600000455975533, 0.7680000364780426, 0.0, 0.0, 0.0, 0.0, 0.0, 1.651836356628914E9, 0.0, 2022-05-06 12:25:56.628
38.0, -227.11851445911452, -86.63852237351239, -123.00717949261889, -156.95799129037187, 0.144000006839633, 0.09600000455975533, 0.7680000364780426, 0.0, 0.0, 0.0, 0.0, 0.0, 1.651836356628914E9, 0.0, 2022-05-06 12:25:56.628
39.0, -267.2551207835786, -182.81378963403404, -207.32322399364784, -196.8477642177604, 0.144000006839633, 0.09600000455975533, 0.7680000364780426, 0.0, 0.0, 0.0, 0.0, 0.0, 1.651836356629852E9, 0.0, 2022-05-06 12:25:56.629
39.0, -271.35405113501474, -179.47779887355864, -199.80228518275544, -177.46386274741963, 0.144000006839633, 0.09600000455975533, 0.7680000364780426, 0.0, 0.0, 0.0, 0.0, 0.0, 1.651836356629852E9, 0.0, 2022-05-06 12:25:56.629
40.0, -235.724024257157, -97.65626764297485, -133.87158886389807, -156.78595589241013, 0.144000006839633, 0.09600000455975533, 0.944000044837594, 0.0, 0.0, 0.0, 0.0, 0.0, 1.6518363566428704E9, 0.0, 2022-05-06 12:25:56.642
40.0, -229.07448213594034, -102.65277398377657, -135.14315484883264, -169.16128484578803, 0.144000006839633, 0.09600000455975533, 0.944000044837594, 0.0, 0.0, 0.0, 0.0, 0.0, 1.6518363566428704E9, 0.0, 2022-05-06 12:25:56.642
41.0, -262.9168368349783, -184.61268151272088, -205.06806432036683, -198.5606383974664, 0.144000006839633, 0.11200000531971455, 0.944000044837594, 0.0, 0.0, 0.0, 0.0, 0.0, 1.6518363566589139E9, 0.0, 2022-05-06 12:25:56.658
41.0, -271.5821850323118, -194.63187349401414, -208.54991117911413, -196.67946871975437, 0.144000006839633, 0.11200000531971455, 0.944000044837594, 0.0, 0.0, 0.0, 0.0, 0.0, 1.6518363566589139E9, 0.0, 2022-05-06 12:25:56.658
42.0, -238.48407042445615, -90.08297023270279, -120.89413601765409, -145.0501498314552, 0.1600000075995922, 0.11200000531971455, 0.944000044837594, 0.0, 0.0, 0.0, 0.0, 0.0, 1.651836356659862E9, 0.0, 2022-05-06 12:25:56.659
42.0, -237.08160794107243, -94.05848388560116, -129.55574431503192, -160.30894165067002, 0.1600000075995922, 0.11200000531971455, 0.944000044837594, 0.0, 0.0, 0.0, 0.0, 0.0, 1.651836356659862E9, 0.0, 2022-05-06 12:25:56.659
43.0, -250.50036898208782, -162.2219004780054, -182.09011899260804, -158.9850170663558, 0.1600000075995922, 0.11200000531971455, 0.944000044837594, 0.0, 0.0, 0.0, 0.0, 0.0, 1.6518363566729007E9, 0.0, 2022-05-06 12:25:56.672
43.0, -281.6724351127632, -189.0482028601691, -211.50069224415347, -212.09533633710817, 0.1600000075995922, 0.11200000531971455, 0.944000044837594, 0.0, 0.0, 0.0, 0.0, 0.0, 1.6518363566729007E9, 0.0, 2022-05-06 12:25:56.672
44.0, -253.68302384437993, -110.07273549586535, -143.7524045468308, -187.09784503327683, 0.1600000075995922, 0.11200000531971455, 0.944000044837594, 0.0, 0.0, 0.0, 0.0, 0.0, 1.651836356688887E9, 0.0, 2022-05-06 12:25:56.688
44.0, -231.91306620230898, -107.60066162515432, -143.7112656473182, -186.0693725454621, 0.1600000075995922, 0.11200000531971455, 0.944000044837594, 0.0, 0.0, 0.0, 0.0, 0.0, 1.651836356688887E9, 0.0, 2022-05-06 12:25:56.688
45.0, -274.5554054970853, -198.74950334522873, -216.63183498336002, -211.97939943848178, 0.1600000075995922, 0.11200000531971455, 0.944000044837594, 0.0, 0.0, 0.0, 0.0, 0.0, 1.6518363566898293E9, 0.0, 2022-05-06 12:25:56.689
45.0, -269.60751785570756, -201.42353181354702, -218.03803736669943, -207.05395119683817, 0.1600000075995922, 0.11200000531971455, 0.944000044837594, 0.0, 0.0, 0.0, 0.0, 0.0, 1.6518363566898293E9, 0.0, 2022-05-06 12:25:56.689
46.0, -248.09187341062352, -105.566156049259, -137.0056250267662, -162.612720023375, 0.1600000075995922, 0.11200000531971455, 0.944000044837594, 0.0, 0.0, 0.0, 0.0, 0.0, 1.6518363567028806E9, 0.0, 2022-05-06 12:25:56.702
46.0, -228.19560564635321, -93.80417068861425, -131.80342418840155, -154.39989972067997, 0.1600000075995922, 0.11200000531971455, 0.944000044837594, 0.0, 0.0, 0.0, 0.0, 0.0, 1.6518363567028806E9, 0.0, 2022-05-06 12:25:56.702
47.0, -259.75662137242034, -172.7085799537599, -197.79021900659427, -187.3334587304853, 0.1600000075995922, 0.11200000531971455, 0.944000044837594, 0.0, 0.0, 0.0, 0.0, 0.0, 1.6518363567189217E9, 0.0, 2022-05-06 12:25:56.718
47.0, -275.31086528813466, -191.71101162862033, -211.7849246407859, -196.67572881979868, 0.1600000075995922, 0.11200000531971455, 0.944000044837594, 0.0, 0.0, 0.0, 0.0, 0.0, 1.6518363567189217E9, 0.0, 2022-05-06 12:25:56.718
48.0, -253.694243544247, -107.73529802355915, -144.02915714355186, -177.20580965047702, 0.1600000075995922, 0.11200000531971455, 0.944000044837594, 0.0, 0.0, 0.0, 0.0, 0.0, 1.6518363567199104E9, 0.0, 2022-05-06 12:25:56.719
48.0, -231.3558211089112, -95.81997676473111, -130.95072699850425, -161.64034603489563, 0.1600000075995922, 0.11200000531971455, 0.944000044837594, 0.0, 0.0, 0.0, 0.0, 0.0, 1.6518363567199104E9, 0.0, 2022-05-06 12:25:56.719
49.0, -243.51423586485907, -182.21166574116796, -199.49187348643318, -186.02075384603813, 0.1600000075995922, 0.11200000531971455, 0.944000044837594, 0.0, 0.0, 0.0, 0.0, 0.0, 1.6518363567329352E9, 0.0, 2022-05-06 12:25:56.732
49.0, -264.2632008190267, -186.96133868489414, -196.43637522263452, -179.87609821883962, 0.1600000075995922, 0.11200000531971455, 0.944000044837594, 0.0, 0.0, 0.0, 0.0, 0.0, 1.6518363567329352E9, 0.0, 2022-05-06 12:25:56.732
50.0, -248.52196190552786, -100.53973050881177, -130.4458405044861, -157.0514887892641, 0.1600000075995922, 0.11200000531971455, 0.9760000463575125, 0.0, 0.0, 0.0, 0.0, 0.0, 1.6518363567488935E9, 0.0, 2022-05-06 12:25:56.748
50.0, -225.06530938344076, -95.67038076650351, -129.66420141374692, -159.39640606148168, 0.1600000075995922, 0.11200000531971455, 0.9760000463575125, 0.0, 0.0, 0.0, 0.0, 0.0, 1.6518363567488935E9, 0.0, 2022-05-06 12:25:56.748
51.0, -259.0273408810608, -180.98123865574598, -203.69552103662863, -187.23996123159304, 0.1600000075995922, 0.11200000531971455, 0.9760000463575125, 0.0, 0.0, 0.0, 0.0, 0.0, 1.6518363567499092E9, 0.0, 2022-05-06 12:25:56.749
51.0, -269.34946475876495, -187.5372832780704, -210.1580681600608, -198.0407923036255, 0.1600000075995922, 0.11200000531971455, 0.9760000463575125, 0.0, 0.0, 0.0, 0.0, 0.0, 1.6518363567499092E9, 0.0, 2022-05-06 12:25:56.749
52.0, -250.07402038713917, -112.07732187211514, -143.6028085486032, -165.85521328495815, 0.1600000075995922, 0.11200000531971455, 0.9760000463575125, 0.0, 0.0, 0.0, 0.0, 0.0, 1.6518363567629364E9, 0.0, 2022-05-06 12:25:56.762
52.0, -220.7494648345746, -94.84386287629604, -128.4898728276603, -162.3135280269198, 0.1600000075995922, 0.11200000531971455, 0.9760000463575125, 0.0, 0.0, 0.0, 0.0, 0.0, 1.6518363567629364E9, 0.0, 2022-05-06 12:25:56.762
53.0, -263.35440512979403, -188.2703036693856, -205.53929171478376, -203.19811434252188, 0.1600000075995922, 0.11200000531971455, 0.9760000463575125, 0.0, 0.0, 0.0, 0.0, 0.0, 1.6518363567789264E9, 0.0, 2022-05-06 12:25:56.778
53.0, -288.0153054376133, -202.89331249613315, -217.54063067259267, -208.68454757751897, 0.1600000075995922, 0.11200000531971455, 0.9760000463575125, 0.0, 0.0, 0.0, 0.0, 0.0, 1.6518363567789264E9, 0.0, 2022-05-06 12:25:56.778
54.0, -238.86554021993652, -98.4192072339356, -134.66444765450433, -160.21170425182208, 0.1600000075995922, 0.11200000531971455, 0.9760000463575125, 0.0, 0.0, 0.0, 0.0, 0.0, 1.6518363567798505E9, 0.0, 2022-05-06 12:25:56.779
54.0, -231.2810231097974, -104.27963046450168, -140.3790147867985, -180.8110732077621, 0.1600000075995922, 0.11200000531971455, 0.9760000463575125, 0.0, 0.0, 0.0, 0.0, 0.0, 1.6518363567798505E9, 0.0, 2022-05-06 12:25:56.779
55.0, -260.23532856674865, -189.7213848521933, -201.60117706144229, -202.0798842557706, 0.1600000075995922, 0.11200000531971455, 0.9760000463575125, 0.0, 0.0, 0.0, 0.0, 0.0, 1.6518363567929156E9, 0.0, 2022-05-06 12:25:56.792
55.0, -282.5139126027934, -205.18587116897106, -221.1608538297005, -205.16156181925908, 0.1600000075995922, 0.11200000531971455, 0.9760000463575125, 0.0, 0.0, 0.0, 0.0, 0.0, 1.6518363567929156E9, 0.0, 2022-05-06 12:25:56.792
56.0, -247.26909542037174, -105.07622915506363, -133.269464971032, -163.2111040162854, 0.1600000075995922, 0.11200000531971455, 0.9760000463575125, 0.0, 0.0, 0.0, 0.0, 0.0, 1.6518363568089066E9, 0.0, 2022-05-06 12:25:56.808
56.0, -222.54835671326146, -93.64335499051958, -127.30432454170659, -160.43609824916348, 0.1600000075995922, 0.11200000531971455, 0.9760000463575125, 0.0, 0.0, 0.0, 0.0, 0.0, 1.6518363568089066E9, 0.0, 2022-05-06 12:25:56.808
57.0, -236.3485875497572, -176.80003050528467, -199.58537098532543, -186.1778296441771, 0.1600000075995922, 0.11200000531971455, 0.9760000463575125, 0.0, 0.0, 0.0, 0.0, 0.0, 1.651836356809874E9, 0.0, 2022-05-06 12:25:56.809
57.0, -281.06283141998574, -191.1612463351339, -209.07349717291072, -191.38003048254177, 0.1600000075995922, 0.11200000531971455, 0.9760000463575125, 0.0, 0.0, 0.0, 0.0, 0.0, 1.651836356809874E9, 0.0, 2022-05-06 12:25:56.809
58.0, -246.67445132741705, -110.08395519573241, -144.63128103641793, -179.3225930253975, 0.1600000075995922, 0.11200000531971455, 0.9760000463575125, 0.0, 0.0, 0.0, 0.0, 0.0, 1.651836356822893E9, 0.0, 2022-05-06 12:25:56.822
58.0, -234.26920317439362, -115.09542113635689, -147.87751419795677, -178.8812848306261, 0.1600000075995922, 0.11200000531971455, 0.9760000463575125, 0.0, 0.0, 0.0, 0.0, 0.0, 1.651836356822893E9, 0.0, 2022-05-06 12:25:56.822
59.0, -264.4053170173429, -197.39565956126899, -210.13562876032665, -188.05151952197775, 0.1600000075995922, 0.11200000531971455, 0.9760000463575125, 0.0, 0.0, 0.0, 0.0, 0.0, 1.651836356838921E9, 0.0, 2022-05-06 12:25:56.838
59.0, -265.46370870480314, -182.94842603243887, -191.95223517576233, -162.94183121947572, 0.1600000075995922, 0.11200000531971455, 0.9760000463575125, 0.0, 0.0, 0.0, 0.0, 0.0, 1.651836356838921E9, 0.0, 2022-05-06 12:25:56.838
60.0, -251.6896571679972, -110.95909178536385, -147.32026910455897, -180.19024981511757, 0.1600000075995922, 0.11200000531971455, 1.008000047877431, 0.0, 0.0, 0.0, 0.0, 0.0, 1.6518363568398356E9, 0.0, 2022-05-06 12:25:56.839
60.0, -241.9808768830262, -114.9832241376862, -156.9430316905491, -194.3719504470937, 0.1600000075995922, 0.11200000531971455, 1.008000047877431, 0.0, 0.0, 0.0, 0.0, 0.0, 1.6518363568398356E9, 0.0, 2022-05-06 12:25:56.839
61.0, -263.5152208278887, -193.6520197056234, -212.229972735513, -203.3028315412812, 0.1600000075995922, 0.11200000531971455, 1.008000047877431, 0.0, 0.0, 0.0, 0.0, 0.0, 1.65183635685289E9, 0.0, 2022-05-06 12:25:56.852
61.0, -277.95497455680743, -199.84529403224587, -217.44339327374473, -204.0059327329509, 0.1600000075995922, 0.11200000531971455, 1.008000047877431, 0.0, 0.0, 0.0, 0.0, 0.0, 1.65183635685289E9, 0.0, 2022-05-06 12:25:56.852
62.0, -224.99799118423834, -95.1206154730171, -126.54512485070154, -155.3535742093809, 0.1600000075995922, 0.11200000531971455, 1.008000047877431, 0.0, 0.0, 0.0, 0.0, 0.0, 1.651836356868876E9, 0.0, 2022-05-06 12:25:56.868
62.0, -234.96108466619626, -97.33837614674121, -132.85059617599472, -155.52934950729832, 0.1600000075995922, 0.11200000531971455, 1.008000047877431, 0.0, 0.0, 0.0, 0.0, 0.0, 1.651836356868876E9, 0.0, 2022-05-06 12:25:56.868
63.0, -264.8840242116712, -187.14459378272295, -208.51625207951292, -206.8968753986992, 0.1600000075995922, 0.11200000531971455, 1.008000047877431, 0.0, 0.0, 0.0, 0.0, 0.0, 1.651836356869832E9, 0.0, 2022-05-06 12:25:56.869
63.0, -276.1411230782978, -179.73585197050124, -200.47546717477962, -197.76777960686013, 0.1600000075995922, 0.11200000531971455, 1.008000047877431, 0.0, 0.0, 0.0, 0.0, 0.0, 1.651836356869832E9, 0.0, 2022-05-06 12:25:56.869
64.0, -243.14024586929008, -101.21665240079165, -144.72477853531018, -179.89853761857376, 0.1600000075995922, 0.11200000531971455, 1.008000047877431, 0.0, 0.0, 0.0, 0.0, 0.0, 1.6518363568828807E9, 0.0, 2022-05-06 12:25:56.882
64.0, -230.63028051750734, -103.98417836800218, -136.1566677368246, -168.70501705119386, 0.1600000075995922, 0.11200000531971455, 1.008000047877431, 0.0, 0.0, 0.0, 0.0, 0.0, 1.6518363568828807E9, 0.0, 2022-05-06 12:25:56.882
65.0, -258.8777448828332, -184.11153491865844, -203.5571447382681, -191.86995737673715, 0.1600000075995922, 0.11200000531971455, 1.008000047877431, 0.0, 0.0, 0.0, 0.0, 0.0, 1.6518363569148808E9, 0.0, 2022-05-06 12:25:56.914
65.0, -280.7785990233533, -189.2763367574662, -208.81544407596812, -200.50164647446945, 0.1600000075995922, 0.11200000531971455, 1.008000047877431, 0.0, 0.0, 0.0, 0.0, 0.0, 1.6518363569148808E9, 0.0, 2022-05-06 12:25:56.914
66.0, -235.08076146477833, -93.02253159787506, -127.65587513754144, -157.8742667795159, 0.1600000075995922, 0.11200000531971455, 1.008000047877431, 0.0, 0.0, 0.0, 0.0, 0.0, 1.651836356915862E9, 0.0, 2022-05-06 12:25:56.915
66.0, -222.84754870971665, -94.00238538626581, -124.12166967941448, -152.50751034310088, 0.1600000075995922, 0.11200000531971455, 1.008000047877431, 0.0, 0.0, 0.0, 0.0, 0.0, 1.651836356915862E9, 0.0, 2022-05-06 12:25:56.915
67.0, -262.35211194166914, -187.02491698414087, -206.79963799985126, -182.05645989300683, 0.1600000075995922, 0.11200000531971455, 1.008000047877431, 0.0, 0.0, 0.0, 0.0, 0.0, 1.6518363569168575E9, 0.0, 2022-05-06 12:25:56.916
67.0, -261.5966521506198, -178.43810668587685, -207.92534788651392, -187.84208512445912, 0.1600000075995922, 0.11200000531971455, 1.008000047877431, 0.0, 0.0, 0.0, 0.0, 0.0, 1.6518363569168575E9, 0.0, 2022-05-06 12:25:56.916
68.0, -245.25328934425488, -107.92977282125503, -142.1255480661057, -169.05656764702871, 0.1600000075995922, 0.11200000531971455, 1.008000047877431, 0.0, 0.0, 0.0, 0.0, 0.0, 1.6518363569178412E9, 0.0, 2022-05-06 12:25:56.917
68.0, -226.36305466806516, -98.21351273637265, -132.98523257439956, -159.73673695744947, 0.1600000075995922, 0.11200000531971455, 1.008000047877431, 0.0, 0.0, 0.0, 0.0, 0.0, 1.6518363569178412E9, 0.0, 2022-05-06 12:25:56.917
69.0, -250.51532858191058, -188.54705626610667, -213.77829131716862, -213.29210432292894, 0.1600000075995922, 0.11200000531971455, 1.008000047877431, 0.0, 0.0, 0.0, 0.0, 0.0, 1.6518363569279013E9, 0.0, 2022-05-06 12:25:56.927
69.0, -266.5445397919975, -184.2312117172405, -199.13658299064264, -187.4419158292003, 0.1600000075995922, 0.11200000531971455, 1.008000047877431, 0.0, 0.0, 0.0, 0.0, 0.0, 1.6518363569279013E9, 0.0, 2022-05-06 12:25:56.927
70.0, -222.61567491246387, -88.99839924555272, -125.67746806098148, -161.88343953201547, 0.1600000075995922, 0.11200000531971455, 1.008000047877431, 0.0, 0.0, 0.0, 0.0, 0.0, 1.6518363569429507E9, 0.0, 2022-05-06 12:25:56.942
70.0, -233.80919547984377, -96.58291635569185, -137.54791052034125, -176.16237756283954, 0.1600000075995922, 0.11200000531971455, 1.008000047877431, 0.0, 0.0, 0.0, 0.0, 0.0, 1.6518363569429507E9, 0.0, 2022-05-06 12:25:56.942
71.0, -268.8969368641265, -180.51375116128474, -200.12391657894477, -191.61938407970592, 0.1600000075995922, 0.11200000531971455, 1.008000047877431, 0.0, 0.0, 0.0, 0.0, 0.0, 1.651836356958881E9, 0.0, 2022-05-06 12:25:56.958
71.0, -272.7041550190188, -185.80944949854165, -199.8172447825782, -188.37689081812277, 0.1600000075995922, 0.11200000531971455, 1.008000047877431, 0.0, 0.0, 0.0, 0.0, 0.0, 1.651836356958881E9, 0.0, 2022-05-06 12:25:56.958
72.0, -231.95794500177726, -93.228226095438, -126.93407444609329, -159.69559805793688, 0.1600000075995922, 0.11200000531971455, 1.008000047877431, 0.0, 0.0, 0.0, 0.0, 0.0, 1.6518363569598677E9, 0.0, 2022-05-06 12:25:56.959
72.0, -224.62400118866935, -98.44538653362542, -138.55020370846614, -172.3925584075041, 0.1600000075995922, 0.11200000531971455, 1.008000047877431, 0.0, 0.0, 0.0, 0.0, 0.0, 1.6518363569598677E9, 0.0, 2022-05-06 12:25:56.959
73.0, -255.60159252164885, -178.03045759070665, -198.31006510043517, -183.3317657778971, 0.1600000075995922, 0.11200000531971455, 1.008000047877431, 0.0, 0.0, 0.0, 0.0, 0.0, 1.6518363569898803E9, 0.0, 2022-05-06 12:25:56.989
73.0, -272.786432818044, -186.18343949411064, -203.4112886399962, -191.58198508014902, 0.1600000075995922, 0.11200000531971455, 1.008000047877431, 0.0, 0.0, 0.0, 0.0, 0.0, 1.6518363569898803E9, 0.0, 2022-05-06 12:25:56.989
74.0, -239.66587881045416, -102.82106948178262, -140.47625218564644, -170.4291109307669, 0.1600000075995922, 0.11200000531971455, 1.008000047877431, 0.0, 0.0, 0.0, 0.0, 0.0, 1.6518363569908545E9, 0.0, 2022-05-06 12:25:56.990
74.0, -221.06361643085256, -93.50123879220337, -130.98438609810546, -158.25947647495195, 0.1600000075995922, 0.11200000531971455, 1.008000047877431, 0.0, 0.0, 0.0, 0.0, 0.0, 1.6518363569908545E9, 0.0, 2022-05-06 12:25:56.990
75.0, -243.93310465989634, -172.58516325522214, -188.02534022228792, -172.29532100865617, 0.1600000075995922, 0.11200000531971455, 1.008000047877431, 0.0, 0.0, 0.0, 0.0, 0.0, 1.651836356991862E9, 0.0, 2022-05-06 12:25:56.991
75.0, -258.19708309089765, -171.09668307285756, -187.18760263221338, -163.6561521110125, 0.1600000075995922, 0.11200000531971455, 1.008000047877431, 0.0, 0.0, 0.0, 0.0, 0.0, 1.651836356991862E9, 0.0, 2022-05-06 12:25:56.991
76.0, -220.12864144193009, -93.25440539512783, -126.99391284538433, -153.15451303543523, 0.1600000075995922, 0.11200000531971455, 1.008000047877431, 0.0, 0.0, 0.0, 0.0, 0.0, 1.6518363570029073E9, 0.0, 2022-05-06 12:25:57.002
76.0, -230.22637132229283, -106.83772203419358, -145.33438222808763, -177.08239295193925, 0.1600000075995922, 0.11200000531971455, 1.008000047877431, 0.0, 0.0, 0.0, 0.0, 0.0, 1.6518363570029073E9, 0.0, 2022-05-06 12:25:57.002
77.0, -265.2206152076833, -193.1246938118711, -213.36316242208704, -197.77151950681582, 0.1600000075995922, 0.11200000531971455, 1.008000047877431, 0.0, 0.0, 0.0, 0.0, 0.0, 1.6518363570349145E9, 0.0, 2022-05-06 12:25:57.034
77.0, -271.76544013014063, -187.0548361837864, -204.4173217280768, -187.65509012667462, 0.1600000075995922, 0.11200000531971455, 1.008000047877431, 0.0, 0.0, 0.0, 0.0, 0.0, 1.6518363570349145E9, 0.0, 2022-05-06 12:25:57.034
78.0, -234.0223697773181, -101.98707179166377, -139.8255095933564, -176.04644066421315, 0.1600000075995922, 0.11200000531971455, 1.008000047877431, 0.0, 0.0, 0.0, 0.0, 0.0, 1.6518363570358384E9, 0.0, 2022-05-06 12:25:57.035
78.0, -219.72847214667127, -93.4152210932225, -129.07329722074792, -164.14607900520787, 0.1600000075995922, 0.11200000531971455, 1.008000047877431, 0.0, 0.0, 0.0, 0.0, 0.0, 1.6518363570358384E9, 0.0, 2022-05-06 12:25:57.035
79.0, -248.60423970455304, -181.3851478509605, -203.87503623450175, -199.34601738816127, 0.1600000075995922, 0.11200000531971455, 1.008000047877431, 0.0, 0.0, 0.0, 0.0, 0.0, 1.6518363570368657E9, 0.0, 2022-05-06 12:25:57.036
79.0, -275.09395109070465, -189.02576346043497, -208.6770677776076, -197.46110781049356, 0.1600000075995922, 0.11200000531971455, 1.008000047877431, 0.0, 0.0, 0.0, 0.0, 0.0, 1.6518363570368657E9, 0.0, 2022-05-06 12:25:57.036
80.0, -244.34075375506654, -103.83084246981889, -136.8971679280512, -167.48206976568326, 0.1600000075995922, 0.11200000531971455, 1.008000047877431, 0.0, 0.0, 0.0, 0.0, 0.0, 1.651836357037835E9, 0.0, 2022-05-06 12:25:57.037
80.0, -212.11029593693092, -88.99839924555272, -127.56611753860489, -153.71175812883303, 0.1600000075995922, 0.11200000531971455, 1.008000047877431, 0.0, 0.0, 0.0, 0.0, 0.0, 1.651836357037835E9, 0.0, 2022-05-06 12:25:57.037
81.0, -243.55537476437166, -169.8550362875685, -194.82821824168786, -178.26794123789296, 0.1600000075995922, 0.11200000531971455, 1.008000047877431, 0.0, 0.0, 0.0, 0.0, 0.0, 1.651836357047894E9, 0.0, 2022-05-06 12:25:57.047
81.0, -264.3753978176974, -181.198152853176, -187.45687542902306, -172.07466691127047, 0.1600000075995922, 0.11200000531971455, 1.008000047877431, 0.0, 0.0, 0.0, 0.0, 0.0, 1.651836357047894E9, 0.0, 2022-05-06 12:25:57.047
82.0, -224.06301619531587, -93.82661008834839, -133.06003057351336, -160.2453633514233, 0.1600000075995922, 0.11200000531971455, 1.008000047877431, 0.0, 0.0, 0.0, 0.0, 0.0, 1.6518363570628977E9, 0.0, 2022-05-06 12:25:57.062
82.0, -222.2716041165404, -93.65083479043096, -133.83418986434117, -157.17864538775757, 0.1600000075995922, 0.11200000531971455, 1.008000047877431, 0.0, 0.0, 0.0, 0.0, 0.0, 1.6518363570628977E9, 0.0, 2022-05-06 12:25:57.062
83.0, -266.9521888871677, -192.48143101949245, -214.2308192118071, -190.6619696910493, 0.1600000075995922, 0.11200000531971455, 1.008000047877431, 0.0, 0.0, 0.0, 0.0, 0.0, 1.6518363570788987E9, 0.0, 2022-05-06 12:25:57.078
83.0, -265.4076102054678, -188.3451016684994, -204.82871072320268, -193.28363955998793, 0.1600000075995922, 0.11200000531971455, 1.008000047877431, 0.0, 0.0, 0.0, 0.0, 0.0, 1.6518363570788987E9, 0.0, 2022-05-06 12:25:57.078
84.0, -224.1639934941195, -100.51355120912194, -134.58590975543484, -166.41619827831164, 0.1600000075995922, 0.11200000531971455, 1.008000047877431, 0.0, 0.0, 0.0, 0.0, 0.0, 1.6518363570798316E9, 0.0, 2022-05-06 12:25:57.079
84.0, -226.2396379695274, -96.66519415471703, -134.54477085592225, -163.48411671305075, 0.1600000075995922, 0.11200000531971455, 1.008000047877431, 0.0, 0.0, 0.0, 0.0, 0.0, 1.6518363570798316E9, 0.0, 2022-05-06 12:25:57.079
85.0, -243.10284686973318, -177.14036140125245, -195.98010742804036, -170.74700242700055, 0.1600000075995922, 0.11200000531971455, 1.008000047877431, 0.0, 0.0, 0.0, 0.0, 0.0, 1.6518363570928836E9, 0.0, 2022-05-06 12:25:57.092
85.0, -286.571704054717, -195.03952258918434, -214.16724091256037, -207.4915194916539, 0.1600000075995922, 0.11200000531971455, 1.008000047877431, 0.0, 0.0, 0.0, 0.0, 0.0, 1.6518363570928836E9, 0.0, 2022-05-06 12:25:57.092
86.0, -235.66418585786596, -91.0777836209163, -126.48902635136619, -163.69729101052508, 0.1600000075995922, 0.11200000531971455, 1.008000047877431, 0.0, 0.0, 0.0, 0.0, 0.0, 1.6518363571089306E9, 0.0, 2022-05-06 12:25:57.108
86.0, -230.95191191369668, -104.09263546671718, -140.0162444910966, -169.5053556417115, 0.1600000075995922, 0.11200000531971455, 1.008000047877431, 0.0, 0.0, 0.0, 0.0, 0.0, 1.6518363571089306E9, 0.0, 2022-05-06 12:25:57.108
87.0, -251.49518237030134, -173.54631754383445, -188.30209281900898, -171.43888391880319, 0.1600000075995922, 0.11200000531971455, 1.008000047877431, 0.0, 0.0, 0.0, 0.0, 0.0, 1.6518363571098669E9, 0.0, 2022-05-06 12:25:57.109
87.0, -269.16994956089184, -181.51230444945395, -201.1561289667152, -181.83954569557682, 0.1600000075995922, 0.11200000531971455, 1.008000047877431, 0.0, 0.0, 0.0, 0.0, 0.0, 1.6518363571098669E9, 0.0, 2022-05-06 12:25:57.109
88.0, -227.32420895667747, -93.54611759167165, -134.35403595818207, -178.60453223390505, 0.1600000075995922, 0.11200000531971455, 1.008000047877431, 0.0, 0.0, 0.0, 0.0, 0.0, 1.651836357122877E9, 0.0, 2022-05-06 12:25:57.122
88.0, -235.23035746300593, -106.57966893725097, -143.75988434674218, -169.41185814281926, 0.1600000075995922, 0.11200000531971455, 1.008000047877431, 0.0, 0.0, 0.0, 0.0, 0.0, 1.651836357122877E9, 0.0, 2022-05-06 12:25:57.122
89.0, -262.71862213732675, -191.3183221332729, -211.22393964743242, -186.17034984426573, 0.1600000075995922, 0.11200000531971455, 1.008000047877431, 0.0, 0.0, 0.0, 0.0, 0.0, 1.651836357138882E9, 0.0, 2022-05-06 12:25:57.138
89.0, -274.0093801035546, -181.35896855127066, -197.16939561394975, -186.8435318362899, 0.1600000075995922, 0.11200000531971455, 1.008000047877431, 0.0, 0.0, 0.0, 0.0, 0.0, 1.651836357138882E9, 0.0, 2022-05-06 12:25:57.138
90.0, -235.73150405706838, -99.06620992626995, -130.0755904088728, -164.3517735027708, 0.1600000075995922, 0.11200000531971455, 1.008000047877431, 0.0, 0.0, 0.0, 0.0, 0.0, 1.651836357139852E9, 0.0, 2022-05-06 12:25:57.139
90.0, -223.17665990581736, -105.2744438527152, -134.4138743574731, -161.04944184189662, 0.1600000075995922, 0.11200000531971455, 1.008000047877431, 0.0, 0.0, 0.0, 0.0, 0.0, 1.651836357139852E9, 0.0, 2022-05-06 12:25:57.139
91.0, -257.1012924038805, -181.95361264422536, -197.67428210796788, -172.6169524048455, 0.1600000075995922, 0.11200000531971455, 1.008000047877431, 0.0, 0.0, 0.0, 0.0, 0.0, 1.6518363571528928E9, 0.0, 2022-05-06 12:25:57.152
91.0, -282.2969984053634, -182.32760263979435, -198.1903883018531, -183.35046527767554, 0.1600000075995922, 0.11200000531971455, 1.008000047877431, 0.0, 0.0, 0.0, 0.0, 0.0, 1.6518363571528928E9, 0.0, 2022-05-06 12:25:57.152
92.0, -244.44173105387017, -96.26502485945821, -130.74129260098562, -175.16008437471464, 0.1600000075995922, 0.11200000531971455, 1.008000047877431, 0.0, 0.0, 0.0, 0.0, 0.0, 1.6518363571689034E9, 0.0, 2022-05-06 12:25:57.168
92.0, -239.4639242128469, -114.02954964898527, -150.43934566760436, -174.19519018614665, 0.1600000075995922, 0.11200000531971455, 1.008000047877431, 0.0, 0.0, 0.0, 0.0, 0.0, 1.6518363571689034E9, 0.0, 2022-05-06 12:25:57.168
93.0, -264.91020351136103, -199.39650603756309, -212.5665637315251, -195.57619823282585, 0.1600000075995922, 0.11200000531971455, 1.008000047877431, 0.0, 0.0, 0.0, 0.0, 0.0, 1.6518363571698685E9, 0.0, 2022-05-06 12:25:57.169
93.0, -274.7835393943824, -183.95819902047515, -200.98783346870914, -184.9960212581791, 0.1600000075995922, 0.11200000531971455, 1.008000047877431, 0.0, 0.0, 0.0, 0.0, 0.0, 1.6518363571698685E9, 0.0, 2022-05-06 12:25:57.169
94.0, -247.15689842170104, -105.43899945076555, -146.74432451138273, -187.05670613376424, 0.1600000075995922, 0.11200000531971455, 1.008000047877431, 0.0, 0.0, 0.0, 0.0, 0.0, 1.651836357182889E9, 0.0, 2022-05-06 12:25:57.182
94.0, -224.5379834896885, -108.89840690977871, -149.10794128337875, -181.40945720067248, 0.1600000075995922, 0.11200000531971455, 1.008000047877431, 0.0, 0.0, 0.0, 0.0, 0.0, 1.651836357182889E9, 0.0, 2022-05-06 12:25:57.182
95.0, -278.8899495457299, -198.7644629450515, -218.26243136404082, -199.8583836820908, 0.1600000075995922, 0.11200000531971455, 1.008000047877431, 0.0, 0.0, 0.0, 0.0, 0.0, 1.6518363571989048E9, 0.0, 2022-05-06 12:25:57.198
95.0, -271.7691800300963, -184.27983041666448, -198.77007279498503, -183.63843757426366, 0.1600000075995922, 0.11200000531971455, 1.008000047877431, 0.0, 0.0, 0.0, 0.0, 0.0, 1.6518363571989048E9, 0.0, 2022-05-06 12:25:57.198
96.0, -239.34424741426483, -92.61488250270486, -128.03360503306612, -152.18961884686723, 0.1600000075995922, 0.11200000531971455, 1.008000047877431, 0.0, 0.0, 0.0, 0.0, 0.0, 1.6518363572138891E9, 0.0, 2022-05-06 12:25:57.213
96.0, -217.61916857166216, -95.57314336765558, -132.94035377493128, -162.59402052359655, 0.1600000075995922, 0.11200000531971455, 1.008000047877431, 0.0, 0.0, 0.0, 0.0, 0.0, 1.6518363572138891E9, 0.0, 2022-05-06 12:25:57.213
97.0, -265.23557480750605, -190.63392044138163, -212.63014203077182, -200.40440907562152, 0.1600000075995922, 0.11200000531971455, 1.008000047877431, 0.0, 0.0, 0.0, 0.0, 0.0, 1.6518363572149055E9, 0.0, 2022-05-06 12:25:57.214
97.0, -294.085163065698, -187.04361648391932, -210.59189655492082, -205.23261991841719, 0.1600000075995922, 0.11200000531971455, 1.008000047877431, 0.0, 0.0, 0.0, 0.0, 0.0, 1.6518363572149055E9, 0.0, 2022-05-06 12:25:57.214
98.0, -250.57142708124593, -105.457698950544, -140.88390128081664, -172.51971500599757, 0.1600000075995922, 0.11200000531971455, 1.008000047877431, 0.0, 0.0, 0.0, 0.0, 0.0, 1.6518363572289011E9, 0.0, 2022-05-06 12:25:57.228
98.0, -233.84659447940066, -106.20941884163767, -140.94747958006337, -162.14149262895808, 0.1600000075995922, 0.11200000531971455, 1.008000047877431, 0.0, 0.0, 0.0, 0.0, 0.0, 1.6518363572289011E9, 0.0, 2022-05-06 12:25:57.228
99.0, -272.23292762460187, -195.6902651814744, -209.65692156599835, -187.57655222760513, 0.1600000075995922, 0.11200000531971455, 1.008000047877431, 0.0, 0.0, 0.0, 0.0, 0.0, 1.6518363572299216E9, 0.0, 2022-05-06 12:25:57.229
99.0, -271.02120003895834, -190.07293544802815, -200.95417436910793, -185.3625314538367, 0.1600000075995922, 0.11200000531971455, 1.008000047877431, 0.0, 0.0, 0.0, 0.0, 0.0, 1.6518363572299216E9, 0.0, 2022-05-06 12:25:57.229
100.0, -238.6486260225065, -95.59184286743402, -129.85119641153142, -159.26176966307685, 0.1600000075995922, 0.11200000531971455, 1.0240000486373901, 0.0, 0.0, 0.0, 0.0, 0.0, 1.6518363572438965E9, 0.0, 2022-05-06 12:25:57.243
100.0, -225.0092108841054, -92.98887249827385, -123.46718718716875, -145.25958422897384, 0.1600000075995922, 0.11200000531971455, 1.0240000486373901, 0.0, 0.0, 0.0, 0.0, 0.0, 1.6518363572438965E9, 0.0, 2022-05-06 12:25:57.243
0.0, -261.40404730290174, -185.99270459637046, -209.6513117160648, -194.63561339396983, 0.1600000075995922, 0.11200000531971455, 1.0240000486373901, 0.0, 0.0, 0.0, 0.0, 0.0, 1.651836357244838E9, 0.0, 2022-05-06 12:25:57.244
1.0, -279.2882488910109, -194.4598380960524, -209.82334711402655, -205.90019206050783, 0.1600000075995922, 0.11200000531971455, 1.0240000486373901, 0.0, 0.0, 0.0, 0.0, 0.0, 1.6518363572578938E9, 0.0, 2022-05-06 12:25:57.257
1.0, -247.75715236458927, -99.66459391918033, -132.08204673510045, -159.88446300569922, 0.1600000075995922, 0.11200000531971455, 1.0240000486373901, 0.0, 0.0, 0.0, 0.0, 0.0, 1.6518363572578938E9, 0.0, 2022-05-06 12:25:57.257
2.0, -222.9915348580107, -97.76098484173417, -139.83111944328994, -160.3033318007365, 0.1600000075995922, 0.11200000531971455, 1.0240000486373901, 0.0, 0.0, 0.0, 0.0, 0.0, 1.651836357273882E9, 0.0, 2022-05-06 12:25:57.273
2.0, -270.3199687972665, -190.0542359482497, -212.8003074787557, -203.0204690946266, 0.1600000075995922, 0.11200000531971455, 1.0240000486373901, 0.0, 0.0, 0.0, 0.0, 0.0, 1.651836357273882E9, 0.0, 2022-05-06 12:25:57.273
3.0, -281.19185796845704, -184.09283541888, -208.67145792767406, -204.75578267406672, 0.1600000075995922, 0.11200000531971455, 1.0240000486373901, 0.0, 0.0, 0.0, 0.0, 0.0, 1.651836357274836E9, 0.0, 2022-05-06 12:25:57.274
3.0, -246.0106190852821, -107.69041922409087, -140.60153883416206, -180.4202536623925, 0.1600000075995922, 0.11200000531971455, 1.0240000486373901, 0.0, 0.0, 0.0, 0.0, 0.0, 1.651836357274836E9, 0.0, 2022-05-06 12:25:57.274
4.0, -230.45263526961207, -103.59148887265474, -144.6219312865287, -163.82631755899638, 0.1600000075995922, 0.11200000531971455, 1.0240000486373901, 0.0, 0.0, 0.0, 0.0, 0.0, 1.6518363572878785E9, 0.0, 2022-05-06 12:25:57.287
4.0, -256.9049476562068, -193.62584040593356, -209.19130402151495, -191.69231212884188, 0.1600000075995922, 0.11200000531971455, 1.0240000486373901, 0.0, 0.0, 0.0, 0.0, 0.0, 1.6518363572878785E9, 0.0, 2022-05-06 12:25:57.287
5.0, -254.791904181242, -183.15038063004613, -195.78002278041095, -182.99330483190715, 0.1600000075995922, 0.11200000531971455, 1.0240000486373901, 0.0, 0.0, 0.0, 0.0, 0.0, 1.6518363573039029E9, 0.0, 2022-05-06 12:25:57.303
5.0, -263.5731892772019, -98.56880323216319, -130.89275854919106, -148.12995744496584, 0.1600000075995922, 0.11200000531971455, 1.0240000486373901, 0.0, 0.0, 0.0, 0.0, 0.0, 1.6518363573039029E9, 0.0, 2022-05-06 12:25:57.303
6.0, -235.80443210620433, -92.95521339867264, -140.57161963451654, -172.2298727594316, 0.1600000075995922, 0.11200000531971455, 1.0240000486373901, 0.0, 0.0, 0.0, 0.0, 0.0, 1.6518363573048317E9, 0.0, 2022-05-06 12:25:57.304
6.0, -272.3806536728516, -189.9046399500221, -209.48675611801445, -195.67156568169594, 0.1600000075995922, 0.11200000531971455, 1.0240000486373901, 0.0, 0.0, 0.0, 0.0, 0.0, 1.6518363573048317E9, 0.0, 2022-05-06 12:25:57.304
7.0, -258.2026929408312, -180.62220825999975, -196.25499007478356, -190.85831443872303, 0.1600000075995922, 0.11200000531971455, 1.0240000486373901, 0.0, 0.0, 0.0, 0.0, 0.0, 1.651836357317888E9, 0.0, 2022-05-06 12:25:57.317
7.0, -244.32018430531025, -94.74288557749242, -127.81108098570257, -157.95093472860754, 0.1600000075995922, 0.11200000531971455, 1.0240000486373901, 0.0, 0.0, 0.0, 0.0, 0.0, 1.651836357317888E9, 0.0, 2022-05-06 12:25:57.317
8.0, -246.75485917646438, -111.10120798368007, -150.80398591328412, -175.8239166168496, 0.1600000075995922, 0.11200000531971455, 1.0240000486373901, 0.0, 0.0, 0.0, 0.0, 0.0, 1.6518363573338876E9, 0.0, 2022-05-06 12:25:57.333
8.0, -278.51408960018307, -195.84734097961336, -214.42716395948082, -199.60594043508172, 0.1600000075995922, 0.11200000531971455, 1.0240000486373901, 0.0, 0.0, 0.0, 0.0, 0.0, 1.6518363573338876E9, 0.0, 2022-05-06 12:25:57.333
9.0, -275.1706190397963, -185.21480540558696, -196.08295467682183, -176.3811617102474, 0.1600000075995922, 0.11200000531971455, 1.0240000486373901, 0.0, 0.0, 0.0, 0.0, 0.0, 1.6518363573348324E9, 0.0, 2022-05-06 12:25:57.334
9.0, -240.23247365374118, -95.22533267177641, -133.07312022335827, -171.32107707019895, 0.1600000075995922, 0.11200000531971455, 1.0240000486373901, 0.0, 0.0, 0.0, 0.0, 0.0, 1.6518363573348324E9, 0.0, 2022-05-06 12:25:57.334
10.0, -227.49437440466136, -101.01469780318439, -138.6941898567602, -171.22383967135102, 0.1600000075995922, 0.11200000531971455, 1.0240000486373901, 0.0, 0.0, 0.0, 0.0, 0.0, 1.6518363573479016E9, 0.0, 2022-05-06 12:25:57.347
10.0, -264.44084606692195, -196.2437703749165, -211.29686769656837, -196.55792197119445, 0.1600000075995922, 0.11200000531971455, 1.0240000486373901, 0.0, 0.0, 0.0, 0.0, 0.0, 1.6518363573479016E9, 0.0, 2022-05-06 12:25:57.347
11.0, -272.95659826602787, -182.69411283545196, -196.12035367637873, -181.80027674604207, 0.1600000075995922, 0.11200000531971455, 1.0240000486373901, 0.0, 0.0, 0.0, 0.0, 0.0, 1.6518363573638947E9, 0.0, 2022-05-06 12:25:57.363
11.0, -246.17143478337675, -95.32630997058004, -133.9183376133442, -173.7520120413974, 0.1600000075995922, 0.11200000531971455, 1.0240000486373901, 0.0, 0.0, 0.0, 0.0, 0.0, 1.6518363573638947E9, 0.0, 2022-05-06 12:25:57.363
12.0, -240.44190805125982, -111.87536727450788, -149.08737183362246, -178.03419749066234, 0.1600000075995922, 0.11200000531971455, 1.0240000486373901, 0.0, 0.0, 0.0, 0.0, 0.0, 1.651836357378913E9, 0.0, 2022-05-06 12:25:57.378
12.0, -269.4710115073249, -192.6123275179416, -212.9199842773378, -199.6882182341069, 0.1600000075995922, 0.11200000531971455, 1.0240000486373901, 0.0, 0.0, 0.0, 0.0, 0.0, 1.651836357378913E9, 0.0, 2022-05-06 12:25:57.378
13.0, -275.3875332372263, -175.674320618622, -190.46936484333128, -180.2295187646523, 0.1600000075995922, 0.11200000531971455, 1.0240000486373901, 0.0, 0.0, 0.0, 0.0, 0.0, 1.6518363573798704E9, 0.0, 2022-05-06 12:25:57.379
13.0, -233.65398963168263, -90.6364754261449, -128.97418987192214, -153.50793358124793, 0.1600000075995922, 0.11200000531971455, 1.0240000486373901, 0.0, 0.0, 0.0, 0.0, 0.0, 1.6518363573798704E9, 0.0, 2022-05-06 12:25:57.379
14.0, -225.75906082522124, -107.32390902843326, -147.78214674908668, -180.18090006522834, 0.1600000075995922, 0.11200000531971455, 1.0240000486373901, 0.0, 0.0, 0.0, 0.0, 0.0, 1.6518363573939078E9, 0.0, 2022-05-06 12:25:57.393
14.0, -267.02885683625937, -192.77688311599195, -208.6228392282501, -200.724170521833, 0.1600000075995922, 0.11200000531971455, 1.0240000486373901, 0.0, 0.0, 0.0, 0.0, 0.0, 1.6518363573939078E9, 0.0, 2022-05-06 12:25:57.393
15.0, -297.5053015751764, -200.60075382329524, -213.4398303711787, -209.01552872359753, 0.1600000075995922, 0.11200000531971455, 1.0240000486373901, 0.0, 0.0, 0.0, 0.0, 0.0, 1.65183635739485E9, 0.0, 2022-05-06 12:25:57.394
15.0, -247.80577106401324, -101.12689480185509, -129.49777586571872, -160.0714580034837, 0.1600000075995922, 0.11200000531971455, 1.0240000486373901, 0.0, 0.0, 0.0, 0.0, 0.0, 1.65183635739485E9, 0.0, 2022-05-06 12:25:57.394
16.0, -232.9209692403674, -110.0502960961312, -147.05660615768284, -169.06965729687363, 0.1600000075995922, 0.11200000531971455, 1.0240000486373901, 0.0, 0.0, 0.0, 0.0, 0.0, 1.6518363574078903E9, 0.0, 2022-05-06 12:25:57.407
16.0, -268.06480912398547, -197.9117657551542, -219.8088799957186, -211.09117319900542, 0.1600000075995922, 0.11200000531971455, 1.0240000486373901, 0.0, 0.0, 0.0, 0.0, 0.0, 1.6518363574078903E9, 0.0, 2022-05-06 12:25:57.407
17.0, -276.74885682109743, -183.73754492308944, -199.74057683348656, -193.6482798056677, 0.1600000075995922, 0.11200000531971455, 1.0240000486373901, 0.0, 0.0, 0.0, 0.0, 0.0, 1.6518363574239342E9, 0.0, 2022-05-06 12:25:57.423
17.0, -241.83315083477646, -100.85388210508972, -135.76210829149932, -167.21840681880713, 0.1600000075995922, 0.11200000531971455, 1.0240000486373901, 0.0, 0.0, 0.0, 0.0, 0.0, 1.6518363574239342E9, 0.0, 2022-05-06 12:25:57.423
18.0, -224.36033824179322, -102.60041538439691, -139.1392379514873, -158.3735434236005, 0.1600000075995922, 0.11200000531971455, 1.0240000486373901, 0.0, 0.0, 0.0, 0.0, 0.0, 1.6518363574388745E9, 0.0, 2022-05-06 12:25:57.438
18.0, -276.29632892645895, -193.88015360292047, -209.67375111579895, -185.41302010323852, 0.1600000075995922, 0.11200000531971455, 1.0240000486373901, 0.0, 0.0, 0.0, 0.0, 0.0, 1.6518363574388745E9, 0.0, 2022-05-06 12:25:57.438
19.0, -272.04406267683953, -178.29599048756063, -195.85856067948043, -187.2754902811721, 0.1600000075995922, 0.11200000531971455, 1.0240000486373901, 0.0, 0.0, 0.0, 0.0, 0.0, 1.6518363574398725E9, 0.0, 2022-05-06 12:25:57.439
19.0, -252.46194650884718, -110.18493249453604, -147.75222754944116, -185.61871460080147, 0.1600000075995922, 0.11200000531971455, 1.0240000486373901, 0.0, 0.0, 0.0, 0.0, 0.0, 1.6518363574398725E9, 0.0, 2022-05-06 12:25:57.439
20.0, -238.77391267102212, -110.37566739227623, -147.1463637566194, -178.303470287472, 0.1600000075995922, 0.11200000531971455, 1.0240000486373901, 0.0, 0.0, 0.0, 0.0, 0.0, 1.651836357453896E9, 0.0, 2022-05-06 12:25:57.453
20.0, -271.5840549822897, -197.48167726024985, -217.01143482886255, -199.47878383658826, 0.1600000075995922, 0.11200000531971455, 1.0240000486373901, 0.0, 0.0, 0.0, 0.0, 0.0, 1.651836357453896E9, 0.0, 2022-05-06 12:25:57.453
21.0, -271.55039588268846, -180.10610206611454, -193.46876460779458, -181.4225468505174, 0.1600000075995922, 0.11200000531971455, 1.0240000486373901, 0.0, 0.0, 0.0, 0.0, 0.0, 1.6518363574548364E9, 0.0, 2022-05-06 12:25:57.454
21.0, -238.13064987864345, -97.00552505068481, -125.81023450940847, -165.64016903750598, 0.1600000075995922, 0.11200000531971455, 1.0240000486373901, 0.0, 0.0, 0.0, 0.0, 0.0, 1.6518363574548364E9, 0.0, 2022-05-06 12:25:57.454
22.0, -229.05017278622836, -99.72069241851568, -139.41973044816405, -165.01560574490577, 0.1600000075995922, 0.11200000531971455, 1.0240000486373901, 0.0, 0.0, 0.0, 0.0, 0.0, 1.651836357467882E9, 0.0, 2022-05-06 12:25:57.467
22.0, -260.32695611566305, -187.4961443785578, -203.29348179139197, -183.4907115260139, 0.1600000075995922, 0.11200000531971455, 1.0240000486373901, 0.0, 0.0, 0.0, 0.0, 0.0, 1.651836357467882E9, 0.0, 2022-05-06 12:25:57.467
23.0, -272.15251977555454, -185.55139640159905, -196.5055633718148, -191.04530943650752, 0.1600000075995922, 0.11200000531971455, 1.0240000486373901, 0.0, 0.0, 0.0, 0.0, 0.0, 1.6518363574839003E9, 0.0, 2022-05-06 12:25:57.483
23.0, -242.58861062582582, -100.20687941275537, -135.15624449867755, -166.73221982456744, 0.1600000075995922, 0.11200000531971455, 1.0240000486373901, 0.0, 0.0, 0.0, 0.0, 0.0, 1.6518363574839003E9, 0.0, 2022-05-06 12:25:57.483
24.0, -231.75786035414785, -107.49220452643931, -144.2516811909154, -169.98593278601766, 0.1600000075995922, 0.11200000531971455, 1.0240000486373901, 0.0, 0.0, 0.0, 0.0, 0.0, 1.6518363574848464E9, 0.0, 2022-05-06 12:25:57.484
24.0, -249.0100188497454, -187.59712167736143, -199.74431673344225, -177.70508629456162, 0.1600000075995922, 0.11200000531971455, 1.0240000486373901, 0.0, 0.0, 0.0, 0.0, 0.0, 1.6518363574848464E9, 0.0, 2022-05-06 12:25:57.484
25.0, -283.55547474045306, -187.42882617935538, -205.63091926369816, -195.4957903837785, 0.1600000075995922, 0.11200000531971455, 1.0240000486373901, 0.0, 0.0, 0.0, 0.0, 0.0, 1.651836357497893E9, 0.0, 2022-05-06 12:25:57.497
25.0, -241.10013044346124, -102.77993058227003, -137.11595207545906, -177.91826059203595, 0.1600000075995922, 0.11200000531971455, 1.0240000486373901, 0.0, 0.0, 0.0, 0.0, 0.0, 1.651836357497893E9, 0.0, 2022-05-06 12:25:57.497
26.0, -230.6284105675295, -104.58630226086825, -140.5491802347824, -161.4140820875764, 0.1600000075995922, 0.11200000531971455, 1.0240000486373901, 0.0, 0.0, 0.0, 0.0, 0.0, 1.6518363575139678E9, 0.0, 2022-05-06 12:25:57.513
26.0, -262.73171178717166, -184.89691390935332, -197.9117657551542, -185.40928020328283, 0.1600000075995922, 0.11200000531971455, 1.0240000486373901, 0.0, 0.0, 0.0, 0.0, 0.0, 1.6518363575139678E9, 0.0, 2022-05-06 12:25:57.513
27.0, -267.6459403289482, -179.01779117900878, -198.8766599437222, -183.6814464237541, 0.1600000075995922, 0.11200000531971455, 1.0240000486373901, 0.0, 0.0, 0.0, 0.0, 0.0, 1.6518363575288856E9, 0.0, 2022-05-06 12:25:57.528
27.0, -237.46494768653065, -99.94508641585708, -134.3222468085587, -163.38874926418066, 0.1600000075995922, 0.11200000531971455, 1.0240000486373901, 0.0, 0.0, 0.0, 0.0, 0.0, 1.6518363575288856E9, 0.0, 2022-05-06 12:25:57.528
28.0, -233.31739863567054, -114.19036534707993, -150.54593281634152, -185.40180040337145, 0.1600000075995922, 0.11200000531971455, 1.0240000486373901, 0.0, 0.0, 0.0, 0.0, 0.0, 1.6518363575298588E9, 0.0, 2022-05-06 12:25:57.529
28.0, -256.7590915579349, -192.3093956215307, -213.07706007547677, -199.68073843419552, 0.1600000075995922, 0.11200000531971455, 1.0240000486373901, 0.0, 0.0, 0.0, 0.0, 0.0, 1.6518363575298588E9, 0.0, 2022-05-06 12:25:57.529
29.0, -279.2433700915426, -192.04760262463242, -208.5069023296237, -196.8683336675167, 0.1600000075995922, 0.11200000531971455, 1.0240000486373901, 0.0, 0.0, 0.0, 0.0, 0.0, 1.6518363575598977E9, 0.0, 2022-05-06 12:25:57.559
29.0, -238.02219277992845, -97.29349734727293, -134.32972660847008, -168.75924560055137, 0.1600000075995922, 0.11200000531971455, 1.0240000486373901, 0.0, 0.0, 0.0, 0.0, 0.0, 1.6518363575598977E9, 0.0, 2022-05-06 12:25:57.559
30.0, -228.19747559633106, -107.75773742329329, -145.45966887660325, -165.21756034251302, 0.1600000075995922, 0.11200000531971455, 1.008000047877431, 0.0, 0.0, 0.0, 0.0, 0.0, 1.6518363575608506E9, 0.0, 2022-05-06 12:25:57.560
30.0, -260.76452441047877, -190.69749874062836, -208.4283644305542, -192.21589812263846, 0.1600000075995922, 0.11200000531971455, 1.008000047877431, 0.0, 0.0, 0.0, 0.0, 0.0, 1.6518363575608506E9, 0.0, 2022-05-06 12:25:57.560
31.0, -275.06964174099267, -183.78242372255772, -199.67325863428414, -188.51713706646115, 0.1600000075995922, 0.11200000531971455, 1.008000047877431, 0.0, 0.0, 0.0, 0.0, 0.0, 1.6518363575618467E9, 0.0, 2022-05-06 12:25:57.561
31.0, -221.9929815698415, -92.91033459920436, -126.913504996337, -158.93452841695398, 0.1600000075995922, 0.11200000531971455, 1.008000047877431, 0.0, 0.0, 0.0, 0.0, 0.0, 1.6518363575618467E9, 0.0, 2022-05-06 12:25:57.561
32.0, -240.51296615041792, -109.94557889737189, -142.2171756150201, -163.09329716768116, 0.1600000075995922, 0.11200000531971455, 1.008000047877431, 0.0, 0.0, 0.0, 0.0, 0.0, 1.6518363575628872E9, 0.0, 2022-05-06 12:25:57.562
32.0, -260.84306230954826, -186.87532098591328, -202.6876179985702, -176.84116940479726, 0.1600000075995922, 0.11200000531971455, 1.008000047877431, 0.0, 0.0, 0.0, 0.0, 0.0, 1.6518363575628872E9, 0.0, 2022-05-06 12:25:57.562
33.0, -266.48657134268433, -177.96687929145992, -185.7533509992063, -171.06676387321204, 0.1600000075995922, 0.11200000531971455, 1.008000047877431, 0.0, 0.0, 0.0, 0.0, 0.0, 1.6518363575728943E9, 0.0, 2022-05-06 12:25:57.572
33.0, -233.73252753075212, -92.55878400336951, -132.60563272889704, -164.79869154747576, 0.1600000075995922, 0.11200000531971455, 1.008000047877431, 0.0, 0.0, 0.0, 0.0, 0.0, 1.6518363575728943E9, 0.0, 2022-05-06 12:25:57.572
34.0, -211.7306960914284, -99.12604832556099, -136.91025757789612, -162.64824907295406, 0.1600000075995922, 0.11200000531971455, 1.008000047877431, 0.0, 0.0, 0.0, 0.0, 0.0, 1.6518363576049075E9, 0.0, 2022-05-06 12:25:57.604
34.0, -242.84666372276843, -178.35208898689598, -200.89246601983905, -185.67481310013682, 0.1600000075995922, 0.11200000531971455, 1.008000047877431, 0.0, 0.0, 0.0, 0.0, 0.0, 1.6518363576049075E9, 0.0, 2022-05-06 12:25:57.604
35.0, -278.0989607051015, -188.62559416517615, -203.37949949037284, -201.19539791624993, 0.1600000075995922, 0.11200000531971455, 1.008000047877431, 0.0, 0.0, 0.0, 0.0, 0.0, 1.6518363576059015E9, 0.0, 2022-05-06 12:25:57.605
35.0, -236.72070759534836, -101.10071550216526, -127.14163889363408, -148.04019984602928, 0.1600000075995922, 0.11200000531971455, 1.008000047877431, 0.0, 0.0, 0.0, 0.0, 0.0, 1.6518363576059015E9, 0.0, 2022-05-06 12:25:57.605
36.0, -223.9601689465344, -110.10639459546655, -141.35699862521142, -156.09968425054103, 0.1600000075995922, 0.11200000531971455, 1.008000047877431, 0.0, 0.0, 0.0, 0.0, 0.0, 1.6518363576068673E9, 0.0, 2022-05-06 12:25:57.606
36.0, -249.8253170400858, -195.85108087956905, -215.6239319453016, -206.88378574885428, 0.1600000075995922, 0.11200000531971455, 1.008000047877431, 0.0, 0.0, 0.0, 0.0, 0.0, 1.6518363576068673E9, 0.0, 2022-05-06 12:25:57.606
37.0, -279.77817578520626, -185.43171960301697, -202.9868099950254, -200.49229672458023, 0.1600000075995922, 0.11200000531971455, 1.008000047877431, 0.0, 0.0, 0.0, 0.0, 0.0, 1.6518363576178992E9, 0.0, 2022-05-06 12:25:57.617
37.0, -234.73482071887702, -92.81309720035642, -126.41609830223024, -161.83669078256935, 0.1600000075995922, 0.11200000531971455, 1.008000047877431, 0.0, 0.0, 0.0, 0.0, 0.0, 1.6518363576178992E9, 0.0, 2022-05-06 12:25:57.617
38.0, -216.45792963542044, -98.07139653805643, -138.6231317576021, -158.2650863248855, 0.1600000075995922, 0.11200000531971455, 1.008000047877431, 0.0, 0.0, 0.0, 0.0, 0.0, 1.6518363576338751E9, 0.0, 2022-05-06 12:25:57.633
38.0, -269.10450131166726, -192.462731519714, -218.4737357115373, -204.38553257845342, 0.1600000075995922, 0.11200000531971455, 1.008000047877431, 0.0, 0.0, 0.0, 0.0, 0.0, 1.6518363576338751E9, 0.0, 2022-05-06 12:25:57.633
39.0, -267.65716002881527, -173.83054994046688, -189.2763367574662, -181.13457455392927, 0.1600000075995922, 0.11200000531971455, 1.008000047877431, 0.0, 0.0, 0.0, 0.0, 0.0, 1.6518363576348689E9, 0.0, 2022-05-06 12:25:57.634
39.0, -237.57714468520135, -105.51753734983504, -136.4315503835678, -168.43387430440634, 0.1600000075995922, 0.11200000531971455, 1.008000047877431, 0.0, 0.0, 0.0, 0.0, 0.0, 1.6518363576348689E9, 0.0, 2022-05-06 12:25:57.634
40.0, -223.4365829527378, -104.81443615816534, -138.72036915645003, -152.37848379462957, 0.1600000075995922, 0.11200000531971455, 1.008000047877431, 0.0, 0.0, 0.0, 0.0, 0.0, 1.651836357647898E9, 0.0, 2022-05-06 12:25:57.647
40.0, -259.13766792975366, -190.0916349478066, -209.60269301664084, -194.41495929658413, 0.1600000075995922, 0.11200000531971455, 1.008000047877431, 0.0, 0.0, 0.0, 0.0, 0.0, 1.651836357647898E9, 0.0, 2022-05-06 12:25:57.647
41.0, -275.92607883084565, -191.54271613061428, -200.60449372325093, -193.67819900531322, 0.1600000075995922, 0.11200000531971455, 1.008000047877431, 0.0, 0.0, 0.0, 0.0, 0.0, 1.6518363576638849E9, 0.0, 2022-05-06 12:25:57.663
41.0, -236.30931860022247, -92.04641770944, -121.9095188556239, -146.9967677583918, 0.1600000075995922, 0.11200000531971455, 1.008000047877431, 0.0, 0.0, 0.0, 0.0, 0.0, 1.6518363576638849E9, 0.0, 2022-05-06 12:25:57.663
42.0, -208.08429363463074, -91.28347811847925, -132.88612522557378, -165.34471694100648, 0.1600000075995922, 0.11200000531971455, 1.008000047877431, 0.0, 0.0, 0.0, 0.0, 0.0, 1.6518363576648626E9, 0.0, 2022-05-06 12:25:57.664
42.0, -265.58899535331875, -188.6106345653534, -209.78220821451396, -196.74491696897894, 0.1600000075995922, 0.11200000531971455, 1.008000047877431, 0.0, 0.0, 0.0, 0.0, 0.0, 1.6518363576648626E9, 0.0, 2022-05-06 12:25:57.664
43.0, -244.99336629733443, -177.8247630931437, -189.29503625724465, -177.67142719496042, 0.1600000075995922, 0.11200000531971455, 1.008000047877431, 0.0, 0.0, 0.0, 0.0, 0.0, 1.6518363576779046E9, 0.0, 2022-05-06 12:25:57.677
43.0, -240.62516314908862, -87.55479786265641, -124.30679472722113, -151.93343569990247, 0.1600000075995922, 0.11200000531971455, 1.008000047877431, 0.0, 0.0, 0.0, 0.0, 0.0, 1.6518363576779046E9, 0.0, 2022-05-06 12:25:57.677
44.0, -228.42560949362814, -105.55119644943625, -141.76464772038162, -163.86371655855328, 0.1600000075995922, 0.11200000531971455, 1.008000047877431, 0.0, 0.0, 0.0, 0.0, 0.0, 1.6518363576939023E9, 0.0, 2022-05-06 12:25:57.693
44.0, -259.5004382254556, -180.607248660177, -205.00635597109795, -185.72717169951648, 0.1600000075995922, 0.11200000531971455, 1.008000047877431, 0.0, 0.0, 0.0, 0.0, 0.0, 1.6518363576939023E9, 0.0, 2022-05-06 12:25:57.693
45.0, -260.3793147150427, -172.91801435127854, -191.25100393407047, -190.83961493894458, 0.1600000075995922, 0.11200000531971455, 1.008000047877431, 0.0, 0.0, 0.0, 0.0, 0.0, 1.6518363576948397E9, 0.0, 2022-05-06 12:25:57.694
45.0, -225.75532092526555, -85.94664088170975, -114.08564814832062, -144.07590589299798, 0.1600000075995922, 0.11200000531971455, 1.008000047877431, 0.0, 0.0, 0.0, 0.0, 0.0, 1.6518363576948397E9, 0.0, 2022-05-06 12:25:57.694
46.0, -222.1089184684679, -93.20952659565955, -132.88612522557378, -152.2588069960475, 0.1600000075995922, 0.11200000531971455, 1.008000047877431, 0.0, 0.0, 0.0, 0.0, 0.0, 1.6518363577078953E9, 0.0, 2022-05-06 12:25:57.707
46.0, -257.4659326495603, -182.70533253531903, -212.78908777888864, -206.1358057577163, 0.1600000075995922, 0.11200000531971455, 1.008000047877431, 0.0, 0.0, 0.0, 0.0, 0.0, 1.6518363577078953E9, 0.0, 2022-05-06 12:25:57.707
47.0, -275.0472023412585, -183.29997662827373, -199.9836703306064, -197.56021515931934, 0.1600000075995922, 0.11200000531971455, 1.008000047877431, 0.0, 0.0, 0.0, 0.0, 0.0, 1.6518363577238953E9, 0.0, 2022-05-06 12:25:57.723
47.0, -253.14260830078274, -110.39810679201037, -148.56378583982587, -182.7576911346987, 0.1600000075995922, 0.11200000531971455, 1.008000047877431, 0.0, 0.0, 0.0, 0.0, 0.0, 1.6518363577238953E9, 0.0, 2022-05-06 12:25:57.723
48.0, -238.594397473149, -119.73663698136806, -156.41757574677467, -175.8201767168939, 0.1600000075995922, 0.11200000531971455, 1.008000047877431, 0.0, 0.0, 0.0, 0.0, 0.0, 1.6518363577248323E9, 0.0, 2022-05-06 12:25:57.724
48.0, -268.3864405201748, -208.20397043321282, -228.8818772882223, -210.6199458045885, 0.1600000075995922, 0.11200000531971455, 1.008000047877431, 0.0, 0.0, 0.0, 0.0, 0.0, 1.6518363577248323E9, 0.0, 2022-05-06 12:25:57.724
49.0, -264.2688106689602, -191.70353182870895, -203.33836059086025, -193.76421670429409, 0.1600000075995922, 0.11200000531971455, 1.008000047877431, 0.0, 0.0, 0.0, 0.0, 0.0, 1.6518363577379065E9, 0.0, 2022-05-06 12:25:57.737
49.0, -239.4882335625589, -105.18468625377864, -137.40766427200288, -166.30961112957448, 0.1600000075995922, 0.11200000531971455, 1.008000047877431, 0.0, 0.0, 0.0, 0.0, 0.0, 1.6518363577379065E9, 0.0, 2022-05-06 12:25:57.737
50.0, -221.53297387529165, -100.10964201390743, -137.68067696876824, -152.08303169813007, 0.1600000075995922, 0.11200000531971455, 1.0240000486373901, 0.0, 0.0, 0.0, 0.0, 0.0, 1.6518363577699084E9, 0.0, 2022-05-06 12:25:57.769
50.0, -236.3766367994249, -166.90051532257348, -192.96013821382076, -170.35244298167527, 0.1600000075995922, 0.11200000531971455, 1.0240000486373901, 0.0, 0.0, 0.0, 0.0, 0.0, 1.6518363577699084E9, 0.0, 2022-05-06 12:25:57.769
51.0, -244.817590999417, -168.08606360852718, -178.28103088773787, -169.69422058947384, 0.1600000075995922, 0.11200000531971455, 1.0240000486373901, 0.0, 0.0, 0.0, 0.0, 0.0, 1.6518363577708385E9, 0.0, 2022-05-06 12:25:57.770
51.0, -234.85823741741478, -87.06113106850535, -125.53722181264311, -144.09086549282074, 0.1600000075995922, 0.11200000531971455, 1.0240000486373901, 0.0, 0.0, 0.0, 0.0, 0.0, 1.6518363577708385E9, 0.0, 2022-05-06 12:25:57.770
52.0, -234.84327781759202, -105.6409540483728, -141.37943802494556, -162.4500343753025, 0.1600000075995922, 0.11200000531971455, 1.0240000486373901, 0.0, 0.0, 0.0, 0.0, 0.0, 1.6518363577718425E9, 0.0, 2022-05-06 12:25:57.771
52.0, -251.59054981917143, -175.24797202367336, -194.19056529924273, -159.75356650725007, 0.1600000075995922, 0.11200000531971455, 1.0240000486373901, 0.0, 0.0, 0.0, 0.0, 0.0, 1.6518363577718425E9, 0.0, 2022-05-06 12:25:57.771
53.0, -264.81109616253525, -173.46777964476496, -195.5032701836899, -188.2366445697844, 0.1600000075995922, 0.11200000531971455, 1.0240000486373901, 0.0, 0.0, 0.0, 0.0, 0.0, 1.651836357772818E9, 0.0, 2022-05-06 12:25:57.772
53.0, -228.26853369548917, -86.87787597067654, -126.01966890692711, -157.3675103355199, 0.1600000075995922, 0.11200000531971455, 1.0240000486373901, 0.0, 0.0, 0.0, 0.0, 0.0, 1.651836357772818E9, 0.0, 2022-05-06 12:25:57.772
54.0, -224.7717272369191, -102.937006380409, -140.19014983903617, -156.93742184061557, 0.1600000075995922, 0.11200000531971455, 1.0240000486373901, 0.0, 0.0, 0.0, 0.0, 0.0, 1.651836357782875E9, 0.0, 2022-05-06 12:25:57.782
54.0, -249.13717544823885, -178.84201588109136, -201.46093081310391, -172.57394355535507, 0.1600000075995922, 0.11200000531971455, 1.0240000486373901, 0.0, 0.0, 0.0, 0.0, 0.0, 1.651836357782875E9, 0.0, 2022-05-06 12:25:57.782
55.0, -259.55279682483524, -172.55150415562093, -190.7947361394763, -186.96881848480552, 0.1600000075995922, 0.11200000531971455, 1.0240000486373901, 0.0, 0.0, 0.0, 0.0, 0.0, 1.6518363577979138E9, 0.0, 2022-05-06 12:25:57.797
55.0, -229.98888767510653, -92.8953749993816, -125.88877240847796, -161.99376658070832, 0.1600000075995922, 0.11200000531971455, 1.0240000486373901, 0.0, 0.0, 0.0, 0.0, 0.0, 1.6518363577979138E9, 0.0, 2022-05-06 12:25:57.797
56.0, -216.7346822321415, -98.09009603783488, -133.510688518174, -151.28643300756812, 0.1600000075995922, 0.11200000531971455, 1.0240000486373901, 0.0, 0.0, 0.0, 0.0, 0.0, 1.6518363578138804E9, 0.0, 2022-05-06 12:25:57.813
56.0, -259.03295073099434, -189.52691005449742, -210.6199458045885, -183.59916862472892, 0.1600000075995922, 0.11200000531971455, 1.0240000486373901, 0.0, 0.0, 0.0, 0.0, 0.0, 1.6518363578138804E9, 0.0, 2022-05-06 12:25:57.813
57.0, -264.5306036658585, -176.70653300639242, -187.4176064794883, -170.50951877981424, 0.1600000075995922, 0.11200000531971455, 1.0240000486373901, 0.0, 0.0, 0.0, 0.0, 0.0, 1.6518363578148208E9, 0.0, 2022-05-06 12:25:57.814
57.0, -224.20700234360993, -86.80681787151843, -122.74725644569844, -156.4774141460657, 0.1600000075995922, 0.11200000531971455, 1.0240000486373901, 0.0, 0.0, 0.0, 0.0, 0.0, 1.6518363578148208E9, 0.0, 2022-05-06 12:25:57.814
58.0, -229.26708698365837, -109.04426300805062, -149.24070773180574, -175.2367523238063, 0.1600000075995922, 0.11200000531971455, 1.0240000486373901, 0.0, 0.0, 0.0, 0.0, 0.0, 1.6518363578278935E9, 0.0, 2022-05-06 12:25:57.827
58.0, -243.01495922077447, -188.4572986671701, -203.74600968603045, -191.606294429861, 0.1600000075995922, 0.11200000531971455, 1.0240000486373901, 0.0, 0.0, 0.0, 0.0, 0.0, 1.6518363578278935E9, 0.0, 2022-05-06 12:25:57.827
59.0, -268.66693301685154, -175.61074231937528, -178.303470287472, -171.65018826629966, 0.1600000075995922, 0.11200000531971455, 1.0240000486373901, 0.0, 0.0, 0.0, 0.0, 0.0, 1.6518363578439105E9, 0.0, 2022-05-06 12:25:57.843
59.0, -213.01722167618573, -80.81923804245889, -113.92857235018164, -140.55666003469378, 0.1600000075995922, 0.11200000531971455, 1.0240000486373901, 0.0, 0.0, 0.0, 0.0, 0.0, 1.6518363578439105E9, 0.0, 2022-05-06 12:25:57.843
60.0, -224.98864143434912, -109.54540960211307, -145.66910327412188, -161.26822598930448, 0.1600000075995922, 0.11200000531971455, 1.008000047877431, 0.0, 0.0, 0.0, 0.0, 0.0, 1.651836357844842E9, 0.0, 2022-05-06 12:25:57.844
60.0, -263.33383568003774, -196.00441677775234, -223.37674455344677, -210.5451478054747, 0.1600000075995922, 0.11200000531971455, 1.008000047877431, 0.0, 0.0, 0.0, 0.0, 0.0, 1.651836357844842E9, 0.0, 2022-05-06 12:25:57.844
61.0, -270.89217349048704, -180.74188505858183, -197.33956106193364, -191.2061251346022, 0.1600000075995922, 0.11200000531971455, 1.008000047877431, 0.0, 0.0, 0.0, 0.0, 0.0, 1.6518363578579075E9, 0.0, 2022-05-06 12:25:57.857
61.0, -234.49172722175717, -91.6350287143141, -123.58499403577298, -149.49876082874835, 0.1600000075995922, 0.11200000531971455, 1.008000047877431, 0.0, 0.0, 0.0, 0.0, 0.0, 1.6518363578579075E9, 0.0, 2022-05-06 12:25:57.857
62.0, -220.19782959111035, -101.59064239636064, -132.38497863151133, -151.65294320322573, 0.1600000075995922, 0.11200000531971455, 1.008000047877431, 0.0, 0.0, 0.0, 0.0, 0.0, 1.651836357873912E9, 0.0, 2022-05-06 12:25:57.873
62.0, -252.09543631318957, -181.4524660501629, -206.53597505297512, -193.9063329026103, 0.1600000075995922, 0.11200000531971455, 1.008000047877431, 0.0, 0.0, 0.0, 0.0, 0.0, 1.651836357873912E9, 0.0, 2022-05-06 12:25:57.873
63.0, -259.7472716225311, -179.36934177484363, -197.21614436339587, -195.93709857854992, 0.1600000075995922, 0.11200000531971455, 1.008000047877431, 0.0, 0.0, 0.0, 0.0, 0.0, 1.651836357874828E9, 0.0, 2022-05-06 12:25:57.874
63.0, -236.09614430274814, -93.21326649561524, -126.96212369576097, -161.68709478434175, 0.1600000075995922, 0.11200000531971455, 1.008000047877431, 0.0, 0.0, 0.0, 0.0, 0.0, 1.651836357874828E9, 0.0, 2022-05-06 12:25:57.874
64.0, -229.89539017621428, -117.60863390658051, -153.13020368572325, -176.98328560311347, 0.1600000075995922, 0.11200000531971455, 1.008000047877431, 0.0, 0.0, 0.0, 0.0, 0.0, 1.6518363578879352E9, 0.0, 2022-05-06 12:25:57.887
64.0, -252.62276220694184, -186.6471870886162, -206.95858374796808, -186.63596738874912, 0.1600000075995922, 0.11200000531971455, 1.008000047877431, 0.0, 0.0, 0.0, 0.0, 0.0, 1.6518363578879352E9, 0.0, 2022-05-06 12:25:57.887
65.0, -251.414774521254, -166.5227854270488, -185.4167600031942, -174.37283543404192, 0.1600000075995922, 0.11200000531971455, 1.008000047877431, 0.0, 0.0, 0.0, 0.0, 0.0, 1.6518363579038763E9, 0.0, 2022-05-06 12:25:57.903
65.0, -226.98948791064322, -86.47770667541772, -115.14403983578086, -152.53555959276855, 0.1600000075995922, 0.11200000531971455, 1.008000047877431, 0.0, 0.0, 0.0, 0.0, 0.0, 1.6518363579038763E9, 0.0, 2022-05-06 12:25:57.903
66.0, -224.50245444010943, -104.87427455745637, -139.48330874741077, -159.34217751212418, 0.1600000075995922, 0.11200000531971455, 1.008000047877431, 0.0, 0.0, 0.0, 0.0, 0.0, 1.6518363579048746E9, 0.0, 2022-05-06 12:25:57.904
66.0, -253.31838359870017, -191.81198892742395, -206.8426468493417, -174.53739103209227, 0.1600000075995922, 0.11200000531971455, 1.008000047877431, 0.0, 0.0, 0.0, 0.0, 0.0, 1.6518363579048746E9, 0.0, 2022-05-06 12:25:57.904
67.0, -263.3899341793731, -176.63921480719, -185.18114630598575, -176.94214670360088, 0.1600000075995922, 0.11200000531971455, 1.008000047877431, 0.0, 0.0, 0.0, 0.0, 0.0, 1.6518363579178843E9, 0.0, 2022-05-06 12:25:57.917
67.0, -223.15235055610538, -83.57180440984666, -121.17649846430868, -140.0330740408972, 0.1600000075995922, 0.11200000531971455, 1.008000047877431, 0.0, 0.0, 0.0, 0.0, 0.0, 1.6518363579178843E9, 0.0, 2022-05-06 12:25:57.917
68.0, -232.21038824878633, -110.98527108505368, -155.5536588570103, -179.7919504698366, 0.1600000075995922, 0.11200000531971455, 1.008000047877431, 0.0, 0.0, 0.0, 0.0, 0.0, 1.6518363579338841E9, 0.0, 2022-05-06 12:25:57.933
68.0, -261.91641359683126, -191.0864483360201, -210.93409740086645, -186.7519042873755, 0.1600000075995922, 0.11200000531971455, 1.008000047877431, 0.0, 0.0, 0.0, 0.0, 0.0, 1.6518363579338841E9, 0.0, 2022-05-06 12:25:57.933
69.0, -259.1563674295321, -181.33652915153652, -199.86773343198, -195.58554798271507, 0.1600000075995922, 0.11200000531971455, 1.008000047877431, 0.0, 0.0, 0.0, 0.0, 0.0, 1.651836357934827E9, 0.0, 2022-05-06 12:25:57.934
69.0, -246.64266217779368, -106.43007293902338, -137.04489397630095, -174.88894162792712, 0.1600000075995922, 0.11200000531971455, 1.008000047877431, 0.0, 0.0, 0.0, 0.0, 0.0, 1.651836357934827E9, 0.0, 2022-05-06 12:25:57.934
70.0, -233.39219663478434, -118.10978050064296, -153.28727948386222, -172.29345105867833, 0.1600000075995922, 0.11200000531971455, 1.008000047877431, 0.0, 0.0, 0.0, 0.0, 0.0, 1.6518363579479022E9, 0.0, 2022-05-06 12:25:57.947
70.0, -247.92170796263963, -192.33931482117623, -212.6170523809269, -197.60135405883193, 0.1600000075995922, 0.11200000531971455, 1.008000047877431, 0.0, 0.0, 0.0, 0.0, 0.0, 1.6518363579479022E9, 0.0, 2022-05-06 12:25:57.947
71.0, -274.14214655198157, -184.24243141710758, -194.04844910092652, -188.55079616606236, 0.1600000075995922, 0.11200000531971455, 1.008000047877431, 0.0, 0.0, 0.0, 0.0, 0.0, 1.6518363579638884E9, 0.0, 2022-05-06 12:25:57.963
71.0, -236.6272100964561, -96.90454775188118, -127.82604058552533, -146.46570196468383, 0.1600000075995922, 0.11200000531971455, 1.008000047877431, 0.0, 0.0, 0.0, 0.0, 0.0, 1.6518363579638884E9, 0.0, 2022-05-06 12:25:57.963
72.0, -239.72758715972304, -111.50511717889458, -149.35664463043213, -170.76009207684547, 0.1600000075995922, 0.11200000531971455, 1.008000047877431, 0.0, 0.0, 0.0, 0.0, 0.0, 1.6518363579648263E9, 0.0, 2022-05-06 12:25:57.964
72.0, -271.9468252779916, -192.96013821382076, -215.86702544242144, -199.9500112310052, 0.1600000075995922, 0.11200000531971455, 1.008000047877431, 0.0, 0.0, 0.0, 0.0, 0.0, 1.6518363579648263E9, 0.0, 2022-05-06 12:25:57.964
73.0, -281.11332006938756, -184.77723711077124, -199.51992273610085, -197.54899545945227, 0.1600000075995922, 0.11200000531971455, 1.008000047877431, 0.0, 0.0, 0.0, 0.0, 0.0, 1.6518363579779088E9, 0.0, 2022-05-06 12:25:57.977
73.0, -239.57051136158407, -94.7129663778469, -134.99916870053858, -161.1111501911655, 0.1600000075995922, 0.11200000531971455, 1.008000047877431, 0.0, 0.0, 0.0, 0.0, 0.0, 1.6518363579779088E9, 0.0, 2022-05-06 12:25:57.977
74.0, -234.85823741741478, -110.79079628735781, -148.94899553526193, -169.80641758814454, 0.1600000075995922, 0.11200000531971455, 1.008000047877431, 0.0, 0.0, 0.0, 0.0, 0.0, 1.6518363579939277E9, 0.0, 2022-05-06 12:25:57.993
74.0, -267.51130393054336, -192.75070381630212, -213.6604844685644, -194.26910319831222, 0.1600000075995922, 0.11200000531971455, 1.008000047877431, 0.0, 0.0, 0.0, 0.0, 0.0, 1.6518363579939277E9, 0.0, 2022-05-06 12:25:57.993
75.0, -272.0590222766623, -180.9400997562334, -197.74721015710384, -194.66553259361535, 0.1600000075995922, 0.11200000531971455, 1.008000047877431, 0.0, 0.0, 0.0, 0.0, 0.0, 1.651836357994842E9, 0.0, 2022-05-06 12:25:57.994
75.0, -240.87947634607553, -100.07972281426191, -134.2885877089575, -169.49600589182228, 0.1600000075995922, 0.11200000531971455, 1.008000047877431, 0.0, 0.0, 0.0, 0.0, 0.0, 1.651836357994842E9, 0.0, 2022-05-06 12:25:57.994
76.0, -219.3600920010358, -99.46637922152877, -130.53372815344483, -140.15275083947927, 0.1600000075995922, 0.11200000531971455, 1.008000047877431, 0.0, 0.0, 0.0, 0.0, 0.0, 1.6518363580078795E9, 0.0, 2022-05-06 12:25:58.007
76.0, -260.88420120906085, -180.94383965618908, -205.3616464668885, -187.03239678405225, 0.1600000075995922, 0.11200000531971455, 1.008000047877431, 0.0, 0.0, 0.0, 0.0, 0.0, 1.6518363580078795E9, 0.0, 2022-05-06 12:25:58.007
77.0, -268.6482335170731, -173.3780220458284, -191.0116503369063, -188.2403844697401, 0.1600000075995922, 0.11200000531971455, 1.008000047877431, 0.0, 0.0, 0.0, 0.0, 0.0, 1.6518363580238783E9, 0.0, 2022-05-06 12:25:58.023
77.0, -239.8510038582608, -99.70947271864861, -134.23248920962214, -172.49540565628558, 0.1600000075995922, 0.11200000531971455, 1.008000047877431, 0.0, 0.0, 0.0, 0.0, 0.0, 1.6518363580238783E9, 0.0, 2022-05-06 12:25:58.023
78.0, -230.3740973705426, -118.22945729922503, -151.16675620898604, -168.1197227081284, 0.1600000075995922, 0.11200000531971455, 1.008000047877431, 0.0, 0.0, 0.0, 0.0, 0.0, 1.6518363580248854E9, 0.0, 2022-05-06 12:25:58.024
78.0, -284.45679062977433, -196.165232475847, -218.48121551144868, -204.11251988168806, 0.1600000075995922, 0.11200000531971455, 1.008000047877431, 0.0, 0.0, 0.0, 0.0, 0.0, 1.6518363580248854E9, 0.0, 2022-05-06 12:25:58.024
79.0, -276.6927583217621, -180.58854916039854, -196.11287387646735, -189.00332406070083, 0.1600000075995922, 0.11200000531971455, 1.008000047877431, 0.0, 0.0, 0.0, 0.0, 0.0, 1.6518363580379045E9, 0.0, 2022-05-06 12:25:58.037
79.0, -225.05221973359585, -87.62959586177021, -121.0568216657266, -146.42082316521555, 0.1600000075995922, 0.11200000531971455, 1.008000047877431, 0.0, 0.0, 0.0, 0.0, 0.0, 1.6518363580379045E9, 0.0, 2022-05-06 12:25:58.037
80.0, -217.40786422416568, -95.43102716933936, -137.912550766021, -155.56113865692168, 0.1600000075995922, 0.11200000531971455, 1.008000047877431, 0.0, 0.0, 0.0, 0.0, 0.0, 1.6518363580539248E9, 0.0, 2022-05-06 12:25:58.053
80.0, -278.21863750368357, -195.9071793789044, -215.5491339461878, -208.89585192501545, 0.1600000075995922, 0.11200000531971455, 1.008000047877431, 0.0, 0.0, 0.0, 0.0, 0.0, 1.6518363580539248E9, 0.0, 2022-05-06 12:25:58.053
81.0, -288.7988144783303, -190.58156184200197, -208.5405614292249, -210.216036609374, 0.1600000075995922, 0.11200000531971455, 1.008000047877431, 0.0, 0.0, 0.0, 0.0, 0.0, 1.6518363580548515E9, 0.0, 2022-05-06 12:25:58.054
81.0, -250.77151172887534, -110.28590979333967, -144.07590589299798, -173.99510553851724, 0.1600000075995922, 0.11200000531971455, 1.008000047877431, 0.0, 0.0, 0.0, 0.0, 0.0, 1.6518363580548515E9, 0.0, 2022-05-06 12:25:58.054
82.0, -230.2955594714731, -107.39496712759137, -143.5149208996445, -160.10511710308492, 0.1600000075995922, 0.11200000531971455, 1.008000047877431, 0.0, 0.0, 0.0, 0.0, 0.0, 1.6518363580679452E9, 0.0, 2022-05-06 12:25:58.067
82.0, -269.0932816118002, -197.22736406326294, -218.89634440653026, -194.21674459893256, 0.1600000075995922, 0.11200000531971455, 1.008000047877431, 0.0, 0.0, 0.0, 0.0, 0.0, 1.6518363580679452E9, 0.0, 2022-05-06 12:25:58.067
83.0, -275.89241973124444, -176.1156288133934, -187.89631367381662, -177.05434370227158, 0.1600000075995922, 0.11200000531971455, 1.008000047877431, 0.0, 0.0, 0.0, 0.0, 0.0, 1.6518363580839226E9, 0.0, 2022-05-06 12:25:58.083
83.0, -244.1930277068168, -103.89442076906562, -128.53288167715073, -167.2296265186742, 0.1600000075995922, 0.11200000531971455, 1.008000047877431, 0.0, 0.0, 0.0, 0.0, 0.0, 1.6518363580839226E9, 0.0, 2022-05-06 12:25:58.083
84.0, -231.0360596626997, -112.90009986236691, -154.1848554732278, -173.27330484706908, 0.1600000075995922, 0.11200000531971455, 1.008000047877431, 0.0, 0.0, 0.0, 0.0, 0.0, 1.6518363580848384E9, 0.0, 2022-05-06 12:25:58.084
84.0, -270.89591339044273, -196.07173497695476, -216.67110393289477, -202.0929739056155, 0.1600000075995922, 0.11200000531971455, 1.008000047877431, 0.0, 0.0, 0.0, 0.0, 0.0, 1.6518363580848384E9, 0.0, 2022-05-06 12:25:58.084
85.0, -272.2759364740923, -172.936713851057, -194.16064609959722, -187.7579373754561, 0.1600000075995922, 0.11200000531971455, 1.008000047877431, 0.0, 0.0, 0.0, 0.0, 0.0, 1.651836358097891E9, 0.0, 2022-05-06 12:25:58.097
85.0, -220.27262759022415, -84.42450159974396, -114.23150424659252, -146.39090396557003, 0.1600000075995922, 0.11200000531971455, 1.008000047877431, 0.0, 0.0, 0.0, 0.0, 0.0, 1.651836358097891E9, 0.0, 2022-05-06 12:25:58.097
86.0, -232.34128474723548, -112.85522106289864, -145.81869927234948, -154.42420907039195, 0.1600000075995922, 0.11200000531971455, 1.008000047877431, 0.0, 0.0, 0.0, 0.0, 0.0, 1.6518363581139004E9, 0.0, 2022-05-06 12:25:58.113
86.0, -273.25579026248306, -201.5731278117746, -228.85943788848817, -216.18865683861077, 0.1600000075995922, 0.11200000531971455, 1.008000047877431, 0.0, 0.0, 0.0, 0.0, 0.0, 1.6518363581139004E9, 0.0, 2022-05-06 12:25:58.113
87.0, -289.29996107239276, -192.06256222445518, -204.4715502774343, -209.12398582231253, 0.1600000075995922, 0.11200000531971455, 1.008000047877431, 0.0, 0.0, 0.0, 0.0, 0.0, 1.6518363581148305E9, 0.0, 2022-05-06 12:25:58.114
87.0, -227.71502850204706, -91.1189225204289, -118.26685629878193, -138.86996515467763, 0.1600000075995922, 0.11200000531971455, 1.008000047877431, 0.0, 0.0, 0.0, 0.0, 0.0, 1.6518363581148305E9, 0.0, 2022-05-06 12:25:58.114
88.0, -230.27685997169465, -100.21435921266675, -132.12692553456873, -147.39319715369493, 0.1600000075995922, 0.11200000531971455, 1.008000047877431, 0.0, 0.0, 0.0, 0.0, 0.0, 1.6518363581278727E9, 0.0, 2022-05-06 12:25:58.127
88.0, -264.6540203643963, -194.25040369853377, -221.4731354760006, -196.66637906990945, 0.1600000075995922, 0.11200000531971455, 1.008000047877431, 0.0, 0.0, 0.0, 0.0, 0.0, 1.6518363581278727E9, 0.0, 2022-05-06 12:25:58.127
89.0, -289.0643473751843, -189.84480155073106, -205.5748207643628, -209.32968031987548, 0.1600000075995922, 0.11200000531971455, 1.008000047877431, 0.0, 0.0, 0.0, 0.0, 0.0, 1.6518363581439216E9, 0.0, 2022-05-06 12:25:58.143
89.0, -245.32995729334652, -103.18009987752885, -135.9565830891952, -174.66454763058573, 0.1600000075995922, 0.11200000531971455, 1.008000047877431, 0.0, 0.0, 0.0, 0.0, 0.0, 1.6518363581439216E9, 0.0, 2022-05-06 12:25:58.143
90.0, -233.89708312880248, -118.51742959581316, -160.1499959025532, -181.36270845122635, 0.1600000075995922, 0.11200000531971455, 1.0240000486373901, 0.0, 0.0, 0.0, 0.0, 0.0, 1.6518363581448622E9, 0.0, 2022-05-06 12:25:58.144
90.0, -276.82365482021123, -197.1637857640162, -218.52235441096127, -201.5394687121734, 0.1600000075995922, 0.11200000531971455, 1.0240000486373901, 0.0, 0.0, 0.0, 0.0, 0.0, 1.6518363581448622E9, 0.0, 2022-05-06 12:25:58.144
91.0, -274.101007652469, -173.43038064520806, -186.6434471886605, -177.94817979168147, 0.1600000075995922, 0.11200000531971455, 1.0240000486373901, 0.0, 0.0, 0.0, 0.0, 0.0, 1.6518363581578815E9, 0.0, 2022-05-06 12:25:58.157
91.0, -244.3388838050887, -100.66688710730523, -142.49392821174115, -173.90534793958068, 0.1600000075995922, 0.11200000531971455, 1.0240000486373901, 0.0, 0.0, 0.0, 0.0, 0.0, 1.6518363581578815E9, 0.0, 2022-05-06 12:25:58.157
92.0, -237.26673298887908, -124.3180144270882, -161.58237758558244, -177.27499779965729, 0.1600000075995922, 0.11200000531971455, 1.0240000486373901, 0.0, 0.0, 0.0, 0.0, 0.0, 1.651836358173885E9, 0.0, 2022-05-06 12:25:58.173
92.0, -267.67211962863803, -190.9817311372608, -215.49303544685245, -193.54356260690838, 0.1600000075995922, 0.11200000531971455, 1.0240000486373901, 0.0, 0.0, 0.0, 0.0, 0.0, 1.651836358173885E9, 0.0, 2022-05-06 12:25:58.173
93.0, -267.5449630301446, -172.42808745708317, -190.40204664412886, -186.44523249100894, 0.1600000075995922, 0.11200000531971455, 1.0240000486373901, 0.0, 0.0, 0.0, 0.0, 0.0, 1.6518363581748712E9, 0.0, 2022-05-06 12:25:58.174
93.0, -240.5541050499305, -93.75181208923459, -121.63650615885854, -146.37968426570296, 0.1600000075995922, 0.11200000531971455, 1.0240000486373901, 0.0, 0.0, 0.0, 0.0, 0.0, 1.6518363581748712E9, 0.0, 2022-05-06 12:25:58.174
94.0, -232.80503234174103, -112.56350886635482, -149.0761521337554, -162.79784507118165, 0.1600000075995922, 0.11200000531971455, 1.0240000486373901, 0.0, 0.0, 0.0, 0.0, 0.0, 1.651836358187882E9, 0.0, 2022-05-06 12:25:58.187
94.0, -270.48452439531684, -193.2368908105418, -217.26948792580515, -187.6793994763866, 0.1600000075995922, 0.11200000531971455, 1.0240000486373901, 0.0, 0.0, 0.0, 0.0, 0.0, 1.651836358187882E9, 0.0, 2022-05-06 12:25:58.187
95.0, -263.6105882767588, -171.2313194712624, -189.60170805361122, -185.1287877066061, 0.1600000075995922, 0.11200000531971455, 1.0240000486373901, 0.0, 0.0, 0.0, 0.0, 0.0, 1.6518363582198832E9, 0.0, 2022-05-06 12:25:58.219
95.0, -235.54263910930604, -89.66410143766552, -129.96900326013565, -166.9266946222633, 0.1600000075995922, 0.11200000531971455, 1.0240000486373901, 0.0, 0.0, 0.0, 0.0, 0.0, 1.6518363582198832E9, 0.0, 2022-05-06 12:25:58.219
96.0, -220.6653170855716, -95.92469396349043, -136.60358578152955, -161.5225391862914, 0.1600000075995922, 0.11200000531971455, 1.0240000486373901, 0.0, 0.0, 0.0, 0.0, 0.0, 1.6518363582208867E9, 0.0, 2022-05-06 12:25:58.220
96.0, -267.89277372602373, -197.63875305838883, -214.2139896620065, -192.82550181541592, 0.1600000075995922, 0.11200000531971455, 1.0240000486373901, 0.0, 0.0, 0.0, 0.0, 0.0, 1.6518363582208867E9, 0.0, 2022-05-06 12:25:58.220
97.0, -271.70373178087175, -183.1578604299575, -202.80729479715228, -197.4255787609145, 0.1600000075995922, 0.11200000531971455, 1.0240000486373901, 0.0, 0.0, 0.0, 0.0, 0.0, 1.651836358221852E9, 0.0, 2022-05-06 12:25:58.221
97.0, -248.25081915874034, -109.78102329932153, -143.76549419667572, -188.52461686637253, 0.1600000075995922, 0.11200000531971455, 1.0240000486373901, 0.0, 0.0, 0.0, 0.0, 0.0, 1.651836358221852E9, 0.0, 2022-05-06 12:25:58.221
98.0, -239.20774106588215, -116.78585591632873, -150.2243014201522, -169.3052709940821, 0.1600000075995922, 0.11200000531971455, 1.0240000486373901, 0.0, 0.0, 0.0, 0.0, 0.0, 1.6518363582228265E9, 0.0, 2022-05-06 12:25:58.222
98.0, -250.75655212905258, -187.60086157731712, -203.43559798970819, -175.14699472486973, 0.1600000075995922, 0.11200000531971455, 1.0240000486373901, 0.0, 0.0, 0.0, 0.0, 0.0, 1.6518363582228265E9, 0.0, 2022-05-06 12:25:58.222
99.0, -282.6840780507773, -177.59288929589093, -187.62704087700695, -196.9057326670736, 0.1600000075995922, 0.11200000531971455, 1.0240000486373901, 0.0, 0.0, 0.0, 0.0, 0.0, 1.6518363582329605E9, 0.0, 2022-05-06 12:25:58.232
99.0, -245.01206579711288, -100.52103100903332, -135.57511329371482, -175.28537102323025, 0.1600000075995922, 0.11200000531971455, 1.0240000486373901, 0.0, 0.0, 0.0, 0.0, 0.0, 1.6518363582329605E9, 0.0, 2022-05-06 12:25:58.232
100.0, -247.30836436990649, -118.95125799067318, -164.24892625398934, -179.47031907364726, 0.1600000075995922, 0.11200000531971455, 1.0240000486373901, 0.0, 0.0, 0.0, 0.0, 0.0, 1.6518363582488818E9, 0.0, 2022-05-06 12:25:58.248
100.0, -264.7475178632885, -186.66962648835033, -213.05088077578694, -196.48686387203634, 0.1600000075995922, 0.11200000531971455, 1.0240000486373901, 0.0, 0.0, 0.0, 0.0, 0.0, 1.6518363582488818E9, 0.0, 2022-05-06 12:25:58.248
0.0, -261.61161175044253, -181.71238909708336, -195.92587887868285, -191.15750643517822, 0.1600000075995922, 0.11200000531971455, 1.0240000486373901, 0.0, 0.0, 0.0, 0.0, 0.0, 1.651836358249838E9, 0.0, 2022-05-06 12:25:58.249
1.0, -244.49408965324983, -95.6572911166586, -132.90108482539654, -161.87782968208194, 0.1600000075995922, 0.11200000531971455, 1.0240000486373901, 0.0, 0.0, 0.0, 0.0, 0.0, 1.6518363582628825E9, 0.0, 2022-05-06 12:25:58.262
1.0, -241.62558638723567, -123.01091939257458, -160.2285338016227, -173.16484774835408, 0.1600000075995922, 0.11200000531971455, 1.0240000486373901, 0.0, 0.0, 0.0, 0.0, 0.0, 1.6518363582628825E9, 0.0, 2022-05-06 12:25:58.262
2.0, -272.146909925621, -191.38377038249746, -215.30230054911226, -195.5369292832911, 0.1600000075995922, 0.11200000531971455, 1.0240000486373901, 0.0, 0.0, 0.0, 0.0, 0.0, 1.6518363582789E9, 0.0, 2022-05-06 12:25:58.278
2.0, -279.72394723584875, -179.9546361179091, -195.33497468568385, -194.018529901281, 0.1600000075995922, 0.11200000531971455, 1.0240000486373901, 0.0, 0.0, 0.0, 0.0, 0.0, 1.6518363582789E9, 0.0, 2022-05-06 12:25:58.278
3.0, -231.9018465024419, -86.21404372854158, -118.69320489373058, -143.26808750256896, 0.1600000075995922, 0.11200000531971455, 1.0240000486373901, 0.0, 0.0, 0.0, 0.0, 0.0, 1.6518363582798867E9, 0.0, 2022-05-06 12:25:58.279
3.0, -225.95540557289496, -107.4791148765944, -143.08109250478446, -144.26290089078248, 0.1600000075995922, 0.11200000531971455, 1.0240000486373901, 0.0, 0.0, 0.0, 0.0, 0.0, 1.6518363582798867E9, 0.0, 2022-05-06 12:25:58.279
4.0, -259.5210076752119, -183.33550567785278, -209.41569801885635, -198.37551334965974, 0.1600000075995922, 0.11200000531971455, 1.0240000486373901, 0.0, 0.0, 0.0, 0.0, 0.0, 1.6518363582929068E9, 0.0, 2022-05-06 12:25:58.292
4.0, -270.2582604479976, -170.37675233138725, -189.6839858526364, -191.14254683535546, 0.1600000075995922, 0.11200000531971455, 1.0240000486373901, 0.0, 0.0, 0.0, 0.0, 0.0, 1.6518363582929068E9, 0.0, 2022-05-06 12:25:58.292
5.0, -232.24591729836538, -92.42601755494252, -128.12149268202484, -157.0421390393749, 0.1600000075995922, 0.11200000531971455, 1.0240000486373901, 0.0, 0.0, 0.0, 0.0, 0.0, 1.6518363583089757E9, 0.0, 2022-05-06 12:25:58.308
5.0, -219.84814894525334, -101.6972295450978, -143.46630220022053, -155.01137336343527, 0.1600000075995922, 0.11200000531971455, 1.0240000486373901, 0.0, 0.0, 0.0, 0.0, 0.0, 1.6518363583089757E9, 0.0, 2022-05-06 12:25:58.308
6.0, -269.86183105269447, -196.93752181669697, -222.1014386685565, -206.25174265634269, 0.1600000075995922, 0.11200000531971455, 1.0240000486373901, 0.0, 0.0, 0.0, 0.0, 0.0, 1.6518363583098507E9, 0.0, 2022-05-06 12:25:58.309
6.0, -266.2191684958525, -184.17324326792732, -197.25728326290846, -186.50881079025567, 0.1600000075995922, 0.11200000531971455, 1.0240000486373901, 0.0, 0.0, 0.0, 0.0, 0.0, 1.6518363583098507E9, 0.0, 2022-05-06 12:25:58.309
7.0, -250.22361638536677, -99.98435536539182, -139.57680624630302, -174.73560572974384, 0.1600000075995922, 0.11200000531971455, 1.0240000486373901, 0.0, 0.0, 0.0, 0.0, 0.0, 1.6518363583228707E9, 0.0, 2022-05-06 12:25:58.322
7.0, -234.5796148707159, -121.21576741384342, -164.16290855500847, -180.66708705946803, 0.1600000075995922, 0.11200000531971455, 1.0240000486373901, 0.0, 0.0, 0.0, 0.0, 0.0, 1.6518363583228707E9, 0.0, 2022-05-06 12:25:58.322
8.0, -267.6178910792805, -190.72554799029604, -218.802846907638, -202.99428979493678, 0.1600000075995922, 0.11200000531971455, 1.0240000486373901, 0.0, 0.0, 0.0, 0.0, 0.0, 1.6518363583389013E9, 0.0, 2022-05-06 12:25:58.338
8.0, -275.7708729826845, -176.52888775849715, -191.9466253258288, -190.050496048294, 0.1600000075995922, 0.11200000531971455, 1.0240000486373901, 0.0, 0.0, 0.0, 0.0, 0.0, 1.6518363583389013E9, 0.0, 2022-05-06 12:25:58.338
9.0, -236.81981494417414, -96.22949580987915, -129.63615216407925, -158.13792972639203, 0.1600000075995922, 0.11200000531971455, 1.0240000486373901, 0.0, 0.0, 0.0, 0.0, 0.0, 1.6518363583398414E9, 0.0, 2022-05-06 12:25:58.339
9.0, -218.72991885850206, -110.66924953879789, -146.23382816743106, -168.1571217076853, 0.1600000075995922, 0.11200000531971455, 1.0240000486373901, 0.0, 0.0, 0.0, 0.0, 0.0, 1.6518363583398414E9, 0.0, 2022-05-06 12:25:58.339
10.0, -249.42701769480482, -190.65448989113793, -221.4357364764437, -205.03253527078778, 0.1600000075995922, 0.11200000531971455, 1.008000047877431, 0.0, 0.0, 0.0, 0.0, 0.0, 1.651836358352873E9, 0.0, 2022-05-06 12:25:58.352
10.0, -299.88200799701735, -188.71722171409056, -207.5420081410557, -206.2854017559439, 0.1600000075995922, 0.11200000531971455, 1.008000047877431, 0.0, 0.0, 0.0, 0.0, 0.0, 1.651836358352873E9, 0.0, 2022-05-06 12:25:58.352
11.0, -241.7677025855519, -96.85031920252368, -130.07746035885066, -161.3018850889057, 0.1600000075995922, 0.11200000531971455, 1.008000047877431, 0.0, 0.0, 0.0, 0.0, 0.0, 1.651836358368876E9, 0.0, 2022-05-06 12:25:58.368
11.0, -230.43206581985578, -116.74658696679398, -146.11789126880467, -162.13962267898023, 0.1600000075995922, 0.11200000531971455, 1.008000047877431, 0.0, 0.0, 0.0, 0.0, 0.0, 1.651836358368876E9, 0.0, 2022-05-06 12:25:58.368
12.0, -261.7312885490246, -190.20944179641083, -205.60473996400833, -179.05893007852137, 0.1600000075995922, 0.11200000531971455, 1.008000047877431, 0.0, 0.0, 0.0, 0.0, 0.0, 1.6518363583698444E9, 0.0, 2022-05-06 12:25:58.369
12.0, -264.68580951401964, -175.24236217373982, -188.62559416517615, -186.65840678848326, 0.1600000075995922, 0.11200000531971455, 1.008000047877431, 0.0, 0.0, 0.0, 0.0, 0.0, 1.6518363583698444E9, 0.0, 2022-05-06 12:25:58.369
13.0, -224.13407429447398, -85.16313184099272, -121.73000365775079, -156.3726969473064, 0.1600000075995922, 0.11200000531971455, 1.008000047877431, 0.0, 0.0, 0.0, 0.0, 0.0, 1.6518363583828804E9, 0.0, 2022-05-06 12:25:58.382
13.0, -223.78252369863912, -111.39479013020173, -155.01137336343527, -169.76527868863195, 0.1600000075995922, 0.11200000531971455, 1.008000047877431, 0.0, 0.0, 0.0, 0.0, 0.0, 1.6518363583828804E9, 0.0, 2022-05-06 12:25:58.382
14.0, -269.951588651631, -189.09121170965955, -206.86134634912014, -183.0494033312425, 0.1600000075995922, 0.11200000531971455, 1.008000047877431, 0.0, 0.0, 0.0, 0.0, 0.0, 1.651836358398916E9, 0.0, 2022-05-06 12:25:58.398
14.0, -262.4044705410488, -178.42875693598762, -198.1660789521411, -189.84854145068675, 0.1600000075995922, 0.11200000531971455, 1.008000047877431, 0.0, 0.0, 0.0, 0.0, 0.0, 1.651836358398916E9, 0.0, 2022-05-06 12:25:58.398
15.0, -220.61856833612546, -93.74620223930106, -125.39884551428258, -166.61628292594105, 0.1600000075995922, 0.11200000531971455, 1.008000047877431, 0.0, 0.0, 0.0, 0.0, 0.0, 1.6518363583998384E9, 0.0, 2022-05-06 12:25:58.399
15.0, -246.74176952661946, -129.50338571565226, -169.55210439115763, -185.4616388026625, 0.1600000075995922, 0.11200000531971455, 1.008000047877431, 0.0, 0.0, 0.0, 0.0, 0.0, 1.6518363583998384E9, 0.0, 2022-05-06 12:25:58.399
16.0, -271.04737933864817, -190.27675999561325, -216.26345483772457, -194.93854529038072, 0.1600000075995922, 0.11200000531971455, 1.008000047877431, 0.0, 0.0, 0.0, 0.0, 0.0, 1.6518363584129164E9, 0.0, 2022-05-06 12:25:58.412
16.0, -269.0053939628415, -174.90203127777204, -190.6451401412487, -189.28755645733327, 0.1600000075995922, 0.11200000531971455, 1.008000047877431, 0.0, 0.0, 0.0, 0.0, 0.0, 1.6518363584129164E9, 0.0, 2022-05-06 12:25:58.412
17.0, -234.38514007302, -93.75368203921244, -125.77657540980726, -165.69252763688564, 0.1600000075995922, 0.11200000531971455, 1.008000047877431, 0.0, 0.0, 0.0, 0.0, 0.0, 1.6518363584288964E9, 0.0, 2022-05-06 12:25:58.428
17.0, -227.50746405450627, -108.23831456759945, -148.4815080408007, -167.03141182102263, 0.1600000075995922, 0.11200000531971455, 1.008000047877431, 0.0, 0.0, 0.0, 0.0, 0.0, 1.6518363584288964E9, 0.0, 2022-05-06 12:25:58.428
18.0, -259.6706036734395, -183.2158288792707, -208.2151901330799, -194.98716398980469, 0.1600000075995922, 0.11200000531971455, 1.008000047877431, 0.0, 0.0, 0.0, 0.0, 0.0, 1.6518363584298377E9, 0.0, 2022-05-06 12:25:58.429
18.0, -268.6725428667851, -181.93678309442475, -193.9811309017241, -190.76855683978647, 0.1600000075995922, 0.11200000531971455, 1.008000047877431, 0.0, 0.0, 0.0, 0.0, 0.0, 1.6518363584298377E9, 0.0, 2022-05-06 12:25:58.429
19.0, -230.33482842100784, -97.31406679702923, -125.17445151694119, -159.5553518095985, 0.1600000075995922, 0.11200000531971455, 1.008000047877431, 0.0, 0.0, 0.0, 0.0, 0.0, 1.651836358442871E9, 0.0, 2022-05-06 12:25:58.442
19.0, -232.04396270075813, -108.87783746002242, -141.97034221794456, -145.8149593723938, 0.1600000075995922, 0.11200000531971455, 1.008000047877431, 0.0, 0.0, 0.0, 0.0, 0.0, 1.651836358442871E9, 0.0, 2022-05-06 12:25:58.442
20.0, -262.19877604348585, -191.38003048254177, -217.63973802141845, -194.10080770030618, 0.1600000075995922, 0.11200000531971455, 1.008000047877431, 0.0, 0.0, 0.0, 0.0, 0.0, 1.6518363584588864E9, 0.0, 2022-05-06 12:25:58.458
20.0, -261.4059172528796, -176.3568523605354, -199.3890262376517, -207.48590964172035, 0.1600000075995922, 0.11200000531971455, 1.008000047877431, 0.0, 0.0, 0.0, 0.0, 0.0, 1.6518363584588864E9, 0.0, 2022-05-06 12:25:58.458
21.0, -242.9831700711511, -105.49696790007874, -140.0704730404541, -178.2660712879151, 0.1600000075995922, 0.11200000531971455, 1.008000047877431, 0.0, 0.0, 0.0, 0.0, 0.0, 1.6518363584598217E9, 0.0, 2022-05-06 12:25:58.459
21.0, -227.78421665122733, -117.03081936342642, -151.09943800978363, -167.14734871964902, 0.1600000075995922, 0.11200000531971455, 1.008000047877431, 0.0, 0.0, 0.0, 0.0, 0.0, 1.6518363584598217E9, 0.0, 2022-05-06 12:25:58.459
22.0, -258.4065174884163, -186.50694084027782, -206.73418975062668, -183.39721402712166, 0.1600000075995922, 0.11200000531971455, 1.008000047877431, 0.0, 0.0, 0.0, 0.0, 0.0, 1.6518363584729044E9, 0.0, 2022-05-06 12:25:58.472
22.0, -273.6765290074982, -175.83326636673883, -196.11661377642304, -197.6462328583002, 0.1600000075995922, 0.11200000531971455, 1.008000047877431, 0.0, 0.0, 0.0, 0.0, 0.0, 1.6518363584729044E9, 0.0, 2022-05-06 12:25:58.472
23.0, -242.68023817474023, -95.29452082095668, -125.55592131242156, -164.3050247533247, 0.1600000075995922, 0.11200000531971455, 1.008000047877431, 0.0, 0.0, 0.0, 0.0, 0.0, 1.651836358488881E9, 0.0, 2022-05-06 12:25:58.488
23.0, -225.06530938344076, -113.91548270033672, -144.5920120868832, -157.2253941372037, 0.1600000075995922, 0.11200000531971455, 1.008000047877431, 0.0, 0.0, 0.0, 0.0, 0.0, 1.651836358488881E9, 0.0, 2022-05-06 12:25:58.488
24.0, -262.0716194449924, -194.9291955404915, -222.5838857628405, -206.12458605784923, 0.1600000075995922, 0.11200000531971455, 1.008000047877431, 0.0, 0.0, 0.0, 0.0, 0.0, 1.6518363584898689E9, 0.0, 2022-05-06 12:25:58.489
24.0, -262.7709807367064, -169.12014594627544, -181.36270845122635, -180.09862226620317, 0.1600000075995922, 0.11200000531971455, 1.008000047877431, 0.0, 0.0, 0.0, 0.0, 0.0, 1.6518363584898689E9, 0.0, 2022-05-06 12:25:58.489
25.0, -232.63860679371282, -92.71024995157495, -123.11376664135605, -152.57669849228114, 0.1600000075995922, 0.11200000531971455, 1.008000047877431, 0.0, 0.0, 0.0, 0.0, 0.0, 1.6518363585029745E9, 0.0, 2022-05-06 12:25:58.502
25.0, -232.21599809871987, -115.91258927667513, -157.80881853029132, -166.33205052930862, 0.1600000075995922, 0.11200000531971455, 1.008000047877431, 0.0, 0.0, 0.0, 0.0, 0.0, 1.6518363585029745E9, 0.0, 2022-05-06 12:25:58.502
26.0, -257.5164212989621, -187.16142333252355, -210.50026900600642, -194.9796841898933, 0.1600000075995922, 0.11200000531971455, 1.008000047877431, 0.0, 0.0, 0.0, 0.0, 0.0, 1.6518363585189073E9, 0.0, 2022-05-06 12:25:58.518
26.0, -266.7390145896934, -171.8053941144608, -183.18403972964734, -185.34196200408041, 0.1600000075995922, 0.11200000531971455, 1.008000047877431, 0.0, 0.0, 0.0, 0.0, 0.0, 1.6518363585189073E9, 0.0, 2022-05-06 12:25:58.518
27.0, -224.88579418556765, -86.90592522034422, -113.2404307583347, -150.56837221607566, 0.1600000075995922, 0.11200000531971455, 1.008000047877431, 0.0, 0.0, 0.0, 0.0, 0.0, 1.6518363585198429E9, 0.0, 2022-05-06 12:25:58.519
27.0, -224.84091538609937, -104.16182361589745, -146.7761136610061, -154.79445916600525, 0.1600000075995922, 0.11200000531971455, 1.008000047877431, 0.0, 0.0, 0.0, 0.0, 0.0, 1.6518363585198429E9, 0.0, 2022-05-06 12:25:58.519
28.0, -261.6714501497336, -189.79057300137356, -217.09371262788773, -195.03204278927296, 0.1600000075995922, 0.11200000531971455, 1.008000047877431, 0.0, 0.0, 0.0, 0.0, 0.0, 1.6518363585328789E9, 0.0, 2022-05-06 12:25:58.532
28.0, -266.20420889602974, -181.83206589566544, -193.04241601284593, -197.37322016153485, 0.1600000075995922, 0.11200000531971455, 1.008000047877431, 0.0, 0.0, 0.0, 0.0, 0.0, 1.6518363585328789E9, 0.0, 2022-05-06 12:25:58.532
29.0, -236.12045365246013, -105.13793750433251, -137.0972525756806, -175.3452094225213, 0.1600000075995922, 0.11200000531971455, 1.008000047877431, 0.0, 0.0, 0.0, 0.0, 0.0, 1.6518363585488927E9, 0.0, 2022-05-06 12:25:58.548
29.0, -232.69844519300386, -124.95940726948902, -159.37957651168108, -173.71835294179618, 0.1600000075995922, 0.11200000531971455, 1.008000047877431, 0.0, 0.0, 0.0, 0.0, 0.0, 1.6518363585488927E9, 0.0, 2022-05-06 12:25:58.548
30.0, -289.8665559156798, -218.21755256457254, -234.83953791763633, -220.61669838614762, 0.1600000075995922, 0.11200000531971455, 1.0240000486373901, 0.0, 0.0, 0.0, 0.0, 0.0, 1.6518363585498445E9, 0.0, 2022-05-06 12:25:58.549
30.0, -280.09793723141775, -189.76065380172804, -203.86942638456821, -196.0904344767332, 0.1600000075995922, 0.11200000531971455, 1.0240000486373901, 0.0, 0.0, 0.0, 0.0, 0.0, 1.6518363585498445E9, 0.0, 2022-05-06 12:25:58.549
31.0, -235.70158485742286, -106.23372819134966, -135.24226219765842, -174.69446683023125, 0.1600000075995922, 0.11200000531971455, 1.0240000486373901, 0.0, 0.0, 0.0, 0.0, 0.0, 1.6518363585798917E9, 0.0, 2022-05-06 12:25:58.579
31.0, -223.9059403971769, -113.41059620631859, -151.76140030194074, -168.51615210343152, 0.1600000075995922, 0.11200000531971455, 1.0240000486373901, 0.0, 0.0, 0.0, 0.0, 0.0, 1.6518363585798917E9, 0.0, 2022-05-06 12:25:58.579
32.0, -253.00610195240006, -180.44456301210448, -200.22676382772624, -179.40674077440053, 0.1600000075995922, 0.11200000531971455, 1.0240000486373901, 0.0, 0.0, 0.0, 0.0, 0.0, 1.6518363585808723E9, 0.0, 2022-05-06 12:25:58.580
32.0, -250.7285028793849, -153.41256613237783, -168.8564829993993, -160.15747570246458, 0.1600000075995922, 0.11200000531971455, 1.0240000486373901, 0.0, 0.0, 0.0, 0.0, 0.0, 1.6518363585808723E9, 0.0, 2022-05-06 12:25:58.580
33.0, -224.00691769598052, -87.69504411099479, -123.24092323984951, -164.8884491464123, 0.1600000075995922, 0.11200000531971455, 1.0240000486373901, 0.0, 0.0, 0.0, 0.0, 0.0, 1.6518363585818346E9, 0.0, 2022-05-06 12:25:58.581
33.0, -215.9399534915574, -104.38247771328315, -139.1728970510885, -158.82233141828328, 0.1600000075995922, 0.11200000531971455, 1.0240000486373901, 0.0, 0.0, 0.0, 0.0, 0.0, 1.6518363585818346E9, 0.0, 2022-05-06 12:25:58.581
34.0, -262.78594033652917, -190.06358569813892, -212.48615588247776, -193.56226210668683, 0.1600000075995922, 0.11200000531971455, 1.0240000486373901, 0.0, 0.0, 0.0, 0.0, 0.0, 1.6518363585928924E9, 0.0, 2022-05-06 12:25:58.592
34.0, -264.5436933157034, -165.20073079271242, -186.28815669286996, -191.9765445254743, 0.1600000075995922, 0.11200000531971455, 1.0240000486373901, 0.0, 0.0, 0.0, 0.0, 0.0, 1.6518363585928924E9, 0.0, 2022-05-06 12:25:58.592
35.0, -228.18064604653046, -94.34084633225575, -121.50560966040939, -162.21816057804972, 0.1600000075995922, 0.11200000531971455, 1.0240000486373901, 0.0, 0.0, 0.0, 0.0, 0.0, 1.6518363586089308E9, 0.0, 2022-05-06 12:25:58.608
35.0, -227.05867605982348, -110.81884553702548, -147.60637145116925, -156.98978043999523, 0.1600000075995922, 0.11200000531971455, 1.0240000486373901, 0.0, 0.0, 0.0, 0.0, 0.0, 1.6518363586089308E9, 0.0, 2022-05-06 12:25:58.608
36.0, -232.99015738954768, -183.4813617761247, -205.23448986839503, -180.57358956057578, 0.1600000075995922, 0.11200000531971455, 1.0240000486373901, 0.0, 0.0, 0.0, 0.0, 0.0, 1.6518363586098294E9, 0.0, 2022-05-06 12:25:58.609
36.0, -279.1517425426282, -178.41005743620917, -194.44487849622965, -197.7621697569266, 0.1600000075995922, 0.11200000531971455, 1.0240000486373901, 0.0, 0.0, 0.0, 0.0, 0.0, 1.6518363586098294E9, 0.0, 2022-05-06 12:25:58.609
37.0, -233.6483797817491, -92.34747965587303, -128.6936973752454, -159.34591741207987, 0.1600000075995922, 0.11200000531971455, 1.0240000486373901, 0.0, 0.0, 0.0, 0.0, 0.0, 1.6518363586228776E9, 0.0, 2022-05-06 12:25:58.622
37.0, -225.69361257599667, -111.8510579247959, -137.98360886517912, -156.94116174057126, 0.1600000075995922, 0.11200000531971455, 1.0240000486373901, 0.0, 0.0, 0.0, 0.0, 0.0, 1.6518363586228776E9, 0.0, 2022-05-06 12:25:58.622
38.0, -257.7258556964807, -187.74858762556687, -208.40966493077576, -188.5694956658408, 0.1600000075995922, 0.11200000531971455, 1.0240000486373901, 0.0, 0.0, 0.0, 0.0, 0.0, 1.6518363586388817E9, 0.0, 2022-05-06 12:25:58.638
38.0, -249.36717929551378, -166.90238527255133, -175.12829522509128, -188.1655864706263, 0.1600000075995922, 0.11200000531971455, 1.0240000486373901, 0.0, 0.0, 0.0, 0.0, 0.0, 1.6518363586388817E9, 0.0, 2022-05-06 12:25:58.638
39.0, -239.60230051120743, -91.16941116983071, -126.98082319553941, -165.12406284362078, 0.1600000075995922, 0.11200000531971455, 1.0240000486373901, 0.0, 0.0, 0.0, 0.0, 0.0, 1.6518363586398327E9, 0.0, 2022-05-06 12:25:58.639
39.0, -230.63776031741872, -118.54921874543652, -154.79445916600525, -174.49999203253537, 0.1600000075995922, 0.11200000531971455, 1.0240000486373901, 0.0, 0.0, 0.0, 0.0, 0.0, 1.6518363586398327E9, 0.0, 2022-05-06 12:25:58.639
40.0, -252.40771795948967, -181.8507653954439, -208.96691002417356, -183.90958032105118, 0.1600000075995922, 0.11200000531971455, 1.0240000486373901, 0.0, 0.0, 0.0, 0.0, 0.0, 1.6518363586529055E9, 0.0, 2022-05-06 12:25:58.652
40.0, -263.777013824787, -173.48086929460987, -191.62873382959515, -195.52944948337972, 0.1600000075995922, 0.11200000531971455, 1.0240000486373901, 0.0, 0.0, 0.0, 0.0, 0.0, 1.6518363586529055E9, 0.0, 2022-05-06 12:25:58.652
41.0, -241.04590189410374, -103.06229302892461, -134.20630990993232, -172.07279696129262, 0.1600000075995922, 0.11200000531971455, 1.0240000486373901, 0.0, 0.0, 0.0, 0.0, 0.0, 1.6518363586688752E9, 0.0, 2022-05-06 12:25:58.668
41.0, -225.99654447240755, -109.53231995226815, -143.701915897429, -159.2972987126559, 0.1600000075995922, 0.11200000531971455, 1.0240000486373901, 0.0, 0.0, 0.0, 0.0, 0.0, 1.6518363586688752E9, 0.0, 2022-05-06 12:25:58.668
42.0, -250.66492458013818, -177.45638294750825, -199.18333174008876, -170.65163497813046, 0.1600000075995922, 0.11200000531971455, 1.0240000486373901, 0.0, 0.0, 0.0, 0.0, 0.0, 1.6518363586848836E9, 0.0, 2022-05-06 12:25:58.684
42.0, -257.4678025995381, -165.82903398526832, -183.18029982969165, -182.39492083899677, 0.1600000075995922, 0.11200000531971455, 1.0240000486373901, 0.0, 0.0, 0.0, 0.0, 0.0, 1.6518363586848836E9, 0.0, 2022-05-06 12:25:58.684
43.0, -222.7877103104256, -88.0578144066967, -113.92857235018164, -149.71567502617836, 0.1600000075995922, 0.11200000531971455, 1.0240000486373901, 0.0, 0.0, 0.0, 0.0, 0.0, 1.6518363586858392E9, 0.0, 2022-05-06 12:25:58.685
43.0, -216.4934586849995, -104.24036151496693, -132.01098863594234, -141.41683702450246, 0.1600000075995922, 0.11200000531971455, 1.0240000486373901, 0.0, 0.0, 0.0, 0.0, 0.0, 1.6518363586858392E9, 0.0, 2022-05-06 12:25:58.685
44.0, -246.53607502905652, -176.52140795858577, -206.1769446572289, -188.85746796242893, 0.1600000075995922, 0.11200000531971455, 1.0240000486373901, 0.0, 0.0, 0.0, 0.0, 0.0, 1.6518363586868484E9, 0.0, 2022-05-06 12:25:58.686
44.0, -264.524993815925, -170.77692162664607, -191.69979192875326, -196.93191196676344, 0.1600000075995922, 0.11200000531971455, 1.0240000486373901, 0.0, 0.0, 0.0, 0.0, 0.0, 1.6518363586868484E9, 0.0, 2022-05-06 12:25:58.686
45.0, -227.088595259469, -93.38343194359913, -122.14887245278805, -156.73172734305263, 0.1600000075995922, 0.11200000531971455, 1.0240000486373901, 0.0, 0.0, 0.0, 0.0, 0.0, 1.651836358697886E9, 0.0, 2022-05-06 12:25:58.697
45.0, -220.69710623519495, -105.45582900056615, -141.85066541936249, -155.3292648596689, 0.1600000075995922, 0.11200000531971455, 1.0240000486373901, 0.0, 0.0, 0.0, 0.0, 0.0, 1.651836358697886E9, 0.0, 2022-05-06 12:25:58.697
46.0, -264.2632008190267, -189.42032290576026, -215.19384345039725, -204.15365878120065, 0.1600000075995922, 0.11200000531971455, 1.0240000486373901, 0.0, 0.0, 0.0, 0.0, 0.0, 1.6518363587128885E9, 0.0, 2022-05-06 12:25:58.712
46.0, -255.9905421170406, -166.9098650724627, -179.9714656677097, -183.62908782437444, 0.1600000075995922, 0.11200000531971455, 1.0240000486373901, 0.0, 0.0, 0.0, 0.0, 0.0, 1.6518363587128885E9, 0.0, 2022-05-06 12:25:58.712
47.0, -222.4623390142806, -96.87275860225782, -126.47593670152128, -163.1157365674153, 0.1600000075995922, 0.11200000531971455, 1.0240000486373901, 0.0, 0.0, 0.0, 0.0, 0.0, 1.6518363587288926E9, 0.0, 2022-05-06 12:25:58.728
47.0, -222.40624051494524, -113.960361499805, -142.9950748058036, -152.29994589556009, 0.1600000075995922, 0.11200000531971455, 1.0240000486373901, 0.0, 0.0, 0.0, 0.0, 0.0, 1.6518363587288926E9, 0.0, 2022-05-06 12:25:58.728
48.0, -239.88279300788417, -170.85171962575987, -194.06714860070497, -169.5221851915121, 0.1600000075995922, 0.11200000531971455, 1.0240000486373901, 0.0, 0.0, 0.0, 0.0, 0.0, 1.6518363587298353E9, 0.0, 2022-05-06 12:25:58.729
48.0, -277.61838356079534, -178.38761803647503, -192.73574421647936, -204.1386991813779, 0.1600000075995922, 0.11200000531971455, 1.0240000486373901, 0.0, 0.0, 0.0, 0.0, 0.0, 1.6518363587298353E9, 0.0, 2022-05-06 12:25:58.729
49.0, -235.80630205618218, -94.99906872445717, -127.13789899367839, -162.94370116945356, 0.1600000075995922, 0.11200000531971455, 1.0240000486373901, 0.0, 0.0, 0.0, 0.0, 0.0, 1.6518363587428842E9, 0.0, 2022-05-06 12:25:58.742
49.0, -223.05698310723528, -117.98075395217165, -157.28149263653904, -169.4548669923097, 0.1600000075995922, 0.11200000531971455, 1.0240000486373901, 0.0, 0.0, 0.0, 0.0, 0.0, 1.6518363587428842E9, 0.0, 2022-05-06 12:25:58.742
50.0, -256.08777951588854, -189.49512090487406, -207.68038443941623, -188.40120016783476, 0.1600000075995922, 0.11200000531971455, 1.0240000486373901, 0.0, 0.0, 0.0, 0.0, 0.0, 1.6518363587588742E9, 0.0, 2022-05-06 12:25:58.758
50.0, -270.97632123949006, -174.3934048837982, -187.02865688409656, -184.7510578110814, 0.1600000075995922, 0.11200000531971455, 1.0240000486373901, 0.0, 0.0, 0.0, 0.0, 0.0, 1.6518363587588742E9, 0.0, 2022-05-06 12:25:58.758
51.0, -233.22203118680045, -97.29910719720647, -123.01652924250811, -151.8511579008773, 0.1600000075995922, 0.11200000531971455, 1.0240000486373901, 0.0, 0.0, 0.0, 0.0, 0.0, 1.6518363587598314E9, 0.0, 2022-05-06 12:25:58.759
51.0, -224.72497848747298, -116.27909947233275, -146.15529026836157, -152.50190049316734, 0.1600000075995922, 0.11200000531971455, 1.0240000486373901, 0.0, 0.0, 0.0, 0.0, 0.0, 1.6518363587598314E9, 0.0, 2022-05-06 12:25:58.759
52.0, -261.01696765748784, -186.08059224532917, -216.72720243223011, -193.80909550376236, 0.1600000075995922, 0.11200000531971455, 1.0240000486373901, 0.0, 0.0, 0.0, 0.0, 0.0, 1.6518363587729182E9, 0.0, 2022-05-06 12:25:58.772
52.0, -264.8204459124245, -170.93399742478505, -183.95445912051946, -188.39746026787907, 0.1600000075995922, 0.11200000531971455, 1.0240000486373901, 0.0, 0.0, 0.0, 0.0, 0.0, 1.6518363587729182E9, 0.0, 2022-05-06 12:25:58.772
53.0, -224.89327398547903, -94.14263163460419, -113.70417835284024, -142.5500267110765, 0.1600000075995922, 0.11200000531971455, 1.0240000486373901, 0.0, 0.0, 0.0, 0.0, 0.0, 1.6518363587889016E9, 0.0, 2022-05-06 12:25:58.788
53.0, -212.39452833356336, -107.24724107934162, -149.09859153348953, -157.91727562900633, 0.1600000075995922, 0.11200000531971455, 1.0240000486373901, 0.0, 0.0, 0.0, 0.0, 0.0, 1.6518363587889016E9, 0.0, 2022-05-06 12:25:58.788
54.0, -264.56613271543756, -195.64725633198395, -226.81745251268148, -218.23064221441746, 0.1600000075995922, 0.11200000531971455, 1.0240000486373901, 0.0, 0.0, 0.0, 0.0, 0.0, 1.6518363587898314E9, 0.0, 2022-05-06 12:25:58.789
54.0, -283.84157708706334, -178.14826443931088, -192.20841832272708, -201.22905701585114, 0.1600000075995922, 0.11200000531971455, 1.0240000486373901, 0.0, 0.0, 0.0, 0.0, 0.0, 1.6518363587898314E9, 0.0, 2022-05-06 12:25:58.789
55.0, -237.63137323455885, -90.46257007820532, -121.25129646342248, -156.23806054890156, 0.1600000075995922, 0.11200000531971455, 1.0240000486373901, 0.0, 0.0, 0.0, 0.0, 0.0, 1.6518363588028796E9, 0.0, 2022-05-06 12:25:58.802
55.0, -236.67395884590223, -123.82995748287067, -159.64884930849075, -165.47935333941132, 0.1600000075995922, 0.11200000531971455, 1.0240000486373901, 0.0, 0.0, 0.0, 0.0, 0.0, 1.6518363588028796E9, 0.0, 2022-05-06 12:25:58.802
56.0, -263.6348976264708, -194.31585194775835, -224.0349669456482, -204.71464377455413, 0.1600000075995922, 0.11200000531971455, 1.0240000486373901, 0.0, 0.0, 0.0, 0.0, 0.0, 1.651836358834924E9, 0.0, 2022-05-06 12:25:58.834
56.0, -270.60607114387676, -167.57182736461982, -186.96133868489414, -186.8341820864007, 0.1600000075995922, 0.11200000531971455, 1.0240000486373901, 0.0, 0.0, 0.0, 0.0, 0.0, 1.651836358834924E9, 0.0, 2022-05-06 12:25:58.834
57.0, -244.98027664748952, -102.97253542998806, -137.80035376735032, -174.84780272841454, 0.1600000075995922, 0.11200000531971455, 1.0240000486373901, 0.0, 0.0, 0.0, 0.0, 0.0, 1.6518363588358653E9, 0.0, 2022-05-06 12:25:58.835
57.0, -235.81752175604925, -122.50977279851213, -157.36003053560853, -174.91886082757264, 0.1600000075995922, 0.11200000531971455, 1.0240000486373901, 0.0, 0.0, 0.0, 0.0, 0.0, 1.6518363588358653E9, 0.0, 2022-05-06 12:25:58.835
58.0, -274.8994762930088, -187.11280463309959, -214.5057018585503, -194.9422851903364, 0.1600000075995922, 0.11200000531971455, 1.0240000486373901, 0.0, 0.0, 0.0, 0.0, 0.0, 1.6518363588368409E9, 0.0, 2022-05-06 12:25:58.836
58.0, -262.8532585357316, -163.22606361610815, -177.62654839549214, -170.150488384068, 0.1600000075995922, 0.11200000531971455, 1.0240000486373901, 0.0, 0.0, 0.0, 0.0, 0.0, 1.6518363588368409E9, 0.0, 2022-05-06 12:25:58.836
59.0, -225.61507467692718, -86.37859932659194, -119.78899558074772, -139.842339143157, 0.1600000075995922, 0.11200000531971455, 1.0240000486373901, 0.0, 0.0, 0.0, 0.0, 0.0, 1.65183635883783E9, 0.0, 2022-05-06 12:25:58.837
59.0, -222.2716041165404, -103.42506332462654, -144.1469639921561, -163.32891086488962, 0.1600000075995922, 0.11200000531971455, 1.0240000486373901, 0.0, 0.0, 0.0, 0.0, 0.0, 1.65183635883783E9, 0.0, 2022-05-06 12:25:58.837
60.0, -266.0733123975806, -191.86621747678146, -214.9544898532331, -199.1309731407091, 0.1600000075995922, 0.11200000531971455, 1.008000047877431, 0.0, 0.0, 0.0, 0.0, 0.0, 1.6518363588478725E9, 0.0, 2022-05-06 12:25:58.847
60.0, -277.34537086403, -177.12353185145184, -186.3816541917622, -182.21914554107934, 0.1600000075995922, 0.11200000531971455, 1.008000047877431, 0.0, 0.0, 0.0, 0.0, 0.0, 1.6518363588478725E9, 0.0, 2022-05-06 12:25:58.847
61.0, -232.92283919034526, -92.80748735042289, -126.84618679713458, -155.65089625585824, 0.1600000075995922, 0.11200000531971455, 1.008000047877431, 0.0, 0.0, 0.0, 0.0, 0.0, 1.6518363588628976E9, 0.0, 2022-05-06 12:25:58.862
61.0, -222.7203921112232, -111.7762599256821, -156.52603284548968, -166.7060405248776, 0.1600000075995922, 0.11200000531971455, 1.008000047877431, 0.0, 0.0, 0.0, 0.0, 0.0, 1.6518363588628976E9, 0.0, 2022-05-06 12:25:58.862
62.0, -265.56842590356246, -184.28544026659802, -210.058960811235, -186.3517349921167, 0.1600000075995922, 0.11200000531971455, 1.008000047877431, 0.0, 0.0, 0.0, 0.0, 0.0, 1.651836358878888E9, 0.0, 2022-05-06 12:25:58.878
62.0, -280.5953439255245, -174.68885698029771, -188.3825006680563, -195.70148488134146, 0.1600000075995922, 0.11200000531971455, 1.008000047877431, 0.0, 0.0, 0.0, 0.0, 0.0, 1.651836358878888E9, 0.0, 2022-05-06 12:25:58.878
63.0, -240.80654829693958, -98.77262777974829, -126.15804520528764, -161.6683952845633, 0.1600000075995922, 0.11200000531971455, 1.008000047877431, 0.0, 0.0, 0.0, 0.0, 0.0, 1.6518363588798316E9, 0.0, 2022-05-06 12:25:58.879
63.0, -231.11646751174703, -119.09150423901156, -154.83185816556215, -167.77565191220492, 0.1600000075995922, 0.11200000531971455, 1.008000047877431, 0.0, 0.0, 0.0, 0.0, 0.0, 1.6518363588798316E9, 0.0, 2022-05-06 12:25:58.879
64.0, -269.0016540628858, -195.02643293933943, -221.2861404782161, -199.81163493264467, 0.1600000075995922, 0.11200000531971455, 1.008000047877431, 0.0, 0.0, 0.0, 0.0, 0.0, 1.6518363588928807E9, 0.0, 2022-05-06 12:25:58.892
64.0, -259.326532877516, -162.986710018944, -177.81354339327663, -181.79653684608638, 0.1600000075995922, 0.11200000531971455, 1.008000047877431, 0.0, 0.0, 0.0, 0.0, 0.0, 1.6518363588928807E9, 0.0, 2022-05-06 12:25:58.892
65.0, -233.69325858121738, -98.24156198604032, -127.87091938499361, -167.81305091176182, 0.1600000075995922, 0.11200000531971455, 1.008000047877431, 0.0, 0.0, 0.0, 0.0, 0.0, 1.6518363589088795E9, 0.0, 2022-05-06 12:25:58.908
