%OpenBCI Raw EEG Data
%Number of channels = 4
%Sample Rate = 200 Hz
%Board = OpenBCI_GUI$BoardGanglionBLE
Sample Index, EXG Channel 0, EXG Channel 1, EXG Channel 2, EXG Channel 3, Accel Channel 0, Accel Channel 1, Accel Channel 2, Other, Other, Other, Other, Other, Timestamp, Other, Timestamp (Formatted)
40.0, -61.16980367526412, -87.8539898591116, -64.13180444017053, -49.677091111429036, 0.0, 0.0, 1.008000047877431, 0.0, 0.0, 0.0, 0.0, 0.0, 1.6518364079587543E9, 0.0, 2022-05-06 12:26:47.958
40.0, -275.2547667887993, 124.29183512739837, 157.56572503317147, 153.5864714803174, 0.0, 0.0, 1.008000047877431, 0.0, 0.0, 0.0, 0.0, 0.0, 1.6518364079587543E9, 0.0, 2022-05-06 12:26:47.958
0.0, -296.2973138894886, -202.6838780986145, -212.44314703298733, -210.17676765983924, 0.0, 0.0, 1.008000047877431, 0.0, 0.0, 0.0, 0.0, 0.0, 1.6518364080047443E9, 0.0, 2022-05-06 12:26:48.004
1.0, -224.45757564064115, -82.98464011680335, -121.99740650458261, -157.32824138598517, 0.0, 0.11200000531971455, 1.008000047877431, 0.0, 0.0, 0.0, 0.0, 0.0, 1.6518364080057268E9, 0.0, 2022-05-06 12:26:48.005
1.0, -216.1400381391868, -99.234505424276, -143.61402824847028, -139.7469716942869, 0.0, 0.11200000531971455, 1.008000047877431, 0.0, 0.0, 0.0, 0.0, 0.0, 1.6518364080057268E9, 0.0, 2022-05-06 12:26:48.005
2.0, -286.53243510518223, -220.04075379297137, -240.5447553000413, -219.1974063529633, 0.1600000075995922, 0.11200000531971455, 1.008000047877431, 0.0, 0.0, 0.0, 0.0, 0.0, 1.6518364080197663E9, 0.0, 2022-05-06 12:26:48.019
2.0, -293.0623004278168, -199.55732173565775, -203.27291234163567, -211.29125784663484, 0.1600000075995922, 0.11200000531971455, 1.008000047877431, 0.0, 0.0, 0.0, 0.0, 0.0, 1.6518364080197663E9, 0.0, 2022-05-06 12:26:48.019
3.0, -228.0703189978376, -85.09394369181246, -125.58771046204492, -149.91575967380777, 0.1600000075995922, 0.11200000531971455, 1.008000047877431, 0.0, 0.0, 0.0, 0.0, 0.0, 1.651836408021711E9, 0.0, 2022-05-06 12:26:48.021
3.0, -227.71128860209137, -113.80889555159956, -163.25972271570936, -178.26046143798158, 0.1600000075995922, 0.11200000531971455, 1.008000047877431, 0.0, 0.0, 0.0, 0.0, 0.0, 1.651836408021711E9, 0.0, 2022-05-06 12:26:48.021
4.0, -283.7349899383262, -221.15898387972265, -231.3558211089112, -214.96383960312232, 0.1600000075995922, 0.11200000531971455, 1.008000047877431, 0.0, 0.0, 0.0, 0.0, 0.0, 1.6518364080338159E9, 0.0, 2022-05-06 12:26:48.033
4.0, -298.30938006564975, -208.95943022426218, -215.17701390059665, -225.83572877431288, 0.1600000075995922, 0.11200000531971455, 1.008000047877431, 0.0, 0.0, 0.0, 0.0, 0.0, 1.6518364080338159E9, 0.0, 2022-05-06 12:26:48.033
5.0, -242.64470912516117, -99.10360892582685, -137.73490551812574, -175.5826930697076, 0.1600000075995922, 0.11200000531971455, 1.008000047877431, 0.0, 0.0, 0.0, 0.0, 0.0, 1.6518364080658236E9, 0.0, 2022-05-06 12:26:48.065
5.0, -214.509441758506, -111.54999597836286, -154.69909171713516, -156.7934356923215, 0.1600000075995922, 0.11200000531971455, 1.008000047877431, 0.0, 0.0, 0.0, 0.0, 0.0, 1.6518364080658236E9, 0.0, 2022-05-06 12:26:48.065
6.0, -284.41939163021743, -224.64083073846996, -241.2067175921984, -214.1971601122059, 0.1600000075995922, 0.11200000531971455, 1.008000047877431, 0.0, 0.0, 0.0, 0.0, 0.0, 1.6518364080667489E9, 0.0, 2022-05-06 12:26:48.066
6.0, -296.64138468541205, -200.80644832085818, -208.83414357574657, -216.897367880214, 0.1600000075995922, 0.11200000531971455, 1.008000047877431, 0.0, 0.0, 0.0, 0.0, 0.0, 1.6518364080667489E9, 0.0, 2022-05-06 12:26:48.066
7.0, -242.188441330567, -83.8560368064791, -122.86132339434698, -160.4248785492964, 0.1600000075995922, 0.11200000531971455, 1.008000047877431, 0.0, 0.0, 0.0, 0.0, 0.0, 1.6518364080677304E9, 0.0, 2022-05-06 12:26:48.067
7.0, -217.97258911747485, -112.5709886662662, -148.69655228825286, -164.42283160192892, 0.1600000075995922, 0.11200000531971455, 1.008000047877431, 0.0, 0.0, 0.0, 0.0, 0.0, 1.6518364080677304E9, 0.0, 2022-05-06 12:26:48.067
8.0, -270.84729469101876, -215.24246214982122, -229.34375493275002, -201.88166955811903, 0.1600000075995922, 0.11200000531971455, 1.008000047877431, 0.0, 0.0, 0.0, 0.0, 0.0, 1.6518364080687203E9, 0.0, 2022-05-06 12:26:48.068
8.0, -291.9515501409769, -184.99789120815694, -195.441561834421, -197.58452450903133, 0.1600000075995922, 0.11200000531971455, 1.008000047877431, 0.0, 0.0, 0.0, 0.0, 0.0, 1.6518364080687203E9, 0.0, 2022-05-06 12:26:48.068
9.0, -242.9252016218379, -81.75047313142568, -123.73272008402273, -147.60076160123572, 0.1600000075995922, 0.11200000531971455, 1.008000047877431, 0.0, 0.0, 0.0, 0.0, 0.0, 1.6518364080948E9, 0.0, 2022-05-06 12:26:48.094
9.0, -247.12884917203337, -136.4689493831247, -182.16491699172184, -187.64387042680755, 0.1600000075995922, 0.11200000531971455, 1.008000047877431, 0.0, 0.0, 0.0, 0.0, 0.0, 1.6518364080948E9, 0.0, 2022-05-06 12:26:48.094
10.0, -288.66791797988117, -211.52874149382114, -229.63546712929383, -211.94200043892488, 0.1600000075995922, 0.11200000531971455, 1.0240000486373901, 0.0, 0.0, 0.0, 0.0, 0.0, 1.6518364080957267E9, 0.0, 2022-05-06 12:26:48.095
10.0, -279.2807690910995, -175.3826084220782, -185.94595584692433, -179.16925712721422, 0.1600000075995922, 0.11200000531971455, 1.0240000486373901, 0.0, 0.0, 0.0, 0.0, 0.0, 1.6518364080957267E9, 0.0, 2022-05-06 12:26:48.095
11.0, -241.34322394058108, -95.4160675695166, -134.00248536234722, -168.88453224906698, 0.1600000075995922, 0.04800000227987766, 1.0240000486373901, 0.0, 0.0, 0.0, 0.0, 0.0, 1.6518364081098757E9, 0.0, 2022-05-06 12:26:48.109
11.0, -247.229826470837, -140.53422063495964, -179.25901472615078, -190.0374063984491, 0.1600000075995922, 0.04800000227987766, 1.0240000486373901, 0.0, 0.0, 0.0, 0.0, 0.0, 1.6518364081098757E9, 0.0, 2022-05-06 12:26:48.109
12.0, -284.3670330308378, -204.5762674761936, -229.8673409265466, -208.58357027871534, 0.0800000037997961, 0.04800000227987766, 1.0240000486373901, 0.0, 0.0, 0.0, 0.0, 0.0, 1.6518364081107247E9, 0.0, 2022-05-06 12:26:48.110
12.0, -280.2007844801992, -170.2664252826944, -186.52564034005627, -197.72290080739185, 0.0800000037997961, 0.04800000227987766, 1.0240000486373901, 0.0, 0.0, 0.0, 0.0, 0.0, 1.6518364081107247E9, 0.0, 2022-05-06 12:26:48.110
13.0, -237.2929122885689, -96.35852235835046, -126.96025374578312, -158.0201228777878, 0.0800000037997961, 0.04800000227987766, 1.0240000486373901, 0.0, 0.0, 0.0, 0.0, 0.0, 1.651836408123784E9, 0.0, 2022-05-06 12:26:48.123
13.0, -239.17034206632525, -139.39355114847422, -174.79731407901272, -166.21424368070439, 0.0800000037997961, 0.04800000227987766, 1.0240000486373901, 0.0, 0.0, 0.0, 0.0, 0.0, 1.651836408123784E9, 0.0, 2022-05-06 12:26:48.123
14.0, -255.46134627331048, -187.0174371842295, -212.14395503653213, -195.6996149313636, 0.0800000037997961, 0.04800000227987766, 1.0240000486373901, 0.0, 0.0, 0.0, 0.0, 0.0, 1.651836408139819E9, 0.0, 2022-05-06 12:26:48.139
14.0, -274.84898764360696, -165.5578912384808, -186.79117323691025, -196.42889542272314, 0.0800000037997961, 0.04800000227987766, 1.0240000486373901, 0.0, 0.0, 0.0, 0.0, 0.0, 1.651836408139819E9, 0.0, 2022-05-06 12:26:48.139
15.0, -248.99131934996694, -97.25609834771603, -133.58735646726564, -165.81407438544556, 0.0800000037997961, 0.04800000227987766, 1.0240000486373901, 0.0, 0.0, 0.0, 0.0, 0.0, 1.6518364081407523E9, 0.0, 2022-05-06 12:26:48.140
15.0, -246.32103078160435, -137.92377046588808, -171.85775271384045, -173.5855864933692, 0.0800000037997961, 0.04800000227987766, 1.0240000486373901, 0.0, 0.0, 0.0, 0.0, 0.0, 1.6518364081407523E9, 0.0, 2022-05-06 12:26:48.140
16.0, -275.62314693443477, -199.54610203579068, -212.47680613258854, -179.49088852340356, 0.0800000037997961, 0.04800000227987766, 1.0240000486373901, 0.0, 0.0, 0.0, 0.0, 0.0, 1.6518364081537764E9, 0.0, 2022-05-06 12:26:48.153
16.0, -269.6467868052423, -167.13986891973764, -189.63723710319027, -193.53795275697485, 0.0800000037997961, 0.04800000227987766, 1.0240000486373901, 0.0, 0.0, 0.0, 0.0, 0.0, 1.6518364081537764E9, 0.0, 2022-05-06 12:26:48.153
17.0, -226.3686645179987, -100.87632150482386, -139.33558269916102, -178.27168113784865, 0.0800000037997961, 0.04800000227987766, 1.0240000486373901, 0.0, 0.0, 0.0, 0.0, 0.0, 1.6518364081698418E9, 0.0, 2022-05-06 12:26:48.169
17.0, -255.59598267171532, -143.48126180004328, -179.89105781866238, -196.78418591851369, 0.0800000037997961, 0.04800000227987766, 1.0240000486373901, 0.0, 0.0, 0.0, 0.0, 0.0, 1.6518364081698418E9, 0.0, 2022-05-06 12:26:48.169
18.0, -288.6230391804129, -204.53512857668102, -229.7962828273885, -204.1517888312228, 0.0800000037997961, 0.04800000227987766, 1.0240000486373901, 0.0, 0.0, 0.0, 0.0, 0.0, 1.6518364081707454E9, 0.0, 2022-05-06 12:26:48.170
18.0, -279.52760248817503, -158.24638682510704, -177.01133485278115, -190.32163879508153, 0.0800000037997961, 0.04800000227987766, 1.0240000486373901, 0.0, 0.0, 0.0, 0.0, 0.0, 1.6518364081707454E9, 0.0, 2022-05-06 12:26:48.170
19.0, -243.3365906169638, -100.2704577120021, -131.24991899495944, -156.52790279546753, 0.0800000037997961, 0.04800000227987766, 1.0240000486373901, 0.0, 0.0, 0.0, 0.0, 0.0, 1.6518364081837652E9, 0.0, 2022-05-06 12:26:48.183
19.0, -243.38520931638777, -135.51901479437947, -172.98346260050312, -172.44491700688377, 0.0800000037997961, 0.04800000227987766, 1.0240000486373901, 0.0, 0.0, 0.0, 0.0, 0.0, 1.6518364081837652E9, 0.0, 2022-05-06 12:26:48.183
20.0, -286.19584410917014, -208.37226593121886, -234.1345667759888, -221.65452062385157, 0.0800000037997961, 0.04800000227987766, 0.5120000243186951, 0.0, 0.0, 0.0, 0.0, 0.0, 1.6518364081997695E9, 0.0, 2022-05-06 12:26:48.199
20.0, -281.4723504651338, -168.51241220347583, -179.9209770183079, -193.20136176096275, 0.0800000037997961, 0.04800000227987766, 0.5120000243186951, 0.0, 0.0, 0.0, 0.0, 0.0, 1.6518364081997695E9, 0.0, 2022-05-06 12:26:48.199
21.0, -240.17263525445014, -96.30990365892649, -127.12480934383348, -163.6150132114999, 0.0800000037997961, 0.0800000037997961, 0.5120000243186951, 0.0, 0.0, 0.0, 0.0, 0.0, 1.6518364082007132E9, 0.0, 2022-05-06 12:26:48.200
21.0, -239.02448596805334, -143.6944360975176, -175.38821827201173, -176.3269331608899, 0.0800000037997961, 0.0800000037997961, 0.5120000243186951, 0.0, 0.0, 0.0, 0.0, 0.0, 1.6518364082007132E9, 0.0, 2022-05-06 12:26:48.200
22.0, -275.6418464342132, -200.56709472369403, -224.16773339407519, -201.65727556077763, 0.11200000531971455, 0.0800000037997961, 0.5120000243186951, 0.0, 0.0, 0.0, 0.0, 0.0, 1.6518364082137764E9, 0.0, 2022-05-06 12:26:48.213
22.0, -288.11815268639475, -177.31613669916987, -198.31754490034655, -205.76742561208084, 0.11200000531971455, 0.0800000037997961, 0.5120000243186951, 0.0, 0.0, 0.0, 0.0, 0.0, 1.6518364082137764E9, 0.0, 2022-05-06 12:26:48.213
23.0, -248.65472835395485, -106.38893403951079, -140.88016138086095, -177.70695624453947, 0.11200000531971455, 0.0800000037997961, 0.5120000243186951, 0.0, 0.0, 0.0, 0.0, 0.0, 1.651836408229781E9, 0.0, 2022-05-06 12:26:48.229
23.0, -240.49426665063947, -136.65220448095351, -172.38881850754842, -173.9894956885837, 0.11200000531971455, 0.0800000037997961, 0.5120000243186951, 0.0, 0.0, 0.0, 0.0, 0.0, 1.651836408229781E9, 0.0, 2022-05-06 12:26:48.229
24.0, -269.62808730546385, -186.25823749322444, -210.50213895598426, -179.52080772304907, 0.11200000531971455, 0.0800000037997961, 0.5120000243186951, 0.0, 0.0, 0.0, 0.0, 0.0, 1.6518364082307284E9, 0.0, 2022-05-06 12:26:48.230
24.0, -284.33337393123657, -177.230119000189, -196.29051912436262, -204.34626362891868, 0.11200000531971455, 0.0800000037997961, 0.5120000243186951, 0.0, 0.0, 0.0, 0.0, 0.0, 1.6518364082307284E9, 0.0, 2022-05-06 12:26:48.230
25.0, -227.2176218079403, -94.58580977935344, -122.28911870112643, -157.89296627929434, 0.11200000531971455, 0.0800000037997961, 0.5120000243186951, 0.0, 0.0, 0.0, 0.0, 0.0, 1.6518364082438009E9, 0.0, 2022-05-06 12:26:48.243
25.0, -234.61514392029494, -133.68272391613573, -167.25767576834187, -166.26286238012835, 0.11200000531971455, 0.0800000037997961, 0.5120000243186951, 0.0, 0.0, 0.0, 0.0, 0.0, 1.6518364082438009E9, 0.0, 2022-05-06 12:26:48.243
26.0, -278.37197340186685, -193.73429750464857, -223.277637204621, -200.77465917123482, 0.11200000531971455, 0.0800000037997961, 0.5120000243186951, 0.0, 0.0, 0.0, 0.0, 0.0, 1.6518364082598143E9, 0.0, 2022-05-06 12:26:48.259
26.0, -274.3515809495002, -168.24687930662185, -183.5112809757702, -193.24624056043103, 0.11200000531971455, 0.0800000037997961, 0.5120000243186951, 0.0, 0.0, 0.0, 0.0, 0.0, 1.6518364082598143E9, 0.0, 2022-05-06 12:26:48.259
27.0, -214.90213125385344, -91.76592521276325, -123.94963428145275, -159.27298936294392, 0.11200000531971455, 0.0800000037997961, 0.5120000243186951, 0.0, 0.0, 0.0, 0.0, 0.0, 1.6518364082607303E9, 0.0, 2022-05-06 12:26:48.260
27.0, -240.9692339450121, -141.85066541936249, -179.9209770183079, -186.63409743877128, 0.11200000531971455, 0.0800000037997961, 0.5120000243186951, 0.0, 0.0, 0.0, 0.0, 0.0, 1.6518364082607303E9, 0.0, 2022-05-06 12:26:48.260
28.0, -286.07616731058806, -195.6154671823606, -216.9011077801697, -188.93413591152057, 0.11200000531971455, 0.0800000037997961, 0.5120000243186951, 0.0, 0.0, 0.0, 0.0, 0.0, 1.6518364082737756E9, 0.0, 2022-05-06 12:26:48.273
28.0, -281.62942626327276, -163.31769116502255, -181.89938409486786, -184.8838242595084, 0.11200000531971455, 0.0800000037997961, 0.5120000243186951, 0.0, 0.0, 0.0, 0.0, 0.0, 1.6518364082737756E9, 0.0, 2022-05-06 12:26:48.273
29.0, -245.3710961928591, -103.52043077349663, -129.76143881259486, -165.59342028805986, 0.11200000531971455, 0.0800000037997961, 0.5120000243186951, 0.0, 0.0, 0.0, 0.0, 0.0, 1.651836408289774E9, 0.0, 2022-05-06 12:26:48.289
29.0, -248.4565136563033, -142.0301806172356, -176.25961496168748, -186.42092314129695, 0.11200000531971455, 0.0800000037997961, 0.5120000243186951, 0.0, 0.0, 0.0, 0.0, 0.0, 1.651836408289774E9, 0.0, 2022-05-06 12:26:48.289
30.0, -271.9879641775042, -190.04301624838263, -214.90400120383129, -177.30678694928065, 0.11200000531971455, 0.0800000037997961, 0.7680000364780426, 0.0, 0.0, 0.0, 0.0, 0.0, 1.6518364082907443E9, 0.0, 2022-05-06 12:26:48.290
30.0, -271.21754478663206, -164.75755264796317, -184.59959186287597, -202.1135433553718, 0.11200000531971455, 0.0800000037997961, 0.7680000364780426, 0.0, 0.0, 0.0, 0.0, 0.0, 1.6518364082907443E9, 0.0, 2022-05-06 12:26:48.290
31.0, -231.86631745286286, -96.80357045307755, -129.94469391042367, -164.25079620396718, 0.11200000531971455, 0.09600000455975533, 0.7680000364780426, 0.0, 0.0, 0.0, 0.0, 0.0, 1.6518364083038027E9, 0.0, 2022-05-06 12:26:48.303
31.0, -253.57269679568708, -144.56209288723767, -182.83809898374602, -191.35385118285194, 0.11200000531971455, 0.09600000455975533, 0.7680000364780426, 0.0, 0.0, 0.0, 0.0, 0.0, 1.6518364083038027E9, 0.0, 2022-05-06 12:26:48.303
32.0, -270.06939550023526, -195.36489388532937, -218.0492570665665, -198.54193889768794, 0.144000006839633, 0.09600000455975533, 0.7680000364780426, 0.0, 0.0, 0.0, 0.0, 0.0, 1.6518364083197727E9, 0.0, 2022-05-06 12:26:48.319
32.0, -275.7203843332827, -164.3723429525271, -182.78948028432205, -197.47606741031632, 0.144000006839633, 0.09600000455975533, 0.7680000364780426, 0.0, 0.0, 0.0, 0.0, 0.0, 1.6518364083197727E9, 0.0, 2022-05-06 12:26:48.319
33.0, -243.2991916174069, -103.8645015694201, -137.07668312592432, -175.73976886784658, 0.144000006839633, 0.09600000455975533, 0.7680000364780426, 0.0, 0.0, 0.0, 0.0, 0.0, 1.6518364083207169E9, 0.0, 2022-05-06 12:26:48.320
33.0, -241.42550173960626, -135.68357039242983, -169.6549516399391, -173.9184375894256, 0.144000006839633, 0.09600000455975533, 0.7680000364780426, 0.0, 0.0, 0.0, 0.0, 0.0, 1.6518364083207169E9, 0.0, 2022-05-06 12:26:48.320
34.0, -276.2851092265919, -200.73539022170007, -220.59238903643563, -195.5574987330474, 0.144000006839633, 0.09600000455975533, 0.7680000364780426, 0.0, 0.0, 0.0, 0.0, 0.0, 1.6518364083338392E9, 0.0, 2022-05-06 12:26:48.333
34.0, -259.17132702935487, -146.00195437017828, -163.79078850941733, -169.78584813838825, 0.144000006839633, 0.09600000455975533, 0.7680000364780426, 0.0, 0.0, 0.0, 0.0, 0.0, 1.6518364083338392E9, 0.0, 2022-05-06 12:26:48.333
35.0, -235.73337400704622, -91.79584441240877, -129.71656001312658, -163.2111040162854, 0.144000006839633, 0.09600000455975533, 0.7680000364780426, 0.0, 0.0, 0.0, 0.0, 0.0, 1.6518364083497791E9, 0.0, 2022-05-06 12:26:48.349
35.0, -232.9247091403231, -133.16287782229483, -169.81576733803377, -175.67993046855554, 0.144000006839633, 0.09600000455975533, 0.7680000364780426, 0.0, 0.0, 0.0, 0.0, 0.0, 1.6518364083497791E9, 0.0, 2022-05-06 12:26:48.349
36.0, -274.47873754799366, -193.91381270252168, -221.57598272478208, -196.60093082068488, 0.144000006839633, 0.09600000455975533, 0.7680000364780426, 0.0, 0.0, 0.0, 0.0, 0.0, 1.651836408350786E9, 0.0, 2022-05-06 12:26:48.350
36.0, -282.71025735046715, -166.08521713223308, -184.15454376814887, -199.99302008049563, 0.144000006839633, 0.09600000455975533, 0.7680000364780426, 0.0, 0.0, 0.0, 0.0, 0.0, 1.651836408350786E9, 0.0, 2022-05-06 12:26:48.350
37.0, -239.23766026552767, -101.863655093126, -136.14170813700184, -172.23174270940945, 0.144000006839633, 0.09600000455975533, 0.7680000364780426, 0.0, 0.0, 0.0, 0.0, 0.0, 1.6518364083968024E9, 0.0, 2022-05-06 12:26:48.396
37.0, -233.99432052765042, -135.48161579482257, -176.11749876337126, -178.38387813651934, 0.144000006839633, 0.09600000455975533, 0.7680000364780426, 0.0, 0.0, 0.0, 0.0, 0.0, 1.6518364083968024E9, 0.0, 2022-05-06 12:26:48.396
38.0, -280.9038856718689, -196.3896264731884, -215.607102395501, -193.30233905976638, 0.144000006839633, 0.09600000455975533, 0.7680000364780426, 0.0, 0.0, 0.0, 0.0, 0.0, 1.6518364083977416E9, 0.0, 2022-05-06 12:26:48.397
38.0, -270.04321620054543, -153.67248917929828, -166.24042298039421, -173.22655609762296, 0.144000006839633, 0.09600000455975533, 0.7680000364780426, 0.0, 0.0, 0.0, 0.0, 0.0, 1.6518364083977416E9, 0.0, 2022-05-06 12:26:48.397
39.0, -230.60597116779536, -89.38360894098878, -121.09609061526135, -154.4223391204141, 0.144000006839633, 0.09600000455975533, 0.7680000364780426, 0.0, 0.0, 0.0, 0.0, 0.0, 1.6518364083987384E9, 0.0, 2022-05-06 12:26:48.398
39.0, -237.69682148378342, -135.0627469997853, -175.14886467484757, -175.93798356549814, 0.144000006839633, 0.09600000455975533, 0.7680000364780426, 0.0, 0.0, 0.0, 0.0, 0.0, 1.6518364083987384E9, 0.0, 2022-05-06 12:26:48.398
40.0, -271.5429160827771, -190.9779912373051, -219.29464375181124, -200.08277767943218, 0.144000006839633, 0.09600000455975533, 0.8960000425577164, 0.0, 0.0, 0.0, 0.0, 0.0, 1.651836408399719E9, 0.0, 2022-05-06 12:26:48.399
40.0, -272.171219275333, -162.72304707206786, -183.33550567785278, -192.53939946880564, 0.144000006839633, 0.09600000455975533, 0.8960000425577164, 0.0, 0.0, 0.0, 0.0, 0.0, 1.651836408399719E9, 0.0, 2022-05-06 12:26:48.399
41.0, -240.20629435405135, -101.05583670269698, -132.18489398388192, -165.4700035895221, 0.144000006839633, 0.11200000531971455, 0.8960000425577164, 0.0, 0.0, 0.0, 0.0, 0.0, 1.651836408409782E9, 0.0, 2022-05-06 12:26:48.409
41.0, -230.7742666658014, -139.49452844727784, -173.59306629328057, -160.85870694415644, 0.144000006839633, 0.11200000531971455, 0.8960000425577164, 0.0, 0.0, 0.0, 0.0, 0.0, 1.651836408409782E9, 0.0, 2022-05-06 12:26:48.409
42.0, -267.9152131257579, -201.93963800743222, -227.07737555960193, -194.39812974678352, 0.144000006839633, 0.11200000531971455, 0.8960000425577164, 0.0, 0.0, 0.0, 0.0, 0.0, 1.6518364084107287E9, 0.0, 2022-05-06 12:26:48.410
42.0, -274.69939164537936, -160.27341260109097, -179.50584812322631, -196.35409742360935, 0.144000006839633, 0.11200000531971455, 0.8960000425577164, 0.0, 0.0, 0.0, 0.0, 0.0, 1.6518364084107287E9, 0.0, 2022-05-06 12:26:48.410
43.0, -243.84895691089332, -105.2370448531583, -137.29733722331002, -179.6255249218084, 0.144000006839633, 0.11200000531971455, 0.8960000425577164, 0.0, 0.0, 0.0, 0.0, 0.0, 1.6518364084238005E9, 0.0, 2022-05-06 12:26:48.423
43.0, -252.8583759041503, -149.0350132342428, -182.78948028432205, -194.94041524035856, 0.144000006839633, 0.11200000531971455, 0.8960000425577164, 0.0, 0.0, 0.0, 0.0, 0.0, 1.6518364084238005E9, 0.0, 2022-05-06 12:26:48.423
44.0, -280.0212692823261, -201.93963800743222, -225.91800657333806, -206.93801429821178, 0.144000006839633, 0.11200000531971455, 0.8960000425577164, 0.0, 0.0, 0.0, 0.0, 0.0, 1.6518364084397984E9, 0.0, 2022-05-06 12:26:48.439
44.0, -267.78057672735304, -162.6295495731756, -179.9508962179534, -194.57764494465664, 0.144000006839633, 0.11200000531971455, 0.8960000425577164, 0.0, 0.0, 0.0, 0.0, 0.0, 1.6518364084397984E9, 0.0, 2022-05-06 12:26:48.439
45.0, -240.55036514997482, -99.73191211838275, -136.09308943757787, -171.99612901220098, 0.144000006839633, 0.11200000531971455, 0.8960000425577164, 0.0, 0.0, 0.0, 0.0, 0.0, 1.6518364084407337E9, 0.0, 2022-05-06 12:26:48.440
45.0, -236.94510159268975, -143.30174660217017, -178.19688313873485, -180.13041141582653, 0.144000006839633, 0.11200000531971455, 0.8960000425577164, 0.0, 0.0, 0.0, 0.0, 0.0, 1.6518364084407337E9, 0.0, 2022-05-06 12:26:48.440
46.0, -261.57982260081917, -190.85457453876734, -210.85368955181912, -191.5146668809466, 0.144000006839633, 0.11200000531971455, 0.8960000425577164, 0.0, 0.0, 0.0, 0.0, 0.0, 1.6518364084537933E9, 0.0, 2022-05-06 12:26:48.453
46.0, -263.752704475075, -155.98000745195895, -171.5473410175182, -173.26395509717986, 0.144000006839633, 0.11200000531971455, 0.8960000425577164, 0.0, 0.0, 0.0, 0.0, 0.0, 1.6518364084537933E9, 0.0, 2022-05-06 12:26:48.453
47.0, -234.01675992738456, -96.15282786078751, -126.67602134915069, -160.54829524783418, 0.144000006839633, 0.11200000531971455, 0.8960000425577164, 0.0, 0.0, 0.0, 0.0, 0.0, 1.6518364084697764E9, 0.0, 2022-05-06 12:26:48.469
47.0, -236.69452829565853, -144.04972659330815, -182.92785658268258, -184.4761751643382, 0.144000006839633, 0.11200000531971455, 0.8960000425577164, 0.0, 0.0, 0.0, 0.0, 0.0, 1.6518364084697764E9, 0.0, 2022-05-06 12:26:48.469
48.0, -267.4589453311637, -188.21420517005026, -211.5231316438876, -195.3667638353072, 0.144000006839633, 0.11200000531971455, 0.8960000425577164, 0.0, 0.0, 0.0, 0.0, 0.0, 1.6518364084709754E9, 0.0, 2022-05-06 12:26:48.470
48.0, -274.00751015357673, -169.94853378646076, -193.23876076051965, -207.16988809546456, 0.144000006839633, 0.11200000531971455, 0.8960000425577164, 0.0, 0.0, 0.0, 0.0, 0.0, 1.6518364084709754E9, 0.0, 2022-05-06 12:26:48.470
49.0, -228.05161949805915, -87.79789135977626, -119.80208523059264, -156.9430316905491, 0.144000006839633, 0.11200000531971455, 0.8960000425577164, 0.0, 0.0, 0.0, 0.0, 0.0, 1.6518364085007913E9, 0.0, 2022-05-06 12:26:48.500
49.0, -237.19567488972098, -135.89674468990415, -165.58968038810417, -157.06270848913118, 0.144000006839633, 0.11200000531971455, 0.8960000425577164, 0.0, 0.0, 0.0, 0.0, 0.0, 1.6518364085007913E9, 0.0, 2022-05-06 12:26:48.500
50.0, -272.4928506715223, -194.70293159317225, -214.7880643052049, -183.5486799753271, 0.144000006839633, 0.11200000531971455, 0.944000044837594, 0.0, 0.0, 0.0, 0.0, 0.0, 1.6518364085017333E9, 0.0, 2022-05-06 12:26:48.501
50.0, -267.58236202970147, -149.57729872781783, -176.41669075982645, -192.9246091642417, 0.144000006839633, 0.11200000531971455, 0.944000044837594, 0.0, 0.0, 0.0, 0.0, 0.0, 1.6518364085017333E9, 0.0, 2022-05-06 12:26:48.501
51.0, -233.6652093315497, -96.03315106220543, -127.98872623359784, -170.1373987342231, 0.144000006839633, 0.11200000531971455, 0.944000044837594, 0.0, 0.0, 0.0, 0.0, 0.0, 1.6518364085027423E9, 0.0, 2022-05-06 12:26:48.502
51.0, -240.741100047715, -146.7761136610061, -179.883578018751, -183.94884927058592, 0.144000006839633, 0.11200000531971455, 0.944000044837594, 0.0, 0.0, 0.0, 0.0, 0.0, 1.6518364085027423E9, 0.0, 2022-05-06 12:26:48.502
52.0, -279.14987259265035, -204.51642907690257, -228.76781033957377, -209.62326246639714, 0.1600000075995922, 0.11200000531971455, 0.944000044837594, 0.0, 0.0, 0.0, 0.0, 0.0, 1.6518364085137756E9, 0.0, 2022-05-06 12:26:48.513
52.0, -270.44338549580425, -161.64595588482916, -186.76499393722042, -194.7010616431944, 0.1600000075995922, 0.11200000531971455, 0.944000044837594, 0.0, 0.0, 0.0, 0.0, 0.0, 1.6518364085137756E9, 0.0, 2022-05-06 12:26:48.513
53.0, -231.76534015405923, -105.75689094699919, -136.43342033354566, -180.08927251631394, 0.1600000075995922, 0.11200000531971455, 0.944000044837594, 0.0, 0.0, 0.0, 0.0, 0.0, 1.6518364085297909E9, 0.0, 2022-05-06 12:26:48.529
53.0, -239.42839516326785, -144.12826449237764, -177.98370884126052, -185.0371601576917, 0.1600000075995922, 0.11200000531971455, 0.944000044837594, 0.0, 0.0, 0.0, 0.0, 0.0, 1.6518364085297909E9, 0.0, 2022-05-06 12:26:48.529
54.0, -267.11487453524023, -192.7918427158147, -215.76791809359565, -198.39234289946035, 0.1600000075995922, 0.11200000531971455, 0.944000044837594, 0.0, 0.0, 0.0, 0.0, 0.0, 1.6518364085307405E9, 0.0, 2022-05-06 12:26:48.530
54.0, -267.54870293010026, -158.01077312789857, -175.50041527068242, -189.26324710762128, 0.1600000075995922, 0.11200000531971455, 0.944000044837594, 0.0, 0.0, 0.0, 0.0, 0.0, 1.6518364085307405E9, 0.0, 2022-05-06 12:26:48.530
55.0, -225.66930322628468, -89.12929574400187, -124.16280857892707, -154.14184662373737, 0.1600000075995922, 0.11200000531971455, 0.944000044837594, 0.0, 0.0, 0.0, 0.0, 0.0, 1.6518364085438435E9, 0.0, 2022-05-06 12:26:48.543
55.0, -229.259607183747, -138.83256615512073, -173.01338180014864, -174.9207307775505, 0.1600000075995922, 0.11200000531971455, 0.944000044837594, 0.0, 0.0, 0.0, 0.0, 0.0, 1.6518364085438435E9, 0.0, 2022-05-06 12:26:48.543
56.0, -260.3007768159732, -181.03733715508133, -199.68260838417336, -173.08817979926243, 0.1600000075995922, 0.11200000531971455, 0.944000044837594, 0.0, 0.0, 0.0, 0.0, 0.0, 1.6518364085597994E9, 0.0, 2022-05-06 12:26:48.559
56.0, -258.9693724317476, -144.184362991713, -165.7617157860659, -169.93544413661584, 0.1600000075995922, 0.11200000531971455, 0.944000044837594, 0.0, 0.0, 0.0, 0.0, 0.0, 1.6518364085597994E9, 0.0, 2022-05-06 12:26:48.559
57.0, -220.02205429319292, -88.08960355632007, -120.24339342536405, -160.4996765484102, 0.1600000075995922, 0.11200000531971455, 0.944000044837594, 0.0, 0.0, 0.0, 0.0, 0.0, 1.651836408560726E9, 0.0, 2022-05-06 12:26:48.560
57.0, -230.13474377337843, -140.107872040011, -174.01941488822922, -178.59331253403798, 0.1600000075995922, 0.11200000531971455, 0.944000044837594, 0.0, 0.0, 0.0, 0.0, 0.0, 1.651836408560726E9, 0.0, 2022-05-06 12:26:48.560
58.0, -266.2472177455202, -199.5386222358793, -221.31792962783948, -197.371350211557, 0.1600000075995922, 0.11200000531971455, 0.944000044837594, 0.0, 0.0, 0.0, 0.0, 0.0, 1.6518364085737867E9, 0.0, 2022-05-06 12:26:48.573
58.0, -274.2805228503421, -163.13817596714944, -183.79551337240264, -192.5880181682296, 0.1600000075995922, 0.11200000531971455, 0.944000044837594, 0.0, 0.0, 0.0, 0.0, 0.0, 1.6518364085737867E9, 0.0, 2022-05-06 12:26:48.573
59.0, -233.34357793536037, -106.1981991417706, -139.87412829278037, -174.7636549794115, 0.1600000075995922, 0.11200000531971455, 0.944000044837594, 0.0, 0.0, 0.0, 0.0, 0.0, 1.6518364086218154E9, 0.0, 2022-05-06 12:26:48.621
59.0, -240.16141555458307, -135.01038840040565, -168.30858765589073, -172.5795534052886, 0.1600000075995922, 0.11200000531971455, 0.944000044837594, 0.0, 0.0, 0.0, 0.0, 0.0, 1.6518364086218154E9, 0.0, 2022-05-06 12:26:48.621
60.0, -265.1701265582815, -195.5032701836899, -206.72484000073746, -190.45627519348636, 0.1600000075995922, 0.11200000531971455, 0.9760000463575125, 0.0, 0.0, 0.0, 0.0, 0.0, 1.6518364086227634E9, 0.0, 2022-05-06 12:26:48.622
60.0, -264.25759096909314, -164.51445915084332, -175.6238319692202, -178.68307013297454, 0.1600000075995922, 0.11200000531971455, 0.9760000463575125, 0.0, 0.0, 0.0, 0.0, 0.0, 1.6518364086227634E9, 0.0, 2022-05-06 12:26:48.622
61.0, -196.92817206680775, -63.51846084743738, -95.71338961599395, -122.17318180250004, 0.1600000075995922, 0.11200000531971455, 0.9760000463575125, 0.0, 0.0, 0.0, 0.0, 0.0, 1.6518364086237335E9, 0.0, 2022-05-06 12:26:48.623
61.0, -222.64372416213155, -122.23115025181323, -160.52959574805573, -165.58594048814848, 0.1600000075995922, 0.11200000531971455, 0.9760000463575125, 0.0, 0.0, 0.0, 0.0, 0.0, 1.6518364086237335E9, 0.0, 2022-05-06 12:26:48.623
62.0, -279.8754131840542, -207.55322784092277, -231.3894802085124, -219.16748715331778, 0.1600000075995922, 0.11200000531971455, 0.9760000463575125, 0.0, 0.0, 0.0, 0.0, 0.0, 1.6518364086247401E9, 0.0, 2022-05-06 12:26:48.624
62.0, -281.37137316633016, -173.9315272392705, -194.94041524035856, -205.88710241066292, 0.1600000075995922, 0.11200000531971455, 0.9760000463575125, 0.0, 0.0, 0.0, 0.0, 0.0, 1.6518364086247401E9, 0.0, 2022-05-06 12:26:48.624
63.0, -225.23547483142465, -88.29155815392733, -129.76517871255055, -173.63794509274885, 0.1600000075995922, 0.11200000531971455, 0.9760000463575125, 0.0, 0.0, 0.0, 0.0, 0.0, 1.6518364086347787E9, 0.0, 2022-05-06 12:26:48.634
63.0, -227.72624820191413, -130.5038089537993, -164.650965499226, -166.79018827388063, 0.1600000075995922, 0.11200000531971455, 0.9760000463575125, 0.0, 0.0, 0.0, 0.0, 0.0, 1.6518364086347787E9, 0.0, 2022-05-06 12:26:48.634
64.0, -271.6513731814921, -207.34379344340414, -227.03249676013365, -202.21826055413112, 0.1600000075995922, 0.11200000531971455, 0.9760000463575125, 0.0, 0.0, 0.0, 0.0, 0.0, 1.6518364086357431E9, 0.0, 2022-05-06 12:26:48.635
64.0, -276.82365482021123, -168.10476310830563, -186.61539793899283, -192.221507972572, 0.1600000075995922, 0.11200000531971455, 0.9760000463575125, 0.0, 0.0, 0.0, 0.0, 0.0, 1.6518364086357431E9, 0.0, 2022-05-06 12:26:48.635
65.0, -216.15873763896525, -72.16136964503676, -114.95891478797421, -150.44308556756005, 0.1600000075995922, 0.11200000531971455, 0.9760000463575125, 0.0, 0.0, 0.0, 0.0, 0.0, 1.6518364086498194E9, 0.0, 2022-05-06 12:26:48.649
65.0, -219.05342020466924, -122.43684474937618, -151.5388762545772, -146.72936491155997, 0.1600000075995922, 0.11200000531971455, 0.9760000463575125, 0.0, 0.0, 0.0, 0.0, 0.0, 1.6518364086498194E9, 0.0, 2022-05-06 12:26:48.649
66.0, -267.85163482651114, -199.47130403667688, -211.46329324459657, -180.3622852130793, 0.1600000075995922, 0.11200000531971455, 0.9760000463575125, 0.0, 0.0, 0.0, 0.0, 0.0, 1.6518364086507502E9, 0.0, 2022-05-06 12:26:48.650
66.0, -266.2322581456974, -158.4408616228029, -177.96874924143776, -189.58487850381061, 0.1600000075995922, 0.11200000531971455, 0.9760000463575125, 0.0, 0.0, 0.0, 0.0, 0.0, 1.6518364086507502E9, 0.0, 2022-05-06 12:26:48.650
67.0, -214.26634826138616, -74.31181211955845, -110.84502483671531, -144.66494013601914, 0.1600000075995922, 0.11200000531971455, 0.9760000463575125, 0.0, 0.0, 0.0, 0.0, 0.0, 1.6518364086637723E9, 0.0, 2022-05-06 12:26:48.663
67.0, -217.4003844242543, -122.02919565420598, -153.23305093450472, -160.94098474318162, 0.1600000075995922, 0.11200000531971455, 0.9760000463575125, 0.0, 0.0, 0.0, 0.0, 0.0, 1.6518364086637723E9, 0.0, 2022-05-06 12:26:48.663
68.0, -267.88155402615666, -210.64986500423402, -224.4257864910178, -218.73365875845775, 0.1600000075995922, 0.11200000531971455, 0.9760000463575125, 0.0, 0.0, 0.0, 0.0, 0.0, 1.651836408679819E9, 0.0, 2022-05-06 12:26:48.679
68.0, -277.4706575125456, -170.790011276491, -186.07685234537348, -197.97721400437877, 0.1600000075995922, 0.11200000531971455, 0.9760000463575125, 0.0, 0.0, 0.0, 0.0, 0.0, 1.651836408679819E9, 0.0, 2022-05-06 12:26:48.679
69.0, -232.78633284196258, -87.8203307595104, -126.73585974844173, -164.4677104013972, 0.1600000075995922, 0.11200000531971455, 0.9760000463575125, 0.0, 0.0, 0.0, 0.0, 0.0, 1.6518364086807196E9, 0.0, 2022-05-06 12:26:48.680
69.0, -228.53780649229884, -129.52769506536424, -161.9507577312179, -161.92083853157237, 0.1600000075995922, 0.11200000531971455, 0.9760000463575125, 0.0, 0.0, 0.0, 0.0, 0.0, 1.6518364086807196E9, 0.0, 2022-05-06 12:26:48.680
70.0, -257.1929199527949, -197.74721015710384, -213.5277180201374, -181.2149824029766, 0.1600000075995922, 0.11200000531971455, 0.9920000471174717, 0.0, 0.0, 0.0, 0.0, 0.0, 1.6518364086937833E9, 0.0, 2022-05-06 12:26:48.693
70.0, -244.61563640180975, -149.50250072870404, -164.48267000121996, -172.1756442100741, 0.1600000075995922, 0.11200000531971455, 0.9920000471174717, 0.0, 0.0, 0.0, 0.0, 0.0, 1.6518364086937833E9, 0.0, 2022-05-06 12:26:48.693
71.0, -239.79116545896977, -85.49411298707128, -128.45621372805908, -179.33755262522027, 0.1600000075995922, 0.11200000531971455, 0.9920000471174717, 0.0, 0.0, 0.0, 0.0, 0.0, 1.651836408709802E9, 0.0, 2022-05-06 12:26:48.709
71.0, -248.12740246020257, -144.89868388324976, -181.00180810550228, -194.1101574501954, 0.1600000075995922, 0.11200000531971455, 0.9920000471174717, 0.0, 0.0, 0.0, 0.0, 0.0, 1.651836408709802E9, 0.0, 2022-05-06 12:26:48.709
72.0, -282.8374139489606, -220.26514779031277, -232.99389728950337, -211.17158104805276, 0.1600000075995922, 0.11200000531971455, 0.9920000471174717, 0.0, 0.0, 0.0, 0.0, 0.0, 1.65183640871073E9, 0.0, 2022-05-06 12:26:48.710
72.0, -274.56101534701884, -178.58396278414875, -195.74823363078758, -204.73147332435474, 0.1600000075995922, 0.11200000531971455, 0.9920000471174717, 0.0, 0.0, 0.0, 0.0, 0.0, 1.65183640871073E9, 0.0, 2022-05-06 12:26:48.710
73.0, -224.27806044276804, -88.06342425663024, -122.86506329430267, -149.60160807752982, 0.1600000075995922, 0.11200000531971455, 0.9920000471174717, 0.0, 0.0, 0.0, 0.0, 0.0, 1.651836408723768E9, 0.0, 2022-05-06 12:26:48.723
73.0, -226.2527276193723, -127.82604058552533, -163.71225061034784, -161.4234318374656, 0.1600000075995922, 0.11200000531971455, 0.9920000471174717, 0.0, 0.0, 0.0, 0.0, 0.0, 1.651836408723768E9, 0.0, 2022-05-06 12:26:48.723
74.0, -264.36230816785246, -196.0904344767332, -210.77141175279394, -186.00579424621537, 0.1600000075995922, 0.11200000531971455, 0.9920000471174717, 0.0, 0.0, 0.0, 0.0, 0.0, 1.6518364087397668E9, 0.0, 2022-05-06 12:26:48.739
74.0, -262.73545168712735, -152.65523639135063, -169.4305576425977, -176.86547875450924, 0.1600000075995922, 0.11200000531971455, 0.9920000471174717, 0.0, 0.0, 0.0, 0.0, 0.0, 1.6518364087397668E9, 0.0, 2022-05-06 12:26:48.739
75.0, -220.53816048707813, -88.4860329516232, -120.58372432133183, -156.74481699289754, 0.1600000075995922, 0.11200000531971455, 0.9920000471174717, 0.0, 0.0, 0.0, 0.0, 0.0, 1.651836408740734E9, 0.0, 2022-05-06 12:26:48.740
75.0, -226.70899541396648, -121.0942206652835, -159.81527485651895, -163.97404360724613, 0.1600000075995922, 0.11200000531971455, 0.9920000471174717, 0.0, 0.0, 0.0, 0.0, 0.0, 1.651836408740734E9, 0.0, 2022-05-06 12:26:48.740
76.0, -262.6344743883237, -195.74636368080974, -213.20982652390376, -184.9960212581791, 0.1600000075995922, 0.11200000531971455, 0.9920000471174717, 0.0, 0.0, 0.0, 0.0, 0.0, 1.6518364087539313E9, 0.0, 2022-05-06 12:26:48.753
76.0, -259.29100382793695, -154.21477467287332, -176.397991260048, -188.82193891284987, 0.1600000075995922, 0.11200000531971455, 0.9920000471174717, 0.0, 0.0, 0.0, 0.0, 0.0, 1.6518364087539313E9, 0.0, 2022-05-06 12:26:48.753
77.0, -228.9267560876906, -77.67398217972368, -113.43677550600842, -155.28625601017848, 0.1600000075995922, 0.11200000531971455, 0.9920000471174717, 0.0, 0.0, 0.0, 0.0, 0.0, 1.6518364087857752E9, 0.0, 2022-05-06 12:26:48.785
77.0, -224.97368183452636, -127.29123489186168, -160.1294264527969, -166.1357057816349, 0.1600000075995922, 0.11200000531971455, 0.9920000471174717, 0.0, 0.0, 0.0, 0.0, 0.0, 1.6518364087857752E9, 0.0, 2022-05-06 12:26:48.785
78.0, -270.48078449536115, -206.03856835886836, -215.47994579700753, -192.4459019699134, 0.1600000075995922, 0.11200000531971455, 0.9920000471174717, 0.0, 0.0, 0.0, 0.0, 0.0, 1.651836408786756E9, 0.0, 2022-05-06 12:26:48.786
78.0, -264.5792223652825, -154.19233527313918, -172.71792970364913, -185.0708192572929, 0.1600000075995922, 0.11200000531971455, 0.9920000471174717, 0.0, 0.0, 0.0, 0.0, 0.0, 1.651836408786756E9, 0.0, 2022-05-06 12:26:48.786
79.0, -211.5100419940427, -67.97268169466406, -113.13010370964184, -148.82370888674632, 0.1600000075995922, 0.11200000531971455, 0.9920000471174717, 0.0, 0.0, 0.0, 0.0, 0.0, 1.651836408787725E9, 0.0, 2022-05-06 12:26:48.787
79.0, -210.30205430835485, -119.66557888220996, -150.4281259677373, -152.41401284420863, 0.1600000075995922, 0.11200000531971455, 0.9920000471174717, 0.0, 0.0, 0.0, 0.0, 0.0, 1.651836408787725E9, 0.0, 2022-05-06 12:26:48.787
80.0, -271.93186567816883, -205.75433596223593, -222.58949561277404, -202.90266224602237, 0.1600000075995922, 0.11200000531971455, 1.008000047877431, 0.0, 0.0, 0.0, 0.0, 0.0, 1.6518364087887309E9, 0.0, 2022-05-06 12:26:48.788
80.0, -265.22622505761683, -147.98036144673824, -170.49268923001364, -188.81819901289418, 0.1600000075995922, 0.11200000531971455, 1.008000047877431, 0.0, 0.0, 0.0, 0.0, 0.0, 1.6518364087887309E9, 0.0, 2022-05-06 12:26:48.788
81.0, -196.26620977465063, -57.93105031363666, -96.74186210380867, -120.8903961176984, 0.1600000075995922, 0.11200000531971455, 1.008000047877431, 0.0, 0.0, 0.0, 0.0, 0.0, 1.6518364087987611E9, 0.0, 2022-05-06 12:26:48.798
81.0, -209.05292772315443, -118.63710639439523, -153.78281622799113, -160.26406285120174, 0.1600000075995922, 0.11200000531971455, 1.008000047877431, 0.0, 0.0, 0.0, 0.0, 0.0, 1.6518364087987611E9, 0.0, 2022-05-06 12:26:48.798
82.0, -280.55233507603407, -208.40592503082007, -228.10210814746097, -212.24119243538007, 0.1600000075995922, 0.11200000531971455, 1.008000047877431, 0.0, 0.0, 0.0, 0.0, 0.0, 1.651836408813818E9, 0.0, 2022-05-06 12:26:48.813
82.0, -270.2750899977982, -164.7463329480961, -188.27591351931915, -202.23322015395388, 0.1600000075995922, 0.11200000531971455, 1.008000047877431, 0.0, 0.0, 0.0, 0.0, 0.0, 1.651836408813818E9, 0.0, 2022-05-06 12:26:48.813
83.0, -219.51716779917479, -79.75336655508727, -122.65936879673973, -155.22641761088744, 0.1600000075995922, 0.11200000531971455, 1.008000047877431, 0.0, 0.0, 0.0, 0.0, 0.0, 1.651836408829782E9, 0.0, 2022-05-06 12:26:48.829
83.0, -227.93568259943277, -131.83521333802491, -165.10723329382017, -167.08564037038013, 0.1600000075995922, 0.11200000531971455, 1.008000047877431, 0.0, 0.0, 0.0, 0.0, 0.0, 1.651836408829782E9, 0.0, 2022-05-06 12:26:48.829
84.0, -276.9059326192364, -212.18696388602257, -225.0840088832192, -202.83534404681996, 0.1600000075995922, 0.11200000531971455, 1.008000047877431, 0.0, 0.0, 0.0, 0.0, 0.0, 1.6518364088307428E9, 0.0, 2022-05-06 12:26:48.830
84.0, -267.0587760359049, -155.86781045328826, -176.86921865446493, -191.79515937762335, 0.1600000075995922, 0.11200000531971455, 1.008000047877431, 0.0, 0.0, 0.0, 0.0, 0.0, 1.6518364088307428E9, 0.0, 2022-05-06 12:26:48.830
85.0, -203.2785221915692, -65.8110195202753, -105.8859174954705, -137.84710251679644, 0.1600000075995922, 0.11200000531971455, 1.008000047877431, 0.0, 0.0, 0.0, 0.0, 0.0, 1.6518364088438132E9, 0.0, 2022-05-06 12:26:48.843
85.0, -224.93628283496946, -125.65689861122519, -157.3880797852762, -157.62369348248467, 0.1600000075995922, 0.11200000531971455, 1.008000047877431, 0.0, 0.0, 0.0, 0.0, 0.0, 1.6518364088438132E9, 0.0, 2022-05-06 12:26:48.843
86.0, -273.2034316631034, -204.05268148239702, -221.05613663094118, -203.8563367347233, 0.1600000075995922, 0.11200000531971455, 1.008000047877431, 0.0, 0.0, 0.0, 0.0, 0.0, 1.6518364088757906E9, 0.0, 2022-05-06 12:26:48.875
86.0, -254.61238898336887, -152.5879181921482, -169.29218134423718, -185.42984965303913, 0.1600000075995922, 0.11200000531971455, 1.008000047877431, 0.0, 0.0, 0.0, 0.0, 0.0, 1.6518364088757906E9, 0.0, 2022-05-06 12:26:48.875
87.0, -223.04015355743468, -77.60292408056557, -115.57225838070735, -161.03448224207386, 0.1600000075995922, 0.11200000531971455, 1.008000047877431, 0.0, 0.0, 0.0, 0.0, 0.0, 1.651836408876733E9, 0.0, 2022-05-06 12:26:48.876
87.0, -232.24778724834323, -144.86128488369286, -174.98430907679722, -178.85510553093627, 0.1600000075995922, 0.11200000531971455, 1.008000047877431, 0.0, 0.0, 0.0, 0.0, 0.0, 1.651836408876733E9, 0.0, 2022-05-06 12:26:48.876
88.0, -283.8060480374843, -219.97717549372464, -226.20597886992618, -210.20668685948476, 0.1600000075995922, 0.11200000531971455, 1.008000047877431, 0.0, 0.0, 0.0, 0.0, 0.0, 1.6518364088777199E9, 0.0, 2022-05-06 12:26:48.877
88.0, -259.50791802536696, -154.52518636919558, -174.4008846837096, -185.70660224976018, 0.1600000075995922, 0.11200000531971455, 1.008000047877431, 0.0, 0.0, 0.0, 0.0, 0.0, 1.6518364088777199E9, 0.0, 2022-05-06 12:26:48.877
89.0, -220.45962258800864, -81.54851853381842, -122.58457079762593, -159.41136566130444, 0.1600000075995922, 0.11200000531971455, 1.008000047877431, 0.0, 0.0, 0.0, 0.0, 0.0, 1.6518364088787155E9, 0.0, 2022-05-06 12:26:48.878
89.0, -231.52972645685077, -137.19075007457286, -164.8716195966117, -167.36613286705688, 0.1600000075995922, 0.11200000531971455, 1.008000047877431, 0.0, 0.0, 0.0, 0.0, 0.0, 1.6518364088787155E9, 0.0, 2022-05-06 12:26:48.878
90.0, -267.6870792284608, -206.9847630476579, -221.47126552602276, -197.65184270823374, 0.1600000075995922, 0.11200000531971455, 1.008000047877431, 0.0, 0.0, 0.0, 0.0, 0.0, 1.6518364088887484E9, 0.0, 2022-05-06 12:26:48.888
90.0, -260.1885798173025, -142.37799131311476, -159.0224160659127, -169.14632524596527, 0.1600000075995922, 0.11200000531971455, 1.008000047877431, 0.0, 0.0, 0.0, 0.0, 0.0, 1.6518364088887484E9, 0.0, 2022-05-06 12:26:48.888
91.0, -195.37237368524075, -60.70231618080288, -94.7671949272044, -119.69736803183332, 0.1600000075995922, 0.11200000531971455, 1.008000047877431, 0.0, 0.0, 0.0, 0.0, 0.0, 1.6518364089037964E9, 0.0, 2022-05-06 12:26:48.903
91.0, -230.8116656653583, -129.2060636691749, -161.04196204198524, -164.81178119732067, 0.1600000075995922, 0.11200000531971455, 1.008000047877431, 0.0, 0.0, 0.0, 0.0, 0.0, 1.6518364089037964E9, 0.0, 2022-05-06 12:26:48.903
92.0, -279.92403188347816, -215.75482844375074, -231.9392455019988, -208.80796427605674, 0.1600000075995922, 0.11200000531971455, 1.008000047877431, 0.0, 0.0, 0.0, 0.0, 0.0, 1.6518364089197824E9, 0.0, 2022-05-06 12:26:48.919
92.0, -278.30465520266443, -160.3033318007365, -186.83605203637853, -200.38944947579876, 0.1600000075995922, 0.11200000531971455, 1.008000047877431, 0.0, 0.0, 0.0, 0.0, 0.0, 1.6518364089197824E9, 0.0, 2022-05-06 12:26:48.919
93.0, -217.05631362833083, -73.83310492523015, -109.64825685089454, -146.09358191909268, 0.1600000075995922, 0.11200000531971455, 1.008000047877431, 0.0, 0.0, 0.0, 0.0, 0.0, 1.651836408920718E9, 0.0, 2022-05-06 12:26:48.920
93.0, -234.67498231958598, -134.18387051019818, -172.2841013087891, -172.429957407061, 0.1600000075995922, 0.11200000531971455, 1.008000047877431, 0.0, 0.0, 0.0, 0.0, 0.0, 1.651836408920718E9, 0.0, 2022-05-06 12:26:48.920
94.0, -284.3969522304833, -220.23148869071156, -242.0257556824945, -224.62400118866935, 0.1600000075995922, 0.11200000531971455, 1.008000047877431, 0.0, 0.0, 0.0, 0.0, 0.0, 1.6518364089338014E9, 0.0, 2022-05-06 12:26:48.933
94.0, -271.7673100801185, -161.39164268784225, -182.5089877876453, -195.84547102963552, 0.1600000075995922, 0.11200000531971455, 1.008000047877431, 0.0, 0.0, 0.0, 0.0, 0.0, 1.6518364089338014E9, 0.0, 2022-05-06 12:26:48.933
95.0, -232.57315854448825, -85.02662549261004, -126.51520565105602, -164.01518250675872, 0.1600000075995922, 0.11200000531971455, 1.008000047877431, 0.0, 0.0, 0.0, 0.0, 0.0, 1.6518364089497745E9, 0.0, 2022-05-06 12:26:48.949
95.0, -248.97635975014418, -151.7053018026054, -179.86861841892824, -182.45662918826565, 0.1600000075995922, 0.11200000531971455, 1.008000047877431, 0.0, 0.0, 0.0, 0.0, 0.0, 1.6518364089497745E9, 0.0, 2022-05-06 12:26:48.949
96.0, -296.1103188917041, -232.31510544754565, -244.30709465546533, -220.0875025424175, 0.1600000075995922, 0.11200000531971455, 1.008000047877431, 0.0, 0.0, 0.0, 0.0, 0.0, 1.651836408950728E9, 0.0, 2022-05-06 12:26:48.950
96.0, -275.9485182305798, -161.10367039125413, -177.71817594440654, -187.80094622494653, 0.1600000075995922, 0.11200000531971455, 1.008000047877431, 0.0, 0.0, 0.0, 0.0, 0.0, 1.651836408950728E9, 0.0, 2022-05-06 12:26:48.950
97.0, -221.07670608069748, -72.01177364680916, -111.68650232674554, -136.69147343048826, 0.1600000075995922, 0.11200000531971455, 1.008000047877431, 0.0, 0.0, 0.0, 0.0, 0.0, 1.651836408963793E9, 0.0, 2022-05-06 12:26:48.963
97.0, -226.24524781946093, -130.66088475193828, -168.03557495912537, -169.97658303612843, 0.1600000075995922, 0.11200000531971455, 1.008000047877431, 0.0, 0.0, 0.0, 0.0, 0.0, 1.651836408963793E9, 0.0, 2022-05-06 12:26:48.963
98.0, -277.11910691671073, -206.30784115567803, -220.72702543484047, -203.3028315412812, 0.1600000075995922, 0.11200000531971455, 1.008000047877431, 0.0, 0.0, 0.0, 0.0, 0.0, 1.6518364089797719E9, 0.0, 2022-05-06 12:26:48.979
98.0, -268.1171677233651, -158.69143491983414, -180.79611360793933, -189.5175603046082, 0.1600000075995922, 0.11200000531971455, 1.008000047877431, 0.0, 0.0, 0.0, 0.0, 0.0, 1.6518364089797719E9, 0.0, 2022-05-06 12:26:48.979
99.0, -226.2153286198154, -92.94025379884988, -129.97461311006919, -160.74277004553005, 0.1600000075995922, 0.11200000531971455, 1.008000047877431, 0.0, 0.0, 0.0, 0.0, 0.0, 1.6518364089807153E9, 0.0, 2022-05-06 12:26:48.980
99.0, -237.39388958737254, -142.6248247101903, -173.78380119102076, -179.2851940258406, 0.1600000075995922, 0.11200000531971455, 1.008000047877431, 0.0, 0.0, 0.0, 0.0, 0.0, 1.6518364089807153E9, 0.0, 2022-05-06 12:26:48.980
100.0, -296.5778063861653, -226.05451292172074, -235.89605965511873, -212.57404353143647, 0.1600000075995922, 0.11200000531971455, 1.0240000486373901, 0.0, 0.0, 0.0, 0.0, 0.0, 1.651836408994769E9, 0.0, 2022-05-06 12:26:48.994
100.0, -274.3553208494559, -162.13962267898023, -177.26564804976806, -195.333104735706, 0.1600000075995922, 0.11200000531971455, 1.0240000486373901, 0.0, 0.0, 0.0, 0.0, 0.0, 1.651836408994769E9, 0.0, 2022-05-06 12:26:48.994
0.0, -218.52609431091696, -75.06166206067428, -114.3885800447315, -148.09816829534248, 0.1600000075995922, 0.11200000531971455, 1.0240000486373901, 0.0, 0.0, 0.0, 0.0, 0.0, 1.6518364089957535E9, 0.0, 2022-05-06 12:26:48.995
1.0, -231.94485535193235, -138.44174660975114, -161.86287008225918, -149.54550957819447, 0.1600000075995922, 0.11200000531971455, 1.0240000486373901, 0.0, 0.0, 0.0, 0.0, 0.0, 1.6518364090087752E9, 0.0, 2022-05-06 12:26:49.008
1.0, -275.3501342376694, -208.3030777820386, -223.8853709474206, -191.76898007793352, 0.1600000075995922, 0.11200000531971455, 1.0240000486373901, 0.0, 0.0, 0.0, 0.0, 0.0, 1.6518364090087752E9, 0.0, 2022-05-06 12:26:49.008
2.0, -276.18787182774395, -153.169472635258, -176.50457840878516, -194.53276614518836, 0.1600000075995922, 0.11200000531971455, 1.0240000486373901, 0.0, 0.0, 0.0, 0.0, 0.0, 1.651836409024789E9, 0.0, 2022-05-06 12:26:49.024
2.0, -236.01386650372297, -83.63725265907124, -120.67161197029054, -160.45853764889762, 0.1600000075995922, 0.11200000531971455, 1.0240000486373901, 0.0, 0.0, 0.0, 0.0, 0.0, 1.651836409024789E9, 0.0, 2022-05-06 12:26:49.024
3.0, -235.98020740412176, -140.70812598289922, -174.69820673018694, -184.67064996203408, 0.1600000075995922, 0.11200000531971455, 1.0240000486373901, 0.0, 0.0, 0.0, 0.0, 0.0, 1.6518364090257404E9, 0.0, 2022-05-06 12:26:49.025
3.0, -283.0992069458589, -208.57983037875965, -225.17189653217793, -205.39343561651185, 0.1600000075995922, 0.11200000531971455, 1.0240000486373901, 0.0, 0.0, 0.0, 0.0, 0.0, 1.6518364090257404E9, 0.0, 2022-05-06 12:26:49.025
4.0, -270.7163981925696, -151.40797975612804, -172.72353955358267, -192.12053067376837, 0.1600000075995922, 0.11200000531971455, 1.0240000486373901, 0.0, 0.0, 0.0, 0.0, 0.0, 1.6518364090558405E9, 0.0, 2022-05-06 12:26:49.055
4.0, -230.43019586987793, -91.19559046952054, -126.0982068059966, -163.05028831819072, 0.1600000075995922, 0.11200000531971455, 1.0240000486373901, 0.0, 0.0, 0.0, 0.0, 0.0, 1.6518364090558405E9, 0.0, 2022-05-06 12:26:49.055
5.0, -238.6317964727059, -145.19226602977142, -172.54402435570955, -165.33910709107295, 0.1600000075995922, 0.11200000531971455, 1.0240000486373901, 0.0, 0.0, 0.0, 0.0, 0.0, 1.6518364090567677E9, 0.0, 2022-05-06 12:26:49.056
5.0, -274.17954555153847, -189.96634829929098, -211.0649938993156, -184.65569036221132, 0.1600000075995922, 0.11200000531971455, 1.0240000486373901, 0.0, 0.0, 0.0, 0.0, 0.0, 1.6518364090567677E9, 0.0, 2022-05-06 12:26:49.056
6.0, -263.76766407489777, -137.92564041586593, -162.53979197423905, -174.61405898118392, 0.1600000075995922, 0.11200000531971455, 1.0240000486373901, 0.0, 0.0, 0.0, 0.0, 0.0, 1.6518364090577483E9, 0.0, 2022-05-06 12:26:49.057
6.0, -241.14126934297383, -100.26858776202425, -132.37375893164426, -169.94292393652722, 0.1600000075995922, 0.11200000531971455, 1.0240000486373901, 0.0, 0.0, 0.0, 0.0, 0.0, 1.6518364090577483E9, 0.0, 2022-05-06 12:26:49.057
7.0, -250.3002843344584, -150.8357750629075, -178.8307961812243, -177.2880874495022, 0.1600000075995922, 0.11200000531971455, 1.0240000486373901, 0.0, 0.0, 0.0, 0.0, 0.0, 1.65183640906878E9, 0.0, 2022-05-06 12:26:49.068
7.0, -264.874674461782, -199.4843936865218, -216.79078073147684, -189.95138869946823, 0.1600000075995922, 0.11200000531971455, 1.0240000486373901, 0.0, 0.0, 0.0, 0.0, 0.0, 1.65183640906878E9, 0.0, 2022-05-06 12:26:49.068
8.0, -278.8432007962838, -155.9108193027787, -180.41277386248112, -187.3671178300865, 0.1600000075995922, 0.11200000531971455, 1.0240000486373901, 0.0, 0.0, 0.0, 0.0, 0.0, 1.6518364090847712E9, 0.0, 2022-05-06 12:26:49.084
8.0, -223.72829514928162, -70.4615851151757, -119.6842783819884, -151.21350495843217, 0.1600000075995922, 0.11200000531971455, 1.0240000486373901, 0.0, 0.0, 0.0, 0.0, 0.0, 1.6518364090847712E9, 0.0, 2022-05-06 12:26:49.084
9.0, -247.17372797150165, -143.70752574736252, -175.4910655207932, -182.49402818782255, 0.1600000075995922, 0.11200000531971455, 1.0240000486373901, 0.0, 0.0, 0.0, 0.0, 0.0, 1.6518364090857797E9, 0.0, 2022-05-06 12:26:49.085
9.0, -284.6961442269385, -213.64739481871948, -228.08527859766036, -200.71482077194378, 0.1600000075995922, 0.11200000531971455, 1.0240000486373901, 0.0, 0.0, 0.0, 0.0, 0.0, 1.6518364090857797E9, 0.0, 2022-05-06 12:26:49.085
10.0, -277.6426929105073, -160.86618674406782, -177.92574039194733, -189.79057300137356, 0.1600000075995922, 0.11200000531971455, 1.0240000486373901, 0.0, 0.0, 0.0, 0.0, 0.0, 1.6518364090987856E9, 0.0, 2022-05-06 12:26:49.098
10.0, -230.90516316425055, -87.69504411099479, -133.63410521671176, -167.71394356293604, 0.1600000075995922, 0.11200000531971455, 1.0240000486373901, 0.0, 0.0, 0.0, 0.0, 0.0, 1.6518364090987856E9, 0.0, 2022-05-06 12:26:49.098
11.0, -238.6280565727502, -141.8600151692517, -170.81245067622513, -166.206763880793, 0.1600000075995922, 0.11200000531971455, 1.0240000486373901, 0.0, 0.0, 0.0, 0.0, 0.0, 1.651836409114766E9, 0.0, 2022-05-06 12:26:49.114
11.0, -286.66707150358707, -218.85707545699552, -225.61694462690502, -205.83474381128326, 0.1600000075995922, 0.11200000531971455, 1.0240000486373901, 0.0, 0.0, 0.0, 0.0, 0.0, 1.651836409114766E9, 0.0, 2022-05-06 12:26:49.114
12.0, -265.59273525327444, -147.47360500274226, -168.486232903786, -187.8533048243262, 0.1600000075995922, 0.11200000531971455, 1.0240000486373901, 0.0, 0.0, 0.0, 0.0, 0.0, 1.6518364091157258E9, 0.0, 2022-05-06 12:26:49.115
12.0, -223.19722935557365, -78.6482261181809, -127.74002288654447, -166.56579427653924, 0.1600000075995922, 0.11200000531971455, 1.0240000486373901, 0.0, 0.0, 0.0, 0.0, 0.0, 1.6518364091157258E9, 0.0, 2022-05-06 12:26:49.115
13.0, -228.9978141868487, -135.40868774568662, -169.97845298610628, -164.16477850498632, 0.1600000075995922, 0.11200000531971455, 1.0240000486373901, 0.0, 0.0, 0.0, 0.0, 0.0, 1.6518364091288147E9, 0.0, 2022-05-06 12:26:49.128
13.0, -287.8339202897623, -218.13153486559168, -226.50330091640353, -192.72265456663445, 0.1600000075995922, 0.11200000531971455, 1.0240000486373901, 0.0, 0.0, 0.0, 0.0, 0.0, 1.6518364091288147E9, 0.0, 2022-05-06 12:26:49.128
14.0, -278.1700188042596, -154.7551902164705, -180.13228136580437, -205.1952209188603, 0.1600000075995922, 0.11200000531971455, 1.0240000486373901, 0.0, 0.0, 0.0, 0.0, 0.0, 1.6518364091447875E9, 0.0, 2022-05-06 12:26:49.144
14.0, -223.43284305278212, -78.72676401725039, -119.99095017835498, -155.3909732089378, 0.1600000075995922, 0.11200000531971455, 1.0240000486373901, 0.0, 0.0, 0.0, 0.0, 0.0, 1.6518364091447875E9, 0.0, 2022-05-06 12:26:49.144
15.0, -238.60935707297176, -138.419307210017, -165.58407053817064, -161.13919944083318, 0.1600000075995922, 0.11200000531971455, 1.0240000486373901, 0.0, 0.0, 0.0, 0.0, 0.0, 1.6518364091457248E9, 0.0, 2022-05-06 12:26:49.145
15.0, -279.3181680906564, -205.92076151026413, -222.03786036930978, -186.64157723868266, 0.1600000075995922, 0.11200000531971455, 1.0240000486373901, 0.0, 0.0, 0.0, 0.0, 0.0, 1.6518364091457248E9, 0.0, 2022-05-06 12:26:49.145
16.0, -263.6816463759169, -146.8677412099205, -176.06327021401376, -183.87031137151644, 0.1600000075995922, 0.11200000531971455, 1.0240000486373901, 0.0, 0.0, 0.0, 0.0, 0.0, 1.6518364091757777E9, 0.0, 2022-05-06 12:26:49.175
16.0, -223.69089614972472, -85.05467474227771, -125.3165677152574, -158.6484260703437, 0.1600000075995922, 0.11200000531971455, 1.0240000486373901, 0.0, 0.0, 0.0, 0.0, 0.0, 1.6518364091757777E9, 0.0, 2022-05-06 12:26:49.175
17.0, -220.7700342843309, -134.50363195640966, -164.35738335270435, -164.47519020130858, 0.1600000075995922, 0.11200000531971455, 1.0240000486373901, 0.0, 0.0, 0.0, 0.0, 0.0, 1.651836409176718E9, 0.0, 2022-05-06 12:26:49.176
17.0, -295.0294878045097, -214.24577881162986, -223.70959564950317, -204.57065762626007, 0.1600000075995922, 0.11200000531971455, 1.0240000486373901, 0.0, 0.0, 0.0, 0.0, 0.0, 1.651836409176718E9, 0.0, 2022-05-06 12:26:49.176
18.0, -284.53158862888813, -155.690165205393, -180.0874025663361, -192.41972267022356, 0.1600000075995922, 0.11200000531971455, 1.0240000486373901, 0.0, 0.0, 0.0, 0.0, 0.0, 1.65183640917773E9, 0.0, 2022-05-06 12:26:49.177
18.0, -226.738914613612, -71.99494409700856, -115.02062313724309, -153.10215443605557, 0.1600000075995922, 0.11200000531971455, 1.0240000486373901, 0.0, 0.0, 0.0, 0.0, 0.0, 1.65183640917773E9, 0.0, 2022-05-06 12:26:49.177
19.0, -246.51176567934453, -148.4235395914875, -186.72946488764137, -184.41633676504716, 0.1600000075995922, 0.11200000531971455, 1.0240000486373901, 0.0, 0.0, 0.0, 0.0, 0.0, 1.6518364091887667E9, 0.0, 2022-05-06 12:26:49.188
19.0, -293.23807572573423, -223.00088460789993, -231.83639825321734, -212.9704729267396, 0.1600000075995922, 0.11200000531971455, 1.0240000486373901, 0.0, 0.0, 0.0, 0.0, 0.0, 1.6518364091887667E9, 0.0, 2022-05-06 12:26:49.188
20.0, -274.92004574276507, -156.4643244962208, -177.8659019926563, -191.00604048697278, 0.1600000075995922, 0.11200000531971455, 1.008000047877431, 0.0, 0.0, 0.0, 0.0, 0.0, 1.6518364092047937E9, 0.0, 2022-05-06 12:26:49.204
20.0, -221.16272377967834, -76.63242004206404, -120.30884167458862, -155.33113480964676, 0.1600000075995922, 0.11200000531971455, 1.008000047877431, 0.0, 0.0, 0.0, 0.0, 0.0, 1.6518364092047937E9, 0.0, 2022-05-06 12:26:49.204
21.0, -237.16575569007546, -145.19226602977142, -180.607248660177, -179.70406282087788, 0.1600000075995922, 0.11200000531971455, 1.008000047877431, 0.0, 0.0, 0.0, 0.0, 0.0, 1.6518364092057245E9, 0.0, 2022-05-06 12:26:49.205
21.0, -290.3658325597644, -230.23385112220421, -240.49800655059516, -218.28861066373065, 0.1600000075995922, 0.11200000531971455, 1.008000047877431, 0.0, 0.0, 0.0, 0.0, 0.0, 1.6518364092057245E9, 0.0, 2022-05-06 12:26:49.205
22.0, -274.3927198490128, -156.7560366927646, -176.83368960488588, -187.69248912623152, 0.1600000075995922, 0.11200000531971455, 1.008000047877431, 0.0, 0.0, 0.0, 0.0, 0.0, 1.6518364092188056E9, 0.0, 2022-05-06 12:26:49.218
22.0, -227.75990730151534, -85.4660637374036, -129.64363196399063, -162.96053071925417, 0.1600000075995922, 0.11200000531971455, 1.008000047877431, 0.0, 0.0, 0.0, 0.0, 0.0, 1.6518364092188056E9, 0.0, 2022-05-06 12:26:49.218
23.0, -235.9615079043433, -147.06595590757206, -180.42773346230388, -174.44576348317787, 0.1600000075995922, 0.11200000531971455, 1.008000047877431, 0.0, 0.0, 0.0, 0.0, 0.0, 1.65183640923479E9, 0.0, 2022-05-06 12:26:49.234
23.0, -283.3572600428015, -224.9044936853461, -234.21497462503612, -210.3076641582884, 0.1600000075995922, 0.11200000531971455, 1.008000047877431, 0.0, 0.0, 0.0, 0.0, 0.0, 1.65183640923479E9, 0.0, 2022-05-06 12:26:49.234
24.0, -280.3616001782939, -151.78196975169703, -174.55609053187072, -190.86766418861225, 0.1600000075995922, 0.11200000531971455, 1.008000047877431, 0.0, 0.0, 0.0, 0.0, 0.0, 1.651836409235757E9, 0.0, 2022-05-06 12:26:49.235
24.0, -208.26006893254817, -57.944139963481575, -98.71091943047941, -123.05579819204286, 0.1600000075995922, 0.11200000531971455, 1.008000047877431, 0.0, 0.0, 0.0, 0.0, 0.0, 1.651836409235757E9, 0.0, 2022-05-06 12:26:49.235
25.0, -236.32801810000092, -144.29842994036153, -173.54257764387876, -176.3269331608899, 0.1600000075995922, 0.11200000531971455, 1.008000047877431, 0.0, 0.0, 0.0, 0.0, 0.0, 1.6518364092660208E9, 0.0, 2022-05-06 12:26:49.266
25.0, -287.5010691937059, -221.4151670266874, -232.12063064984977, -210.47969955625013, 0.1600000075995922, 0.11200000531971455, 1.008000047877431, 0.0, 0.0, 0.0, 0.0, 0.0, 1.6518364092660208E9, 0.0, 2022-05-06 12:26:49.266
26.0, -266.8269022386521, -146.65082701249048, -170.150488384068, -174.05681388778612, 0.1600000075995922, 0.11200000531971455, 1.008000047877431, 0.0, 0.0, 0.0, 0.0, 0.0, 1.6518364092667117E9, 0.0, 2022-05-06 12:26:49.266
26.0, -210.60498620476574, -69.63132732501253, -117.3169217100367, -169.71479003923014, 0.1600000075995922, 0.11200000531971455, 1.008000047877431, 0.0, 0.0, 0.0, 0.0, 0.0, 1.6518364092667117E9, 0.0, 2022-05-06 12:26:49.266
27.0, -237.41632898710668, -149.2799766813405, -176.28018441144377, -184.13584426837042, 0.1600000075995922, 0.11200000531971455, 1.008000047877431, 0.0, 0.0, 0.0, 0.0, 0.0, 1.6518364092677212E9, 0.0, 2022-05-06 12:26:49.267
27.0, -297.2996070776135, -226.74452446354553, -231.60078455600888, -209.29415127029642, 0.1600000075995922, 0.11200000531971455, 1.008000047877431, 0.0, 0.0, 0.0, 0.0, 0.0, 1.6518364092677212E9, 0.0, 2022-05-06 12:26:49.267
28.0, -253.236105799675, -131.69122718973085, -157.43108863476664, -172.41499780723825, 0.1600000075995922, 0.11200000531971455, 1.008000047877431, 0.0, 0.0, 0.0, 0.0, 0.0, 1.6518364092787845E9, 0.0, 2022-05-06 12:26:49.278
28.0, -221.83216587174684, -73.74521727627143, -123.12498634122312, -155.50691010756418, 0.1600000075995922, 0.11200000531971455, 1.008000047877431, 0.0, 0.0, 0.0, 0.0, 0.0, 1.6518364092787845E9, 0.0, 2022-05-06 12:26:49.278
29.0, -237.88381648156792, -151.34440145688131, -180.31553646363318, -175.48545567085966, 0.1600000075995922, 0.11200000531971455, 1.008000047877431, 0.0, 0.0, 0.0, 0.0, 0.0, 1.6518364092947924E9, 0.0, 2022-05-06 12:26:49.294
29.0, -288.320107284002, -218.5279642608948, -226.48460141662508, -209.33155026985332, 0.1600000075995922, 0.11200000531971455, 1.008000047877431, 0.0, 0.0, 0.0, 0.0, 0.0, 1.6518364092947924E9, 0.0, 2022-05-06 12:26:49.294
30.0, -266.4529122430831, -144.3881875392981, -167.0463714208454, -183.90023057116196, 0.1600000075995922, 0.11200000531971455, 1.008000047877431, 0.0, 0.0, 0.0, 0.0, 0.0, 1.6518364092957227E9, 0.0, 2022-05-06 12:26:49.295
30.0, -221.26370107848197, -83.08748736558482, -123.27084243949503, -153.21435143472627, 0.1600000075995922, 0.11200000531971455, 1.008000047877431, 0.0, 0.0, 0.0, 0.0, 0.0, 1.6518364092957227E9, 0.0, 2022-05-06 12:26:49.295
31.0, -242.5923505257815, -156.4643244962208, -187.18947258219123, -187.23622133163735, 0.1600000075995922, 0.11200000531971455, 1.008000047877431, 0.0, 0.0, 0.0, 0.0, 0.0, 1.6518364093087876E9, 0.0, 2022-05-06 12:26:49.308
31.0, -275.36509383749217, -214.1934202122502, -222.3258326658979, -209.9710731622763, 0.1600000075995922, 0.11200000531971455, 1.008000047877431, 0.0, 0.0, 0.0, 0.0, 0.0, 1.6518364093087876E9, 0.0, 2022-05-06 12:26:49.308
32.0, -266.0864020474255, -145.52137722587213, -167.21092701889575, -183.32054607803002, 0.1600000075995922, 0.11200000531971455, 1.008000047877431, 0.0, 0.0, 0.0, 0.0, 0.0, 1.6518364093247876E9, 0.0, 2022-05-06 12:26:49.324
32.0, -225.34393193013966, -68.5691957375966, -116.07901482470334, -149.1976988823153, 0.1600000075995922, 0.11200000531971455, 1.008000047877431, 0.0, 0.0, 0.0, 0.0, 0.0, 1.6518364093247876E9, 0.0, 2022-05-06 12:26:49.324
33.0, -239.65652906056494, -149.88584047416225, -177.76118479389697, -180.48944181157276, 0.1600000075995922, 0.11200000531971455, 1.008000047877431, 0.0, 0.0, 0.0, 0.0, 0.0, 1.651836409325711E9, 0.0, 2022-05-06 12:26:49.325
33.0, -280.96746397111565, -213.2360058235936, -224.57725243922323, -199.83594428235665, 0.1600000075995922, 0.11200000531971455, 1.008000047877431, 0.0, 0.0, 0.0, 0.0, 0.0, 1.651836409325711E9, 0.0, 2022-05-06 12:26:49.325
34.0, -259.63133472390473, -146.4974911143072, -167.01271232124418, -177.60597894573584, 0.1600000075995922, 0.11200000531971455, 1.008000047877431, 0.0, 0.0, 0.0, 0.0, 0.0, 1.6518364093387628E9, 0.0, 2022-05-06 12:26:49.338
34.0, -219.66676379740238, -77.06250853696838, -126.2814619038254, -158.3529739738442, 0.1600000075995922, 0.11200000531971455, 1.008000047877431, 0.0, 0.0, 0.0, 0.0, 0.0, 1.6518364093387628E9, 0.0, 2022-05-06 12:26:49.338
35.0, -233.87090382911265, -145.91032682126388, -174.4177142335102, -173.7351824915968, 0.1600000075995922, 0.11200000531971455, 1.008000047877431, 0.0, 0.0, 0.0, 0.0, 0.0, 1.6518364093547795E9, 0.0, 2022-05-06 12:26:49.354
35.0, -280.4027390778065, -216.35882228659466, -223.80309314839542, -206.31345100561157, 0.1600000075995922, 0.11200000531971455, 1.008000047877431, 0.0, 0.0, 0.0, 0.0, 0.0, 1.6518364093547795E9, 0.0, 2022-05-06 12:26:49.354
36.0, -272.2871561739594, -139.9788454915397, -167.77565191220492, -185.56074615148827, 0.1600000075995922, 0.11200000531971455, 1.008000047877431, 0.0, 0.0, 0.0, 0.0, 0.0, 1.651836409355746E9, 0.0, 2022-05-06 12:26:49.355
36.0, -217.49762182310224, -68.23260474158451, -111.97634457331151, -140.32665618741885, 0.1600000075995922, 0.11200000531971455, 1.008000047877431, 0.0, 0.0, 0.0, 0.0, 0.0, 1.651836409355746E9, 0.0, 2022-05-06 12:26:49.355
37.0, -236.38411659933627, -144.93047303287312, -170.4833394801244, -167.31377426767722, 0.1600000075995922, 0.11200000531971455, 1.008000047877431, 0.0, 0.0, 0.0, 0.0, 0.0, 1.6518364093687716E9, 0.0, 2022-05-06 12:26:49.368
37.0, -275.11826044041663, -210.95092695066705, -224.48375494033098, -204.69407432479784, 0.1600000075995922, 0.11200000531971455, 1.008000047877431, 0.0, 0.0, 0.0, 0.0, 0.0, 1.6518364093687716E9, 0.0, 2022-05-06 12:26:49.368
38.0, -261.9463327964768, -137.6040090196766, -163.30647146515548, -175.81830676691607, 0.1600000075995922, 0.11200000531971455, 1.008000047877431, 0.0, 0.0, 0.0, 0.0, 0.0, 1.651836409384771E9, 0.0, 2022-05-06 12:26:49.384
38.0, -214.56928015779704, -70.20727191818878, -111.30690248124301, -150.9778912612237, 0.1600000075995922, 0.11200000531971455, 1.008000047877431, 0.0, 0.0, 0.0, 0.0, 0.0, 1.651836409384771E9, 0.0, 2022-05-06 12:26:49.384
39.0, -227.31111930683255, -136.1940667363815, -169.6044629905373, -172.14572501042858, 0.1600000075995922, 0.11200000531971455, 1.008000047877431, 0.0, 0.0, 0.0, 0.0, 0.0, 1.6518364093857236E9, 0.0, 2022-05-06 12:26:49.385
39.0, -288.9184912769124, -224.08545559505, -232.77137324213982, -214.61602890724316, 0.1600000075995922, 0.11200000531971455, 1.008000047877431, 0.0, 0.0, 0.0, 0.0, 0.0, 1.6518364093857236E9, 0.0, 2022-05-06 12:26:49.385
40.0, -260.8318426096812, -142.81742955790833, -167.9289878103882, -181.96670229407027, 0.1600000075995922, 0.11200000531971455, 1.008000047877431, 0.0, 0.0, 0.0, 0.0, 0.0, 1.6518364093987663E9, 0.0, 2022-05-06 12:26:49.398
40.0, -216.5813463339582, -74.24262397037819, -115.9443784262985, -154.26152342231944, 0.1600000075995922, 0.11200000531971455, 1.008000047877431, 0.0, 0.0, 0.0, 0.0, 0.0, 1.6518364093987663E9, 0.0, 2022-05-06 12:26:49.398
41.0, -229.80563257727772, -146.26187741709873, -174.12974193692207, -179.93967651808634, 0.1600000075995922, 0.11200000531971455, 1.008000047877431, 0.0, 0.0, 0.0, 0.0, 0.0, 1.651836409414786E9, 0.0, 2022-05-06 12:26:49.414
41.0, -282.78879524953663, -214.76188500551507, -228.04413969814777, -208.57235057884827, 0.1600000075995922, 0.11200000531971455, 1.008000047877431, 0.0, 0.0, 0.0, 0.0, 0.0, 1.651836409414786E9, 0.0, 2022-05-06 12:26:49.414
42.0, -268.7267714161426, -146.7555442112498, -176.80003050528467, -191.33889158302918, 0.1600000075995922, 0.11200000531971455, 1.008000047877431, 0.0, 0.0, 0.0, 0.0, 0.0, 1.651836409415717E9, 0.0, 2022-05-06 12:26:49.415
42.0, -220.76255448441952, -71.5685955020599, -116.9466716144234, -154.45225832005963, 0.1600000075995922, 0.11200000531971455, 1.008000047877431, 0.0, 0.0, 0.0, 0.0, 0.0, 1.651836409415717E9, 0.0, 2022-05-06 12:26:49.415
43.0, -236.8516040937975, -148.18418599432334, -172.5589839555323, -170.72082312731072, 0.1600000075995922, 0.11200000531971455, 1.008000047877431, 0.0, 0.0, 0.0, 0.0, 0.0, 1.6518364094287815E9, 0.0, 2022-05-06 12:26:49.428
43.0, -273.195951863192, -213.76333171734586, -221.23752177879214, -197.53216590965167, 0.1600000075995922, 0.11200000531971455, 1.008000047877431, 0.0, 0.0, 0.0, 0.0, 0.0, 1.6518364094287815E9, 0.0, 2022-05-06 12:26:49.428
44.0, -254.2271792879328, -142.20408596517518, -174.88146182801574, -186.22644834360108, 0.1600000075995922, 0.11200000531971455, 1.008000047877431, 0.0, 0.0, 0.0, 0.0, 0.0, 1.6518364094607773E9, 0.0, 2022-05-06 12:26:49.460
44.0, -223.15983035601676, -80.42093869717792, -122.53408214822412, -158.18093857588246, 0.1600000075995922, 0.11200000531971455, 1.008000047877431, 0.0, 0.0, 0.0, 0.0, 0.0, 1.6518364094607773E9, 0.0, 2022-05-06 12:26:49.460
45.0, -225.61694462690502, -141.7852171701379, -166.19741413090378, -163.22606361610815, 0.1600000075995922, 0.11200000531971455, 1.008000047877431, 0.0, 0.0, 0.0, 0.0, 0.0, 1.651836409461748E9, 0.0, 2022-05-06 12:26:49.461
45.0, -280.63461287505925, -218.24373186426237, -230.0711654741317, -214.46643290901557, 0.1600000075995922, 0.11200000531971455, 1.008000047877431, 0.0, 0.0, 0.0, 0.0, 0.0, 1.651836409461748E9, 0.0, 2022-05-06 12:26:49.461
46.0, -262.8588683856651, -140.9736588797532, -166.93791432213038, -183.0699727809988, 0.1600000075995922, 0.11200000531971455, 1.008000047877431, 0.0, 0.0, 0.0, 0.0, 0.0, 1.65183640946273E9, 0.0, 2022-05-06 12:26:49.462
46.0, -224.63335093855858, -71.6845324006863, -112.47749116737396, -139.50387819716707, 0.1600000075995922, 0.11200000531971455, 1.008000047877431, 0.0, 0.0, 0.0, 0.0, 0.0, 1.65183640946273E9, 0.0, 2022-05-06 12:26:49.462
47.0, -241.73591343592852, -152.41401284420863, -177.25255839992315, -164.89779889630154, 0.1600000075995922, 0.11200000531971455, 1.008000047877431, 0.0, 0.0, 0.0, 0.0, 0.0, 1.6518364094639916E9, 0.0, 2022-05-06 12:26:49.463
47.0, -273.027656365186, -210.65173495421186, -218.46625591162592, -207.2259865947999, 0.1600000075995922, 0.11200000531971455, 1.008000047877431, 0.0, 0.0, 0.0, 0.0, 0.0, 1.6518364094639916E9, 0.0, 2022-05-06 12:26:49.463
48.0, -255.43890687357634, -137.25619832379743, -163.1157365674153, -184.98480155831203, 0.1600000075995922, 0.11200000531971455, 1.008000047877431, 0.0, 0.0, 0.0, 0.0, 0.0, 1.6518364094737887E9, 0.0, 2022-05-06 12:26:49.473
48.0, -215.16766415070742, -71.47135810321197, -120.22656387556344, -155.8734203032218, 0.1600000075995922, 0.11200000531971455, 1.008000047877431, 0.0, 0.0, 0.0, 0.0, 0.0, 1.6518364094737887E9, 0.0, 2022-05-06 12:26:49.473
49.0, -232.84617124125361, -148.92842608550563, -173.83428984042257, -168.84713324951008, 0.1600000075995922, 0.11200000531971455, 1.008000047877431, 0.0, 0.0, 0.0, 0.0, 0.0, 1.6518364094887784E9, 0.0, 2022-05-06 12:26:49.488
49.0, -286.37909920699894, -212.3085106345825, -226.22654831968248, -202.57355104992166, 0.1600000075995922, 0.11200000531971455, 1.008000047877431, 0.0, 0.0, 0.0, 0.0, 0.0, 1.6518364094887784E9, 0.0, 2022-05-06 12:26:49.488
50.0, -266.21729854587466, -137.83588281692937, -164.4134818520397, -190.19448219658807, 0.1600000075995922, 0.11200000531971455, 1.0240000486373901, 0.0, 0.0, 0.0, 0.0, 0.0, 1.6518364095047703E9, 0.0, 2022-05-06 12:26:49.504
50.0, -216.00540174078196, -71.63965360121801, -113.80889555159956, -156.15391279989854, 0.1600000075995922, 0.11200000531971455, 1.0240000486373901, 0.0, 0.0, 0.0, 0.0, 0.0, 1.6518364095047703E9, 0.0, 2022-05-06 12:26:49.504
51.0, -230.20206197258085, -148.95834528515115, -171.79978426452726, -165.74301628628746, 0.1600000075995922, 0.11200000531971455, 1.0240000486373901, 0.0, 0.0, 0.0, 0.0, 0.0, 1.6518364095197957E9, 0.0, 2022-05-06 12:26:49.519
51.0, -281.9435778595507, -217.6042089718394, -227.63275070302188, -208.7518657767214, 0.1600000075995922, 0.11200000531971455, 1.0240000486373901, 0.0, 0.0, 0.0, 0.0, 0.0, 1.6518364095197957E9, 0.0, 2022-05-06 12:26:49.519
52.0, -255.70069987047464, -134.45127335703, -163.65054226107895, -181.439376400318, 0.1600000075995922, 0.11200000531971455, 1.0240000486373901, 0.0, 0.0, 0.0, 0.0, 0.0, 1.6518364095207465E9, 0.0, 2022-05-06 12:26:49.520
52.0, -213.4734894707799, -75.00930346129462, -118.04620220139623, -155.91455920273438, 0.1600000075995922, 0.11200000531971455, 1.0240000486373901, 0.0, 0.0, 0.0, 0.0, 0.0, 1.6518364095207465E9, 0.0, 2022-05-06 12:26:49.520
53.0, -235.6697957077995, -141.35138877527788, -174.28681773506105, -177.67703704489395, 0.1600000075995922, 0.11200000531971455, 1.0240000486373901, 0.0, 0.0, 0.0, 0.0, 0.0, 1.6518364095347812E9, 0.0, 2022-05-06 12:26:49.534
53.0, -284.5390684287995, -216.26158488774672, -229.42042288184166, -211.16784114809707, 0.1600000075995922, 0.11200000531971455, 1.0240000486373901, 0.0, 0.0, 0.0, 0.0, 0.0, 1.6518364095347812E9, 0.0, 2022-05-06 12:26:49.534
54.0, -253.236105799675, -134.78038455313072, -161.67961498443037, -179.3263329253532, 0.1600000075995922, 0.11200000531971455, 1.0240000486373901, 0.0, 0.0, 0.0, 0.0, 0.0, 1.6518364095497875E9, 0.0, 2022-05-06 12:26:49.549
54.0, -210.81816050224006, -72.93739888584241, -110.61128108948469, -142.63417446007952, 0.1600000075995922, 0.11200000531971455, 1.0240000486373901, 0.0, 0.0, 0.0, 0.0, 0.0, 1.6518364095497875E9, 0.0, 2022-05-06 12:26:49.549
55.0, -233.2239011367783, -145.0127508318983, -176.7888108054176, -158.2445168751292, 0.1600000075995922, 0.11200000531971455, 1.0240000486373901, 0.0, 0.0, 0.0, 0.0, 0.0, 1.6518364095507324E9, 0.0, 2022-05-06 12:26:49.550
55.0, -285.8031546138227, -218.40454756235704, -228.71732169017196, -211.58670994313434, 0.1600000075995922, 0.11200000531971455, 1.0240000486373901, 0.0, 0.0, 0.0, 0.0, 0.0, 1.6518364095507324E9, 0.0, 2022-05-06 12:26:49.550
56.0, -266.84560173843056, -143.95809904439375, -168.56851070281118, -191.69418207881972, 0.1600000075995922, 0.11200000531971455, 1.0240000486373901, 0.0, 0.0, 0.0, 0.0, 0.0, 1.6518364095647883E9, 0.0, 2022-05-06 12:26:49.564
56.0, -213.64926476869732, -71.0898883077316, -116.71479781717062, -154.48965731961653, 0.1600000075995922, 0.11200000531971455, 1.0240000486373901, 0.0, 0.0, 0.0, 0.0, 0.0, 1.6518364095647883E9, 0.0, 2022-05-06 12:26:49.564
57.0, -240.95427434518933, -158.16223907610402, -187.7205383758992, -180.848472207319, 0.1600000075995922, 0.11200000531971455, 1.0240000486373901, 0.0, 0.0, 0.0, 0.0, 0.0, 1.651836409565718E9, 0.0, 2022-05-06 12:26:49.565
57.0, -285.3132277196273, -214.88530170405284, -222.5838857628405, -204.38740252843127, 0.1600000075995922, 0.11200000531971455, 1.0240000486373901, 0.0, 0.0, 0.0, 0.0, 0.0, 1.651836409565718E9, 0.0, 2022-05-06 12:26:49.565
58.0, -259.85198882129043, -132.20733338361606, -162.62206977326423, -186.8884106357582, 0.1600000075995922, 0.11200000531971455, 1.0240000486373901, 0.0, 0.0, 0.0, 0.0, 0.0, 1.6518364095787776E9, 0.0, 2022-05-06 12:26:49.578
58.0, -215.3583990484476, -75.48801065562293, -111.13860698323697, -139.9377065920271, 0.1600000075995922, 0.11200000531971455, 1.0240000486373901, 0.0, 0.0, 0.0, 0.0, 0.0, 1.6518364095787776E9, 0.0, 2022-05-06 12:26:49.578
59.0, -241.06273144390434, -161.22895703976974, -186.7593840872869, -180.09675231622532, 0.1600000075995922, 0.11200000531971455, 1.0240000486373901, 0.0, 0.0, 0.0, 0.0, 0.0, 1.6518364095948455E9, 0.0, 2022-05-06 12:26:49.594
59.0, -300.6243781382218, -239.5050631123595, -249.72059984132648, -238.41675222525373, 0.1600000075995922, 0.11200000531971455, 1.0240000486373901, 0.0, 0.0, 0.0, 0.0, 0.0, 1.6518364095948455E9, 0.0, 2022-05-06 12:26:49.594
60.0, -263.96587877254933, -149.93445917358622, -175.1619543246925, -199.0730046913959, 0.1600000075995922, 0.11200000531971455, 1.008000047877431, 0.0, 0.0, 0.0, 0.0, 0.0, 1.6518364095957391E9, 0.0, 2022-05-06 12:26:49.595
60.0, -198.06884155329317, -69.90060012182221, -110.14005369506776, -141.74033837066963, 0.1600000075995922, 0.11200000531971455, 1.008000047877431, 0.0, 0.0, 0.0, 0.0, 0.0, 1.6518364095957391E9, 0.0, 2022-05-06 12:26:49.595
61.0, -225.08213893324137, -152.1260405476205, -174.13722173683345, -162.59028062364087, 0.1600000075995922, 0.11200000531971455, 1.008000047877431, 0.0, 0.0, 0.0, 0.0, 0.0, 1.6518364096087704E9, 0.0, 2022-05-06 12:26:49.608
61.0, -273.7943358561024, -207.65233518974856, -215.90068454202265, -193.02558646304533, 0.1600000075995922, 0.11200000531971455, 1.008000047877431, 0.0, 0.0, 0.0, 0.0, 0.0, 1.6518364096087704E9, 0.0, 2022-05-06 12:26:49.608
62.0, -246.55290457885712, -126.34691015304998, -154.45412827003747, -176.7645014557056, 0.1600000075995922, 0.11200000531971455, 1.008000047877431, 0.0, 0.0, 0.0, 0.0, 0.0, 1.6518364096247864E9, 0.0, 2022-05-06 12:26:49.624
62.0, -210.64612510427833, -67.57438234938309, -118.61466699466109, -150.62634066538885, 0.1600000075995922, 0.11200000531971455, 1.008000047877431, 0.0, 0.0, 0.0, 0.0, 0.0, 1.6518364096247864E9, 0.0, 2022-05-06 12:26:49.624
63.0, -243.8601766107604, -151.4191994559951, -182.74273153487593, -173.8810385898687, 0.1600000075995922, 0.11200000531971455, 1.008000047877431, 0.0, 0.0, 0.0, 0.0, 0.0, 1.651836409625724E9, 0.0, 2022-05-06 12:26:49.625
63.0, -285.48900301754475, -214.75814510555938, -225.50474762823433, -209.91871456289664, 0.1600000075995922, 0.11200000531971455, 1.008000047877431, 0.0, 0.0, 0.0, 0.0, 0.0, 1.651836409625724E9, 0.0, 2022-05-06 12:26:49.625
64.0, -240.47930705081671, -118.07799135101959, -145.30633297841996, -166.99588277144358, 0.1600000075995922, 0.11200000531971455, 1.008000047877431, 0.0, 0.0, 0.0, 0.0, 0.0, 1.6518364096387625E9, 0.0, 2022-05-06 12:26:49.638
64.0, -205.78425516188145, -69.42563282744959, -111.00771048478782, -141.37382817501202, 0.1600000075995922, 0.11200000531971455, 1.008000047877431, 0.0, 0.0, 0.0, 0.0, 0.0, 1.6518364096387625E9, 0.0, 2022-05-06 12:26:49.638
65.0, -234.7759596183896, -146.91635990934446, -178.79713708162308, -178.9224237301387, 0.1600000075995922, 0.11200000531971455, 1.008000047877431, 0.0, 0.0, 0.0, 0.0, 0.0, 1.6518364096547868E9, 0.0, 2022-05-06 12:26:49.654
65.0, -281.8276409609243, -217.54437057254836, -226.01337402220815, -207.76079228846356, 0.1600000075995922, 0.11200000531971455, 1.008000047877431, 0.0, 0.0, 0.0, 0.0, 0.0, 1.6518364096547868E9, 0.0, 2022-05-06 12:26:49.654
66.0, -268.360261220485, -136.86350882845, -160.08267770335078, -179.97707551764324, 0.1600000075995922, 0.11200000531971455, 1.008000047877431, 0.0, 0.0, 0.0, 0.0, 0.0, 1.651836409669785E9, 0.0, 2022-05-06 12:26:49.669
66.0, -205.7318965625018, -68.78237003507093, -103.77100407052785, -140.02746419096366, 0.1600000075995922, 0.11200000531971455, 1.008000047877431, 0.0, 0.0, 0.0, 0.0, 0.0, 1.651836409669785E9, 0.0, 2022-05-06 12:26:49.669
67.0, -234.34213122352958, -151.85302785085514, -177.50313169695437, -177.19458995060995, 0.1600000075995922, 0.11200000531971455, 1.008000047877431, 0.0, 0.0, 0.0, 0.0, 0.0, 1.6518364096707544E9, 0.0, 2022-05-06 12:26:49.670
67.0, -286.8503266014159, -225.4542589788325, -234.84327781759202, -220.99255833169445, 0.1600000075995922, 0.11200000531971455, 1.008000047877431, 0.0, 0.0, 0.0, 0.0, 0.0, 1.6518364096707544E9, 0.0, 2022-05-06 12:26:49.670
68.0, -255.25191187579185, -131.28731799451634, -153.04418598674238, -174.84967267839238, 0.1600000075995922, 0.11200000531971455, 1.008000047877431, 0.0, 0.0, 0.0, 0.0, 0.0, 1.6518364096848092E9, 0.0, 2022-05-06 12:26:49.684
68.0, -200.81766802072525, -61.83363591739908, -101.6392610957846, -134.92624065140262, 0.1600000075995922, 0.11200000531971455, 1.008000047877431, 0.0, 0.0, 0.0, 0.0, 0.0, 1.6518364096848092E9, 0.0, 2022-05-06 12:26:49.684
69.0, -235.2210077131167, -157.571334883105, -183.3074564281851, -182.9540358823724, 0.1600000075995922, 0.11200000531971455, 1.008000047877431, 0.0, 0.0, 0.0, 0.0, 0.0, 1.6518364096998224E9, 0.0, 2022-05-06 12:26:49.699
69.0, -277.3846398135647, -211.72882614145055, -219.68172339722514, -198.19786810176447, 0.1600000075995922, 0.11200000531971455, 1.008000047877431, 0.0, 0.0, 0.0, 0.0, 0.0, 1.6518364096998224E9, 0.0, 2022-05-06 12:26:49.699
70.0, -233.01446673925966, -117.22529416112229, -146.48814136441797, -167.51198896532878, 0.1600000075995922, 0.11200000531971455, 1.008000047877431, 0.0, 0.0, 0.0, 0.0, 0.0, 1.6518364097007303E9, 0.0, 2022-05-06 12:26:49.700
70.0, -209.90936481300741, -61.76257781824097, -108.91710640955716, -147.76905709924176, 0.1600000075995922, 0.11200000531971455, 1.008000047877431, 0.0, 0.0, 0.0, 0.0, 0.0, 1.6518364097007303E9, 0.0, 2022-05-06 12:26:49.700
71.0, -231.5559057565406, -149.96811827318743, -172.07653686124831, -169.7708885385655, 0.1600000075995922, 0.11200000531971455, 1.008000047877431, 0.0, 0.0, 0.0, 0.0, 0.0, 1.651836409730778E9, 0.0, 2022-05-06 12:26:49.730
71.0, -283.435797941871, -216.49719858495519, -227.1503036087379, -205.65522861341015, 0.1600000075995922, 0.11200000531971455, 1.008000047877431, 0.0, 0.0, 0.0, 0.0, 0.0, 1.651836409730778E9, 0.0, 2022-05-06 12:26:49.730
72.0, -248.01520546153188, -125.22120026638731, -156.4100959468633, -173.63794509274885, 0.1600000075995922, 0.11200000531971455, 1.008000047877431, 0.0, 0.0, 0.0, 0.0, 0.0, 1.6518364097317402E9, 0.0, 2022-05-06 12:26:49.731
72.0, -204.08634058199823, -65.5660560731776, -111.50885707885027, -141.48602517368272, 0.1600000075995922, 0.11200000531971455, 1.008000047877431, 0.0, 0.0, 0.0, 0.0, 0.0, 1.6518364097317402E9, 0.0, 2022-05-06 12:26:49.731
73.0, -223.27202735468745, -152.94881853787228, -181.59084234852344, -168.16273155761883, 0.1600000075995922, 0.11200000531971455, 1.008000047877431, 0.0, 0.0, 0.0, 0.0, 0.0, 1.6518364097327216E9, 0.0, 2022-05-06 12:26:49.732
73.0, -280.4663173770532, -211.0818234491162, -221.2524813786149, -203.72918013622984, 0.1600000075995922, 0.11200000531971455, 1.008000047877431, 0.0, 0.0, 0.0, 0.0, 0.0, 1.6518364097327216E9, 0.0, 2022-05-06 12:26:49.732
74.0, -249.72059984132648, -121.95252770511433, -151.79505940154195, -170.657244828064, 0.1600000075995922, 0.11200000531971455, 1.008000047877431, 0.0, 0.0, 0.0, 0.0, 0.0, 1.6518364097337189E9, 0.0, 2022-05-06 12:26:49.733
74.0, -200.0173294302076, -57.37567517021671, -105.3081029523164, -144.5677027371712, 0.1600000075995922, 0.11200000531971455, 1.008000047877431, 0.0, 0.0, 0.0, 0.0, 0.0, 1.6518364097337189E9, 0.0, 2022-05-06 12:26:49.733
75.0, -241.3694032402709, -162.88573272014037, -185.40928020328283, -186.87719093589112, 0.1600000075995922, 0.11200000531971455, 1.008000047877431, 0.0, 0.0, 0.0, 0.0, 0.0, 1.6518364097438517E9, 0.0, 2022-05-06 12:26:49.743
75.0, -283.15904534514993, -226.4191531674005, -230.87898386456072, -212.10655603697523, 0.1600000075995922, 0.11200000531971455, 1.008000047877431, 0.0, 0.0, 0.0, 0.0, 0.0, 1.6518364097438517E9, 0.0, 2022-05-06 12:26:49.743
76.0, -243.79285841155797, -120.19851462589577, -147.94670234713703, -159.93495165510103, 0.1600000075995922, 0.11200000531971455, 1.008000047877431, 0.0, 0.0, 0.0, 0.0, 0.0, 1.6518364097587824E9, 0.0, 2022-05-06 12:26:49.758
76.0, -209.55407431721687, -70.26711031747982, -111.95764507353306, -148.54695629002526, 0.1600000075995922, 0.11200000531971455, 1.008000047877431, 0.0, 0.0, 0.0, 0.0, 0.0, 1.6518364097587824E9, 0.0, 2022-05-06 12:26:49.758
77.0, -236.64964949619025, -157.53019598359242, -180.9400997562334, -171.7268562153913, 0.1600000075995922, 0.11200000531971455, 1.008000047877431, 0.0, 0.0, 0.0, 0.0, 0.0, 1.6518364097748072E9, 0.0, 2022-05-06 12:26:49.774
77.0, -280.63087297510356, -213.54641751991585, -226.23402811959386, -208.20210048323497, 0.1600000075995922, 0.11200000531971455, 1.008000047877431, 0.0, 0.0, 0.0, 0.0, 0.0, 1.6518364097748072E9, 0.0, 2022-05-06 12:26:49.774
78.0, -252.01689841412008, -130.50941880373284, -157.2927123364061, -176.81312015512958, 0.1600000075995922, 0.11200000531971455, 1.008000047877431, 0.0, 0.0, 0.0, 0.0, 0.0, 1.6518364097757175E9, 0.0, 2022-05-06 12:26:49.775
78.0, -215.68003044463694, -72.02112339669839, -117.63855310622603, -147.51100400229916, 0.1600000075995922, 0.11200000531971455, 1.008000047877431, 0.0, 0.0, 0.0, 0.0, 0.0, 1.6518364097757175E9, 0.0, 2022-05-06 12:26:49.775
79.0, -239.62286996096373, -164.22087700432166, -186.59856838919222, -179.72650222061202, 0.1600000075995922, 0.11200000531971455, 1.008000047877431, 0.0, 0.0, 0.0, 0.0, 0.0, 1.651836409788762E9, 0.0, 2022-05-06 12:26:49.788
79.0, -282.22033045627177, -218.28113086381927, -227.61405120324343, -209.3016310702078, 0.1600000075995922, 0.11200000531971455, 1.008000047877431, 0.0, 0.0, 0.0, 0.0, 0.0, 1.651836409788762E9, 0.0, 2022-05-06 12:26:49.788
80.0, -235.58003810886294, -123.5569447861053, -154.7047015670687, -165.8402536851354, 0.1600000075995922, 0.11200000531971455, 1.008000047877431, 0.0, 0.0, 0.0, 0.0, 0.0, 1.651836409804788E9, 0.0, 2022-05-06 12:26:49.804
80.0, -225.39255062956363, -74.52685636701062, -117.32440150994807, -142.94458615640178, 0.1600000075995922, 0.11200000531971455, 1.008000047877431, 0.0, 0.0, 0.0, 0.0, 0.0, 1.651836409804788E9, 0.0, 2022-05-06 12:26:49.804
81.0, -235.75955330673605, -164.15729870507494, -183.48323172610253, -183.91145027102903, 0.1600000075995922, 0.11200000531971455, 1.008000047877431, 0.0, 0.0, 0.0, 0.0, 0.0, 1.6518364098057148E9, 0.0, 2022-05-06 12:26:49.805
81.0, -288.85117307771, -217.94453986780718, -218.39145791251212, -204.17796813091263, 0.1600000075995922, 0.11200000531971455, 1.008000047877431, 0.0, 0.0, 0.0, 0.0, 0.0, 1.6518364098057148E9, 0.0, 2022-05-06 12:26:49.805
82.0, -277.6539126103744, -143.4232933507301, -171.6726276660338, -193.75860685436055, 0.1600000075995922, 0.11200000531971455, 1.008000047877431, 0.0, 0.0, 0.0, 0.0, 0.0, 1.651836409818777E9, 0.0, 2022-05-06 12:26:49.818
82.0, -218.7018696088344, -73.74147737631574, -118.5361290955916, -151.86050765076652, 0.1600000075995922, 0.11200000531971455, 1.008000047877431, 0.0, 0.0, 0.0, 0.0, 0.0, 1.651836409818777E9, 0.0, 2022-05-06 12:26:49.818
83.0, -258.69261983502656, -176.7308423561044, -204.15739868115634, -195.30318553606048, 0.1600000075995922, 0.11200000531971455, 1.008000047877431, 0.0, 0.0, 0.0, 0.0, 0.0, 1.6518364098348346E9, 0.0, 2022-05-06 12:26:49.834
83.0, -288.5482411812991, -226.36305466806516, -234.09529782645404, -212.61892233090475, 0.1600000075995922, 0.11200000531971455, 1.008000047877431, 0.0, 0.0, 0.0, 0.0, 0.0, 1.6518364098348346E9, 0.0, 2022-05-06 12:26:49.834
84.0, -258.58790263626724, -127.25196594232693, -157.93597512878478, -176.52140795858577, 0.1600000075995922, 0.11200000531971455, 1.008000047877431, 0.0, 0.0, 0.0, 0.0, 0.0, 1.651836409835739E9, 0.0, 2022-05-06 12:26:49.835
84.0, -218.9225237062201, -77.6870718295686, -117.48147730808705, -152.15595974726602, 0.1600000075995922, 0.11200000531971455, 1.008000047877431, 0.0, 0.0, 0.0, 0.0, 0.0, 1.651836409835739E9, 0.0, 2022-05-06 12:26:49.835
85.0, -252.59284300729632, -172.01482851197943, -195.89595967903733, -185.82627904834226, 0.1600000075995922, 0.11200000531971455, 1.008000047877431, 0.0, 0.0, 0.0, 0.0, 0.0, 1.6518364098487687E9, 0.0, 2022-05-06 12:26:49.848
85.0, -277.7174909096211, -214.20090001216158, -221.18890307936817, -193.98300085170195, 0.1600000075995922, 0.11200000531971455, 1.008000047877431, 0.0, 0.0, 0.0, 0.0, 0.0, 1.6518364098487687E9, 0.0, 2022-05-06 12:26:49.848
86.0, -254.31319698691368, -130.6777143017389, -155.2544668605551, -170.27203513262793, 0.1600000075995922, 0.11200000531971455, 1.008000047877431, 0.0, 0.0, 0.0, 0.0, 0.0, 1.6518364098647845E9, 0.0, 2022-05-06 12:26:49.864
86.0, -201.29263531509787, -62.813489705789834, -106.03738344367594, -139.51135799707845, 0.1600000075995922, 0.11200000531971455, 1.008000047877431, 0.0, 0.0, 0.0, 0.0, 0.0, 1.6518364098647845E9, 0.0, 2022-05-06 12:26:49.864
87.0, -258.62904153577983, -172.11954571073875, -189.67650605272502, -184.30787966633216, 0.1600000075995922, 0.11200000531971455, 1.008000047877431, 0.0, 0.0, 0.0, 0.0, 0.0, 1.651836409865716E9, 0.0, 2022-05-06 12:26:49.865
87.0, -295.97942239325494, -231.17630591103807, -235.8904498051852, -209.0809769728221, 0.1600000075995922, 0.11200000531971455, 1.008000047877431, 0.0, 0.0, 0.0, 0.0, 0.0, 1.651836409865716E9, 0.0, 2022-05-06 12:26:49.865
88.0, -271.3185220854357, -134.11094246106222, -166.6312425257638, -186.9931278345175, 0.1600000075995922, 0.11200000531971455, 1.008000047877431, 0.0, 0.0, 0.0, 0.0, 0.0, 1.6518364098787804E9, 0.0, 2022-05-06 12:26:49.878
88.0, -211.70077689178288, -64.717098783236, -111.53129647858441, -144.76965733477846, 0.1600000075995922, 0.11200000531971455, 1.008000047877431, 0.0, 0.0, 0.0, 0.0, 0.0, 1.6518364098787804E9, 0.0, 2022-05-06 12:26:49.878
89.0, -247.68609426543117, -162.130272929091, -177.12914170138538, -170.29447453236207, 0.1600000075995922, 0.11200000531971455, 1.008000047877431, 0.0, 0.0, 0.0, 0.0, 0.0, 1.651836409894775E9, 0.0, 2022-05-06 12:26:49.894
89.0, -292.3143204366788, -217.4508730736561, -230.13100387342274, -199.01690619206056, 0.1600000075995922, 0.11200000531971455, 1.008000047877431, 0.0, 0.0, 0.0, 0.0, 0.0, 1.651836409894775E9, 0.0, 2022-05-06 12:26:49.894
90.0, -248.61732935439795, -123.91971508180723, -161.87034988217056, -181.2187223029323, 0.1600000075995922, 0.11200000531971455, 1.008000047877431, 0.0, 0.0, 0.0, 0.0, 0.0, 1.6518364098957522E9, 0.0, 2022-05-06 12:26:49.895
90.0, -218.60089231003076, -71.72941120015457, -118.70442459359765, -153.32280853344128, 0.1600000075995922, 0.11200000531971455, 1.008000047877431, 0.0, 0.0, 0.0, 0.0, 0.0, 1.6518364098957522E9, 0.0, 2022-05-06 12:26:49.895
91.0, -249.65702154207975, -162.03303553024307, -187.34280848037452, -176.42791045969352, 0.1600000075995922, 0.11200000531971455, 1.008000047877431, 0.0, 0.0, 0.0, 0.0, 0.0, 1.6518364099087806E9, 0.0, 2022-05-06 12:26:49.908
91.0, -289.8796455655247, -220.24457834055647, -230.33295847103, -213.99520551459864, 0.1600000075995922, 0.11200000531971455, 1.008000047877431, 0.0, 0.0, 0.0, 0.0, 0.0, 1.6518364099087806E9, 0.0, 2022-05-06 12:26:49.908
92.0, -261.8378756977618, -136.98318562703207, -164.68275464884937, -187.2175218318589, 0.1600000075995922, 0.11200000531971455, 1.008000047877431, 0.0, 0.0, 0.0, 0.0, 0.0, 1.6518364099248016E9, 0.0, 2022-05-06 12:26:49.924
92.0, -216.67858373280615, -72.03608299652115, -117.44407830853015, -146.0487031196244, 0.1600000075995922, 0.11200000531971455, 1.008000047877431, 0.0, 0.0, 0.0, 0.0, 0.0, 1.6518364099248016E9, 0.0, 2022-05-06 12:26:49.924
93.0, -252.2300727115944, -172.93484390107915, -197.54525555949658, -190.38895699428394, 0.1600000075995922, 0.11200000531971455, 1.008000047877431, 0.0, 0.0, 0.0, 0.0, 0.0, 1.6518364099257317E9, 0.0, 2022-05-06 12:26:49.925
93.0, -292.41529773548245, -225.85068837413564, -236.38411659933627, -214.3430162104778, 0.1600000075995922, 0.11200000531971455, 1.008000047877431, 0.0, 0.0, 0.0, 0.0, 0.0, 1.6518364099257317E9, 0.0, 2022-05-06 12:26:49.925
94.0, -261.4152670027688, -123.5980836856179, -149.50998052861542, -166.30026137968525, 0.1600000075995922, 0.11200000531971455, 1.008000047877431, 0.0, 0.0, 0.0, 0.0, 0.0, 1.6518364099557853E9, 0.0, 2022-05-06 12:26:49.955
94.0, -216.08767953980714, -66.43745276285335, -112.59716796595603, -138.65492090722546, 0.1600000075995922, 0.11200000531971455, 1.008000047877431, 0.0, 0.0, 0.0, 0.0, 0.0, 1.6518364099557853E9, 0.0, 2022-05-06 12:26:49.955
95.0, -245.05694459658116, -161.6179066351615, -190.32724864501506, -172.7665484030731, 0.1600000075995922, 0.11200000531971455, 1.008000047877431, 0.0, 0.0, 0.0, 0.0, 0.0, 1.6518364099567275E9, 0.0, 2022-05-06 12:26:49.956
95.0, -294.75273520778865, -227.11477455915883, -234.90311621688306, -215.47620589705184, 0.1600000075995922, 0.11200000531971455, 1.008000047877431, 0.0, 0.0, 0.0, 0.0, 0.0, 1.6518364099567275E9, 0.0, 2022-05-06 12:26:49.956
96.0, -262.5783758889884, -125.50917256297544, -158.87095011770725, -178.55965343443677, 0.1600000075995922, 0.11200000531971455, 1.008000047877431, 0.0, 0.0, 0.0, 0.0, 0.0, 1.6518364099577243E9, 0.0, 2022-05-06 12:26:49.957
96.0, -222.4043705649674, -79.56076170736924, -128.05417448282242, -160.96716404287145, 0.1600000075995922, 0.11200000531971455, 1.008000047877431, 0.0, 0.0, 0.0, 0.0, 0.0, 1.6518364099577243E9, 0.0, 2022-05-06 12:26:49.957
97.0, -254.83304308075458, -170.24211593298241, -191.88304702658206, -195.6996149313636, 0.1600000075995922, 0.11200000531971455, 1.008000047877431, 0.0, 0.0, 0.0, 0.0, 0.0, 1.6518364099687889E9, 0.0, 2022-05-06 12:26:49.968
97.0, -294.6928968084976, -218.43820666195825, -227.23632130771875, -208.02632518531755, 0.1600000075995922, 0.11200000531971455, 1.008000047877431, 0.0, 0.0, 0.0, 0.0, 0.0, 1.6518364099687889E9, 0.0, 2022-05-06 12:26:49.968
98.0, -254.46653288509697, -122.67432839656249, -152.64401669148356, -161.89839913183823, 0.1600000075995922, 0.11200000531971455, 1.008000047877431, 0.0, 0.0, 0.0, 0.0, 0.0, 1.6518364099847834E9, 0.0, 2022-05-06 12:26:49.984
98.0, -211.0313347997144, -66.05598296737298, -108.98068470880389, -141.1232548779808, 0.1600000075995922, 0.11200000531971455, 1.008000047877431, 0.0, 0.0, 0.0, 0.0, 0.0, 1.6518364099847834E9, 0.0, 2022-05-06 12:26:49.984
99.0, -248.785624852404, -165.02869539475068, -189.99439754895866, -186.61913783894852, 0.1600000075995922, 0.11200000531971455, 1.008000047877431, 0.0, 0.0, 0.0, 0.0, 0.0, 1.6518364099857216E9, 0.0, 2022-05-06 12:26:49.985
99.0, -287.74790259078145, -223.47585190227255, -229.259607183747, -208.3367368816398, 0.1600000075995922, 0.11200000531971455, 1.008000047877431, 0.0, 0.0, 0.0, 0.0, 0.0, 1.6518364099857216E9, 0.0, 2022-05-06 12:26:49.985
100.0, -261.00013810768723, -128.59085012646392, -154.7757596662268, -166.36383967893198, 0.1600000075995922, 0.11200000531971455, 1.008000047877431, 0.0, 0.0, 0.0, 0.0, 0.0, 1.6518364099997933E9, 0.0, 2022-05-06 12:26:49.999
100.0, -217.3293263250962, -73.86489407485351, -120.92218526732177, -145.03519023163244, 0.1600000075995922, 0.11200000531971455, 1.008000047877431, 0.0, 0.0, 0.0, 0.0, 0.0, 1.6518364099997933E9, 0.0, 2022-05-06 12:26:49.999
0.0, -241.47973028896376, -174.87024212814867, -197.24419361306354, -194.1812155493535, 0.1600000075995922, 0.11200000531971455, 1.008000047877431, 0.0, 0.0, 0.0, 0.0, 0.0, 1.6518364100007193E9, 0.0, 2022-05-06 12:26:50.000
1.0, -298.95825270796195, -225.56084612756968, -235.724024257157, -220.26327784033492, 0.1600000075995922, 0.11200000531971455, 1.008000047877431, 0.0, 0.0, 0.0, 0.0, 0.0, 1.6518364100137715E9, 0.0, 2022-05-06 12:26:50.013
1.0, -265.83021890046075, -141.44675622414798, -174.03811438800767, -197.95851450460032, 0.1600000075995922, 0.11200000531971455, 1.008000047877431, 0.0, 0.0, 0.0, 0.0, 0.0, 1.6518364100137715E9, 0.0, 2022-05-06 12:26:50.013
2.0, -206.76223900029436, -73.71716802660376, -122.59953039744869, -154.80754881585017, 0.1600000075995922, 0.11200000531971455, 1.008000047877431, 0.0, 0.0, 0.0, 0.0, 0.0, 1.6518364100298345E9, 0.0, 2022-05-06 12:26:50.029
2.0, -262.5091877398081, -175.51350492052734, -198.42600199906155, -193.83714475343004, 0.1600000075995922, 0.11200000531971455, 1.008000047877431, 0.0, 0.0, 0.0, 0.0, 0.0, 1.6518364100298345E9, 0.0, 2022-05-06 12:26:50.029
3.0, -287.18130774749443, -213.07706007547677, -216.01849139062688, -192.12427057372406, 0.1600000075995922, 0.11200000531971455, 1.008000047877431, 0.0, 0.0, 0.0, 0.0, 0.0, 1.6518364100307574E9, 0.0, 2022-05-06 12:26:50.030
3.0, -254.1729507385753, -122.58644074760377, -151.17610595887527, -174.64771808078513, 0.1600000075995922, 0.11200000531971455, 1.008000047877431, 0.0, 0.0, 0.0, 0.0, 0.0, 1.6518364100307574E9, 0.0, 2022-05-06 12:26:50.030
4.0, -213.79699081694707, -74.07993832230568, -124.66395517298952, -151.3107423572801, 0.1600000075995922, 0.11200000531971455, 1.008000047877431, 0.0, 0.0, 0.0, 0.0, 0.0, 1.6518364100438716E9, 0.0, 2022-05-06 12:26:50.043
4.0, -255.33605962479487, -169.80641758814454, -193.87828365294263, -184.5472332634963, 0.1600000075995922, 0.11200000531971455, 1.008000047877431, 0.0, 0.0, 0.0, 0.0, 0.0, 1.6518364100438716E9, 0.0, 2022-05-06 12:26:50.043
5.0, -284.2567059821449, -217.90153101831675, -225.66369337635115, -206.3433702052571, 0.1600000075995922, 0.11200000531971455, 1.008000047877431, 0.0, 0.0, 0.0, 0.0, 0.0, 1.6518364100598516E9, 0.0, 2022-05-06 12:26:50.059
5.0, -260.0296340691857, -123.66353193484247, -155.37227370915934, -167.23523636860773, 0.1600000075995922, 0.11200000531971455, 1.008000047877431, 0.0, 0.0, 0.0, 0.0, 0.0, 1.6518364100598516E9, 0.0, 2022-05-06 12:26:50.059
6.0, -203.96105393348262, -58.34991910867393, -106.3309655901976, -127.17716794321314, 0.1600000075995922, 0.11200000531971455, 1.008000047877431, 0.0, 0.0, 0.0, 0.0, 0.0, 1.651836410074803E9, 0.0, 2022-05-06 12:26:50.074
6.0, -252.31048056064174, -170.70399357751012, -196.19702162547037, -185.72530174953863, 0.1600000075995922, 0.11200000531971455, 1.008000047877431, 0.0, 0.0, 0.0, 0.0, 0.0, 1.651836410074803E9, 0.0, 2022-05-06 12:26:50.074
7.0, -279.226540541742, -208.81731402594596, -225.44677917892113, -214.90774110378698, 0.1600000075995922, 0.11200000531971455, 1.008000047877431, 0.0, 0.0, 0.0, 0.0, 0.0, 1.6518364100759E9, 0.0, 2022-05-06 12:26:50.075
7.0, -247.45983031811193, -115.23005753476173, -145.7869101227261, -164.9464175957255, 0.1600000075995922, 0.11200000531971455, 1.008000047877431, 0.0, 0.0, 0.0, 0.0, 0.0, 1.6518364100759E9, 0.0, 2022-05-06 12:26:50.075
8.0, -220.00148484343663, -72.13519034534693, -119.24484013719484, -156.81587509205565, 0.1600000075995922, 0.11200000531971455, 1.008000047877431, 0.0, 0.0, 0.0, 0.0, 0.0, 1.6518364100897825E9, 0.0, 2022-05-06 12:26:50.089
8.0, -258.64213118562475, -178.1987530887127, -204.1480489312671, -196.15588272595778, 0.1600000075995922, 0.11200000531971455, 1.008000047877431, 0.0, 0.0, 0.0, 0.0, 0.0, 1.6518364100897825E9, 0.0, 2022-05-06 12:26:50.089
9.0, -287.76099224062636, -227.39713700581342, -240.62703309906647, -223.14300080621615, 0.1600000075995922, 0.11200000531971455, 1.008000047877431, 0.0, 0.0, 0.0, 0.0, 0.0, 1.6518364100907524E9, 0.0, 2022-05-06 12:26:50.090
9.0, -253.0995994512923, -127.75498248636723, -157.48157728416845, -182.7371216849424, 0.1600000075995922, 0.11200000531971455, 1.008000047877431, 0.0, 0.0, 0.0, 0.0, 0.0, 1.6518364100907524E9, 0.0, 2022-05-06 12:26:50.090
10.0, -229.25025743385777, -76.36501719523221, -115.86397057725117, -147.6045015011914, 0.1600000075995922, 0.11200000531971455, 1.008000047877431, 0.0, 0.0, 0.0, 0.0, 0.0, 1.6518364101037745E9, 0.0, 2022-05-06 12:26:50.103
10.0, -250.75468217907473, -178.43062688596547, -189.30064610717818, -168.15151185775176, 0.1600000075995922, 0.11200000531971455, 1.008000047877431, 0.0, 0.0, 0.0, 0.0, 0.0, 1.6518364101037745E9, 0.0, 2022-05-06 12:26:50.103
11.0, -291.830003392417, -224.7717272369191, -239.5761212115176, -216.43736018566415, 0.1600000075995922, 0.11200000531971455, 1.008000047877431, 0.0, 0.0, 0.0, 0.0, 0.0, 1.6518364101357675E9, 0.0, 2022-05-06 12:26:50.135
11.0, -259.0983989802189, -121.55796825978905, -158.53248917171732, -184.08722556894645, 0.1600000075995922, 0.11200000531971455, 1.008000047877431, 0.0, 0.0, 0.0, 0.0, 0.0, 1.6518364101357675E9, 0.0, 2022-05-06 12:26:50.135
12.0, -210.6405152543448, -70.04458627011627, -114.82801828952506, -146.14968041842803, 0.1600000075995922, 0.11200000531971455, 1.008000047877431, 0.0, 0.0, 0.0, 0.0, 0.0, 1.651836410136752E9, 0.0, 2022-05-06 12:26:50.136
12.0, -253.49602884659544, -177.36849529854953, -195.59863763255998, -180.53432061104104, 0.1600000075995922, 0.11200000531971455, 1.008000047877431, 0.0, 0.0, 0.0, 0.0, 0.0, 1.651836410136752E9, 0.0, 2022-05-06 12:26:50.136
13.0, -275.94664828060195, -217.30688692536205, -221.88639442110434, -205.13912241952494, 0.1600000075995922, 0.11200000531971455, 1.008000047877431, 0.0, 0.0, 0.0, 0.0, 0.0, 1.651836410137727E9, 0.0, 2022-05-06 12:26:50.137
13.0, -257.12373180361465, -121.29991516284645, -153.1245938357897, -179.1767369271256, 0.1600000075995922, 0.11200000531971455, 1.008000047877431, 0.0, 0.0, 0.0, 0.0, 0.0, 1.651836410137727E9, 0.0, 2022-05-06 12:26:50.137
14.0, -217.33493617502972, -74.05749892257154, -114.7793995901011, -145.04267003154382, 0.1600000075995922, 0.11200000531971455, 1.008000047877431, 0.0, 0.0, 0.0, 0.0, 0.0, 1.6518364101387243E9, 0.0, 2022-05-06 12:26:50.138
14.0, -242.94203117163852, -169.4099881928414, -192.7750131660141, -175.0665868758224, 0.1600000075995922, 0.11200000531971455, 1.008000047877431, 0.0, 0.0, 0.0, 0.0, 0.0, 1.6518364101387243E9, 0.0, 2022-05-06 12:26:50.138
15.0, -291.58690989529714, -225.71418202575296, -234.28790267417207, -216.5645167841576, 0.1600000075995922, 0.11200000531971455, 1.008000047877431, 0.0, 0.0, 0.0, 0.0, 0.0, 1.6518364101487937E9, 0.0, 2022-05-06 12:26:50.148
15.0, -244.04156175861135, -114.9084261385724, -149.1229008832015, -172.6917504039593, 0.1600000075995922, 0.11200000531971455, 1.008000047877431, 0.0, 0.0, 0.0, 0.0, 0.0, 1.6518364101487937E9, 0.0, 2022-05-06 12:26:50.148
16.0, -216.17930708872154, -72.04169284645468, -121.93382820533589, -154.99454381363466, 0.1600000075995922, 0.11200000531971455, 1.008000047877431, 0.0, 0.0, 0.0, 0.0, 0.0, 1.6518364101637912E9, 0.0, 2022-05-06 12:26:50.163
16.0, -227.8253555507399, -155.49008055776358, -175.807087067049, -164.69958419864997, 0.1600000075995922, 0.11200000531971455, 1.008000047877431, 0.0, 0.0, 0.0, 0.0, 0.0, 1.6518364101637912E9, 0.0, 2022-05-06 12:26:50.163
17.0, -289.5224851197563, -218.11096541583538, -225.0540896835737, -203.54218513844535, 0.1600000075995922, 0.11200000531971455, 1.008000047877431, 0.0, 0.0, 0.0, 0.0, 0.0, 1.651836410179784E9, 0.0, 2022-05-06 12:26:50.179
17.0, -250.6574447802268, -117.42163890879601, -151.95400514965877, -174.89081157790497, 0.1600000075995922, 0.11200000531971455, 1.008000047877431, 0.0, 0.0, 0.0, 0.0, 0.0, 1.651836410179784E9, 0.0, 2022-05-06 12:26:50.179
18.0, -206.17507470725104, -69.68181597441435, -110.75526723777875, -141.26163117634133, 0.1600000075995922, 0.11200000531971455, 1.008000047877431, 0.0, 0.0, 0.0, 0.0, 0.0, 1.6518364101807384E9, 0.0, 2022-05-06 12:26:50.180
18.0, -240.93370489543304, -171.76986506488174, -193.12282386189327, -177.09735255176201, 0.1600000075995922, 0.11200000531971455, 1.008000047877431, 0.0, 0.0, 0.0, 0.0, 0.0, 1.6518364101807384E9, 0.0, 2022-05-06 12:26:50.180
19.0, -285.8199841636233, -218.89634440653026, -229.54196963040158, -218.07169646630064, 0.1600000075995922, 0.11200000531971455, 1.008000047877431, 0.0, 0.0, 0.0, 0.0, 0.0, 1.6518364101938283E9, 0.0, 2022-05-06 12:26:50.193
19.0, -269.9628083514981, -131.5023622419685, -156.8009154922329, -181.63011129805818, 0.1600000075995922, 0.11200000531971455, 1.008000047877431, 0.0, 0.0, 0.0, 0.0, 0.0, 1.6518364101938283E9, 0.0, 2022-05-06 12:26:50.193
20.0, -219.2348053525202, -75.8526509013027, -122.43871469935402, -149.13412058306858, 0.1600000075995922, 0.11200000531971455, 1.008000047877431, 0.0, 0.0, 0.0, 0.0, 0.0, 1.6518364102098331E9, 0.0, 2022-05-06 12:26:50.209
20.0, -248.26764870854095, -171.32855687011033, -187.60273152729496, -179.618045121897, 0.1600000075995922, 0.11200000531971455, 1.008000047877431, 0.0, 0.0, 0.0, 0.0, 0.0, 1.6518364102098331E9, 0.0, 2022-05-06 12:26:50.209
21.0, -285.0121657731943, -220.30628668982536, -223.2028392055072, -204.8212309232913, 0.1600000075995922, 0.11200000531971455, 1.008000047877431, 0.0, 0.0, 0.0, 0.0, 0.0, 1.6518364102247984E9, 0.0, 2022-05-06 12:26:50.224
21.0, -244.68482455099002, -115.15899943560362, -145.55877622542903, -175.84822596656159, 0.1600000075995922, 0.11200000531971455, 1.008000047877431, 0.0, 0.0, 0.0, 0.0, 0.0, 1.6518364102247984E9, 0.0, 2022-05-06 12:26:50.224
22.0, -196.9300420167856, -61.9177836664021, -106.4020236893557, -128.97979972185567, 0.1600000075995922, 0.11200000531971455, 1.008000047877431, 0.0, 0.0, 0.0, 0.0, 0.0, 1.6518364102257335E9, 0.0, 2022-05-06 12:26:50.225
22.0, -245.3991454425268, -181.8601151453331, -199.86960338195786, -174.26998818526044, 0.1600000075995922, 0.11200000531971455, 1.008000047877431, 0.0, 0.0, 0.0, 0.0, 0.0, 1.6518364102257335E9, 0.0, 2022-05-06 12:26:50.225
23.0, -285.94340086216107, -212.55347408168018, -222.18932631751522, -206.43312780419365, 0.1600000075995922, 0.11200000531971455, 1.008000047877431, 0.0, 0.0, 0.0, 0.0, 0.0, 1.6518364102397711E9, 0.0, 2022-05-06 12:26:50.239
23.0, -255.7736279196106, -111.70333187654614, -148.07198899565265, -174.7299958798103, 0.1600000075995922, 0.11200000531971455, 1.008000047877431, 0.0, 0.0, 0.0, 0.0, 0.0, 1.6518364102397711E9, 0.0, 2022-05-06 12:26:50.239
24.0, -205.7038473128341, -66.87315110769123, -110.05216604610905, -145.30072312848642, 0.1600000075995922, 0.11200000531971455, 1.008000047877431, 0.0, 0.0, 0.0, 0.0, 0.0, 1.6518364102407205E9, 0.0, 2022-05-06 12:26:50.240
24.0, -239.41156561346725, -163.4822467630729, -185.38123095361516, -170.16357803391293, 0.1600000075995922, 0.11200000531971455, 1.008000047877431, 0.0, 0.0, 0.0, 0.0, 0.0, 1.6518364102407205E9, 0.0, 2022-05-06 12:26:50.240
25.0, -286.80357785196975, -208.3535664314404, -218.20633286470547, -195.24334713676944, 0.1600000075995922, 0.11200000531971455, 1.008000047877431, 0.0, 0.0, 0.0, 0.0, 0.0, 1.6518364102537844E9, 0.0, 2022-05-06 12:26:50.253
25.0, -256.63754480937496, -116.17999212350696, -154.9122660146095, -179.64796432154253, 0.1600000075995922, 0.11200000531971455, 1.008000047877431, 0.0, 0.0, 0.0, 0.0, 0.0, 1.6518364102537844E9, 0.0, 2022-05-06 12:26:50.253
26.0, -219.65367414755747, -76.56323189288378, -127.60351653816178, -166.88368577277288, 0.1600000075995922, 0.11200000531971455, 1.008000047877431, 0.0, 0.0, 0.0, 0.0, 0.0, 1.651836410285802E9, 0.0, 2022-05-06 12:26:50.285
26.0, -245.47768334159628, -173.3406230462715, -200.20993427792564, -190.67692929087207, 0.1600000075995922, 0.11200000531971455, 1.008000047877431, 0.0, 0.0, 0.0, 0.0, 0.0, 1.651836410285802E9, 0.0, 2022-05-06 12:26:50.285
27.0, -284.69427427696064, -222.67738326173276, -224.33976879203692, -202.45387425133958, 0.1600000075995922, 0.11200000531971455, 1.008000047877431, 0.0, 0.0, 0.0, 0.0, 0.0, 1.651836410286736E9, 0.0, 2022-05-06 12:26:50.286
27.0, -246.26306233229116, -119.10833378881216, -145.40544032724574, -169.93918403657153, 0.1600000075995922, 0.11200000531971455, 1.008000047877431, 0.0, 0.0, 0.0, 0.0, 0.0, 1.651836410286736E9, 0.0, 2022-05-06 12:26:50.286
28.0, -211.4520735447295, -69.06473248172551, -117.12431686231866, -140.7941436818801, 0.1600000075995922, 0.11200000531971455, 1.008000047877431, 0.0, 0.0, 0.0, 0.0, 0.0, 1.6518364102877295E9, 0.0, 2022-05-06 12:26:50.287
28.0, -256.0690800161101, -182.36126173939556, -197.20679461350664, -194.12885694997385, 0.1600000075995922, 0.11200000531971455, 1.008000047877431, 0.0, 0.0, 0.0, 0.0, 0.0, 1.6518364102877295E9, 0.0, 2022-05-06 12:26:50.287
29.0, -285.5282719670795, -214.5431008581072, -218.07917626621202, -201.57125786179677, 0.1600000075995922, 0.11200000531971455, 1.008000047877431, 0.0, 0.0, 0.0, 0.0, 0.0, 1.6518364102887073E9, 0.0, 2022-05-06 12:26:50.288
29.0, -239.1310731167905, -109.4593919031322, -140.566009784583, -170.97887622425333, 0.1600000075995922, 0.11200000531971455, 1.008000047877431, 0.0, 0.0, 0.0, 0.0, 0.0, 1.6518364102887073E9, 0.0, 2022-05-06 12:26:50.288
30.0, -206.380769204814, -73.47033462952822, -119.1476027383469, -155.9482183023356, 0.1600000075995922, 0.11200000531971455, 1.008000047877431, 0.0, 0.0, 0.0, 0.0, 0.0, 1.6518364102987683E9, 0.0, 2022-05-06 12:26:50.298
30.0, -248.9520504004322, -173.62111554294825, -190.68440909078345, -178.93738332996145, 0.1600000075995922, 0.11200000531971455, 1.008000047877431, 0.0, 0.0, 0.0, 0.0, 0.0, 1.6518364102987683E9, 0.0, 2022-05-06 12:26:50.298
31.0, -280.58412422565743, -218.59715241007507, -222.66055371193215, -197.77151950681582, 0.1600000075995922, 0.11200000531971455, 1.008000047877431, 0.0, 0.0, 0.0, 0.0, 0.0, 1.651836410313768E9, 0.0, 2022-05-06 12:26:50.313
31.0, -250.23857598518953, -110.4205461917445, -144.5639628372155, -165.4625237896107, 0.1600000075995922, 0.11200000531971455, 1.008000047877431, 0.0, 0.0, 0.0, 0.0, 0.0, 1.651836410313768E9, 0.0, 2022-05-06 12:26:50.313
32.0, -205.1540820193477, -68.18585599213839, -111.2190148322843, -136.7924507292919, 0.1600000075995922, 0.11200000531971455, 1.008000047877431, 0.0, 0.0, 0.0, 0.0, 0.0, 1.6518364103297777E9, 0.0, 2022-05-06 12:26:50.329
32.0, -244.9914963473566, -172.24857225921005, -196.86646371753886, -178.49607513519004, 0.1600000075995922, 0.11200000531971455, 1.008000047877431, 0.0, 0.0, 0.0, 0.0, 0.0, 1.6518364103297777E9, 0.0, 2022-05-06 12:26:50.329
33.0, -292.02447819011286, -220.61295848619193, -228.44991884334013, -207.4167214925401, 0.1600000075995922, 0.11200000531971455, 1.008000047877431, 0.0, 0.0, 0.0, 0.0, 0.0, 1.651836410330742E9, 0.0, 2022-05-06 12:26:50.330
33.0, -255.51931472262368, -122.19749115221202, -156.85327409161255, -182.97273538215086, 0.1600000075995922, 0.11200000531971455, 1.008000047877431, 0.0, 0.0, 0.0, 0.0, 0.0, 1.651836410330742E9, 0.0, 2022-05-06 12:26:50.330
34.0, -210.59189655492082, -73.16366283316165, -116.7428470668383, -150.04291627230123, 0.1600000075995922, 0.11200000531971455, 1.008000047877431, 0.0, 0.0, 0.0, 0.0, 0.0, 1.651836410343884E9, 0.0, 2022-05-06 12:26:50.343
34.0, -246.00874913530424, -171.971819662489, -194.43178884638473, -182.93907628254965, 0.1600000075995922, 0.11200000531971455, 1.008000047877431, 0.0, 0.0, 0.0, 0.0, 0.0, 1.651836410343884E9, 0.0, 2022-05-06 12:26:50.343
35.0, -287.54033814324066, -216.97403582930565, -229.1978988344781, -215.53604429634288, 0.1600000075995922, 0.11200000531971455, 1.008000047877431, 0.0, 0.0, 0.0, 0.0, 0.0, 1.6518364103597963E9, 0.0, 2022-05-06 12:26:50.359
35.0, -237.90064603136852, -113.67425915319473, -146.6844861120917, -171.87271231366321, 0.1600000075995922, 0.11200000531971455, 1.008000047877431, 0.0, 0.0, 0.0, 0.0, 0.0, 1.6518364103597963E9, 0.0, 2022-05-06 12:26:50.359
36.0, -204.8960289224051, -68.8852172838524, -115.45258158212528, -150.56276236614212, 0.1600000075995922, 0.11200000531971455, 1.008000047877431, 0.0, 0.0, 0.0, 0.0, 0.0, 1.6518364103607347E9, 0.0, 2022-05-06 12:26:50.360
36.0, -249.73742939112708, -180.82042295765132, -194.8543975413777, -185.89733714750037, 0.1600000075995922, 0.11200000531971455, 1.008000047877431, 0.0, 0.0, 0.0, 0.0, 0.0, 1.6518364103607347E9, 0.0, 2022-05-06 12:26:50.360
37.0, -283.72190028848127, -215.8782451422885, -217.98941866727546, -197.02353951567784, 0.1600000075995922, 0.11200000531971455, 1.008000047877431, 0.0, 0.0, 0.0, 0.0, 0.0, 1.651836410373768E9, 0.0, 2022-05-06 12:26:50.373
37.0, -243.94058445980772, -112.60464776586741, -149.32859538076445, -170.6198458285071, 0.1600000075995922, 0.11200000531971455, 1.008000047877431, 0.0, 0.0, 0.0, 0.0, 0.0, 1.651836410373768E9, 0.0, 2022-05-06 12:26:50.373
38.0, -210.16928785992786, -65.34727192576975, -112.56537881633267, -142.98572505591437, 0.1600000075995922, 0.11200000531971455, 1.008000047877431, 0.0, 0.0, 0.0, 0.0, 0.0, 1.6518364103898008E9, 0.0, 2022-05-06 12:26:50.389
38.0, -253.02106155222282, -181.39262765087187, -196.997360215988, -187.98420132277533, 0.1600000075995922, 0.11200000531971455, 1.008000047877431, 0.0, 0.0, 0.0, 0.0, 0.0, 1.6518364103898008E9, 0.0, 2022-05-06 12:26:50.389
39.0, -275.7484335829504, -209.37829901929945, -212.8283567284234, -202.50623285071924, 0.1600000075995922, 0.11200000531971455, 1.008000047877431, 0.0, 0.0, 0.0, 0.0, 0.0, 1.651836410390731E9, 0.0, 2022-05-06 12:26:50.390
39.0, -237.88194653159007, -105.67461314797401, -141.13073467789218, -166.85750647308305, 0.1600000075995922, 0.11200000531971455, 1.008000047877431, 0.0, 0.0, 0.0, 0.0, 0.0, 1.651836410390731E9, 0.0, 2022-05-06 12:26:50.390
40.0, -194.89927634084597, -59.370911796577275, -108.70954196201637, -140.28925718786195, 0.1600000075995922, 0.11200000531971455, 1.008000047877431, 0.0, 0.0, 0.0, 0.0, 0.0, 1.6518364104207716E9, 0.0, 2022-05-06 12:26:50.420
40.0, -249.82344709010795, -176.7551517058164, -193.19388196105137, -172.12328561069444, 0.1600000075995922, 0.11200000531971455, 1.008000047877431, 0.0, 0.0, 0.0, 0.0, 0.0, 1.6518364104207716E9, 0.0, 2022-05-06 12:26:50.420
41.0, -290.4537202087231, -216.63370493333787, -226.52013046620414, -207.55135789094493, 0.1600000075995922, 0.11200000531971455, 1.008000047877431, 0.0, 0.0, 0.0, 0.0, 0.0, 1.6518364104218037E9, 0.0, 2022-05-06 12:26:50.421
41.0, -242.58674067584798, -109.51923030242324, -152.25319714611396, -175.88562496611848, 0.1600000075995922, 0.11200000531971455, 1.008000047877431, 0.0, 0.0, 0.0, 0.0, 0.0, 1.6518364104218037E9, 0.0, 2022-05-06 12:26:50.421
42.0, -198.45966109866276, -65.85215841978788, -110.9609617353417, -145.65227372432128, 0.1600000075995922, 0.11200000531971455, 1.008000047877431, 0.0, 0.0, 0.0, 0.0, 0.0, 1.6518364104227173E9, 0.0, 2022-05-06 12:26:50.422
42.0, -259.9510961701162, -183.85722172167152, -197.5209462097846, -182.68476308556274, 0.1600000075995922, 0.11200000531971455, 1.008000047877431, 0.0, 0.0, 0.0, 0.0, 0.0, 1.6518364104227173E9, 0.0, 2022-05-06 12:26:50.422
43.0, -278.01481295609847, -212.82274687848985, -219.87806814489886, -188.7733202134259, 0.1600000075995922, 0.11200000531971455, 1.008000047877431, 0.0, 0.0, 0.0, 0.0, 0.0, 1.6518364104338117E9, 0.0, 2022-05-06 12:26:50.433
43.0, -246.1359057337977, -101.91975359246135, -137.17392052477226, -172.78524790285155, 0.1600000075995922, 0.11200000531971455, 1.008000047877431, 0.0, 0.0, 0.0, 0.0, 0.0, 1.6518364104338117E9, 0.0, 2022-05-06 12:26:50.433
44.0, -210.58067685505375, -70.02588677033782, -113.27221990795806, -147.6119813011028, 0.1600000075995922, 0.11200000531971455, 1.008000047877431, 0.0, 0.0, 0.0, 0.0, 0.0, 1.6518364104497945E9, 0.0, 2022-05-06 12:26:50.449
44.0, -251.60737936897203, -187.43630597926676, -205.041885020677, -196.21198122529313, 0.1600000075995922, 0.11200000531971455, 1.008000047877431, 0.0, 0.0, 0.0, 0.0, 0.0, 1.6518364104497945E9, 0.0, 2022-05-06 12:26:50.449
45.0, -295.3380295508541, -230.43019586987793, -240.82524779671803, -214.79554410511628, 0.1600000075995922, 0.11200000531971455, 1.008000047877431, 0.0, 0.0, 0.0, 0.0, 0.0, 1.651836410450718E9, 0.0, 2022-05-06 12:26:50.450
45.0, -254.94337012944743, -117.58245460689068, -154.45225832005963, -181.37579810107127, 0.1600000075995922, 0.11200000531971455, 1.008000047877431, 0.0, 0.0, 0.0, 0.0, 0.0, 1.651836410450718E9, 0.0, 2022-05-06 12:26:50.450
46.0, -213.11258912505582, -79.63368975650519, -124.92200826993212, -157.1711655878462, 0.1600000075995922, 0.11200000531971455, 1.008000047877431, 0.0, 0.0, 0.0, 0.0, 0.0, 1.6518364104637651E9, 0.0, 2022-05-06 12:26:50.463
46.0, -261.5143743515946, -195.93709857854992, -209.39138866914436, -199.8172447825782, 0.1600000075995922, 0.11200000531971455, 1.008000047877431, 0.0, 0.0, 0.0, 0.0, 0.0, 1.6518364104637651E9, 0.0, 2022-05-06 12:26:50.463
47.0, -288.5987298307009, -228.53780649229884, -228.3526814444922, -212.92559412727132, 0.1600000075995922, 0.11200000531971455, 1.008000047877431, 0.0, 0.0, 0.0, 0.0, 0.0, 1.6518364104797919E9, 0.0, 2022-05-06 12:26:50.479
47.0, -233.07991498848423, -100.21061931271106, -134.39143495773897, -158.70826446963474, 0.1600000075995922, 0.11200000531971455, 1.008000047877431, 0.0, 0.0, 0.0, 0.0, 0.0, 1.6518364104797919E9, 0.0, 2022-05-06 12:26:50.479
48.0, -208.27689848234877, -68.89269708376378, -121.49999981047586, -151.56131565431133, 0.1600000075995922, 0.11200000531971455, 1.008000047877431, 0.0, 0.0, 0.0, 0.0, 0.0, 1.6518364104807105E9, 0.0, 2022-05-06 12:26:50.480
48.0, -248.66781800379977, -175.8949747160077, -194.1438165497966, -175.07406667573377, 0.1600000075995922, 0.11200000531971455, 1.008000047877431, 0.0, 0.0, 0.0, 0.0, 0.0, 1.6518364104807105E9, 0.0, 2022-05-06 12:26:50.480
49.0, -287.47675984399393, -217.75941482000053, -223.88350099744275, -208.53121167933568, 0.1600000075995922, 0.11200000531971455, 1.008000047877431, 0.0, 0.0, 0.0, 0.0, 0.0, 1.6518364104937737E9, 0.0, 2022-05-06 12:26:50.493
49.0, -234.4636779720895, -97.03918415028602, -130.70389360142872, -157.70597128150985, 0.1600000075995922, 0.11200000531971455, 1.008000047877431, 0.0, 0.0, 0.0, 0.0, 0.0, 1.6518364104937737E9, 0.0, 2022-05-06 12:26:50.493
50.0, -193.43323555821553, -65.79605992045254, -114.77191979018971, -141.9385530683212, 0.1600000075995922, 0.11200000531971455, 1.0240000486373901, 0.0, 0.0, 0.0, 0.0, 0.0, 1.6518364105098453E9, 0.0, 2022-05-06 12:26:50.509
50.0, -244.6511654513888, -175.70423981826752, -195.42286233464256, -185.96839524665847, 0.1600000075995922, 0.11200000531971455, 1.0240000486373901, 0.0, 0.0, 0.0, 0.0, 0.0, 1.6518364105098453E9, 0.0, 2022-05-06 12:26:50.509
51.0, -283.68824118888006, -210.98271610029042, -220.3455556393601, -201.1935279662721, 0.1600000075995922, 0.11200000531971455, 1.0240000486373901, 0.0, 0.0, 0.0, 0.0, 0.0, 1.6518364105107603E9, 0.0, 2022-05-06 12:26:50.510
51.0, -243.00186957092956, -102.94448618032038, -139.8591686929576, -168.45070385420695, 0.1600000075995922, 0.11200000531971455, 1.0240000486373901, 0.0, 0.0, 0.0, 0.0, 0.0, 1.6518364105107603E9, 0.0, 2022-05-06 12:26:50.510
52.0, -207.5663174907677, -68.93383598327637, -117.42350885877386, -154.17176582338288, 0.1600000075995922, 0.11200000531971455, 1.0240000486373901, 0.0, 0.0, 0.0, 0.0, 0.0, 1.6518364105237896E9, 0.0, 2022-05-06 12:26:50.523
52.0, -247.40747171873227, -176.03709091432393, -190.64701009122655, -171.0948131228797, 0.1600000075995922, 0.11200000531971455, 1.0240000486373901, 0.0, 0.0, 0.0, 0.0, 0.0, 1.6518364105237896E9, 0.0, 2022-05-06 12:26:50.523
53.0, -278.3289645523764, -214.7637549554929, -219.4965983494185, -206.44060760410503, 0.1600000075995922, 0.11200000531971455, 1.0240000486373901, 0.0, 0.0, 0.0, 0.0, 0.0, 1.6518364105397954E9, 0.0, 2022-05-06 12:26:50.539
53.0, -248.22276990907267, -103.13148117810488, -142.43595976242796, -172.0971063110046, 0.1600000075995922, 0.11200000531971455, 1.0240000486373901, 0.0, 0.0, 0.0, 0.0, 0.0, 1.6518364105397954E9, 0.0, 2022-05-06 12:26:50.539
54.0, -202.76054604770616, -65.11165822856128, -113.8145054015331, -143.57662924891338, 0.1600000075995922, 0.11200000531971455, 1.0240000486373901, 0.0, 0.0, 0.0, 0.0, 0.0, 1.65183641055477E9, 0.0, 2022-05-06 12:26:50.554
54.0, -251.1398918745108, -179.03275077883154, -197.371350211557, -185.45976885268465, 0.1600000075995922, 0.11200000531971455, 1.0240000486373901, 0.0, 0.0, 0.0, 0.0, 0.0, 1.65183641055477E9, 0.0, 2022-05-06 12:26:50.554
55.0, -282.9963596970774, -211.52874149382114, -221.1271947300993, -204.86236982280388, 0.1600000075995922, 0.11200000531971455, 1.0240000486373901, 0.0, 0.0, 0.0, 0.0, 0.0, 1.6518364105557356E9, 0.0, 2022-05-06 12:26:50.555
55.0, -239.28814891492948, -105.0126508558169, -141.44862617412582, -172.9909424004145, 0.1600000075995922, 0.11200000531971455, 1.0240000486373901, 0.0, 0.0, 0.0, 0.0, 0.0, 1.6518364105557356E9, 0.0, 2022-05-06 12:26:50.555
56.0, -212.72737942961976, -75.13459010981023, -126.19731415482238, -155.85472080344334, 0.1600000075995922, 0.11200000531971455, 1.0240000486373901, 0.0, 0.0, 0.0, 0.0, 0.0, 1.6518364105698023E9, 0.0, 2022-05-06 12:26:50.569
56.0, -253.77652134327218, -184.44064611475915, -203.21681384230033, -186.4358827411197, 0.1600000075995922, 0.11200000531971455, 1.0240000486373901, 0.0, 0.0, 0.0, 0.0, 0.0, 1.6518364105698023E9, 0.0, 2022-05-06 12:26:50.569
57.0, -273.02204651525244, -209.37455911934376, -210.81629055226222, -205.05310472054407, 0.1600000075995922, 0.11200000531971455, 1.0240000486373901, 0.0, 0.0, 0.0, 0.0, 0.0, 1.651836410570748E9, 0.0, 2022-05-06 12:26:50.570
57.0, -243.4319580658339, -102.0469101909548, -142.36864156322554, -170.3954518311657, 0.1600000075995922, 0.11200000531971455, 1.0240000486373901, 0.0, 0.0, 0.0, 0.0, 0.0, 1.651836410570748E9, 0.0, 2022-05-06 12:26:50.570
58.0, -202.73810664797202, -60.515321183018386, -108.30189286684617, -135.54706404404715, 0.1600000075995922, 0.11200000531971455, 1.0240000486373901, 0.0, 0.0, 0.0, 0.0, 0.0, 1.651836410583829E9, 0.0, 2022-05-06 12:26:50.583
58.0, -249.93564408877864, -174.60844913125038, -191.61938407970592, -174.87211207812652, 0.1600000075995922, 0.11200000531971455, 1.0240000486373901, 0.0, 0.0, 0.0, 0.0, 0.0, 1.651836410583829E9, 0.0, 2022-05-06 12:26:50.583
59.0, -265.49736780440435, -202.2762290034443, -211.4184144451283, -194.28967264806852, 0.1600000075995922, 0.11200000531971455, 1.0240000486373901, 0.0, 0.0, 0.0, 0.0, 0.0, 1.6518364105997715E9, 0.0, 2022-05-06 12:26:50.599
59.0, -240.65695229871199, -102.81358968187124, -138.0116581148468, -160.99708324251696, 0.1600000075995922, 0.11200000531971455, 1.0240000486373901, 0.0, 0.0, 0.0, 0.0, 0.0, 1.6518364105997715E9, 0.0, 2022-05-06 12:26:50.599
60.0, -208.8565829754807, -69.23676787968725, -112.44570201775059, -138.62126180762425, 0.1600000075995922, 0.11200000531971455, 1.008000047877431, 0.0, 0.0, 0.0, 0.0, 0.0, 1.6518364106007242E9, 0.0, 2022-05-06 12:26:50.600
60.0, -252.68073065625504, -183.33363572787493, -200.83449757052585, -184.52479386376217, 0.1600000075995922, 0.11200000531971455, 1.008000047877431, 0.0, 0.0, 0.0, 0.0, 0.0, 1.6518364106007242E9, 0.0, 2022-05-06 12:26:50.600
61.0, -278.08961095521227, -209.26236212067306, -214.3018773109652, -196.39897622307763, 0.1600000075995922, 0.11200000531971455, 1.008000047877431, 0.0, 0.0, 0.0, 0.0, 0.0, 1.6518364106137836E9, 0.0, 2022-05-06 12:26:50.613
61.0, -236.2102112513967, -99.57857622019947, -137.68254691874608, -164.6472255992703, 0.1600000075995922, 0.11200000531971455, 1.008000047877431, 0.0, 0.0, 0.0, 0.0, 0.0, 1.6518364106137836E9, 0.0, 2022-05-06 12:26:50.613
62.0, -216.7141127823852, -74.90271631255746, -122.02732570422813, -151.46781815541908, 0.17600000835955143, 0.11200000531971455, 1.008000047877431, 0.0, 0.0, 0.0, 0.0, 0.0, 1.651836410629771E9, 0.0, 2022-05-06 12:26:50.629
62.0, -250.37321238359436, -185.43545950297266, -203.7441397360526, -186.9183298354037, 0.17600000835955143, 0.11200000531971455, 1.008000047877431, 0.0, 0.0, 0.0, 0.0, 0.0, 1.651836410629771E9, 0.0, 2022-05-06 12:26:50.629
63.0, -290.98478600243106, -223.8143128482625, -225.8319888743572, -211.39223514543846, 0.17600000835955143, 0.11200000531971455, 1.008000047877431, 0.0, 0.0, 0.0, 0.0, 0.0, 1.6518364106307137E9, 0.0, 2022-05-06 12:26:50.630
63.0, -239.27318931510672, -102.89212758094072, -134.716806253884, -156.59522099466994, 0.17600000835955143, 0.11200000531971455, 1.008000047877431, 0.0, 0.0, 0.0, 0.0, 0.0, 1.6518364106307137E9, 0.0, 2022-05-06 12:26:50.630
64.0, -199.6302497847937, -67.28454010281712, -116.90366276493296, -140.7492648824118, 0.17600000835955143, 0.11200000531971455, 1.008000047877431, 0.0, 0.0, 0.0, 0.0, 0.0, 1.6518364106437728E9, 0.0, 2022-05-06 12:26:50.643
64.0, -247.40747171873227, -185.89172729756683, -199.46943408669904, -183.7394148730673, 0.17600000835955143, 0.11200000531971455, 1.008000047877431, 0.0, 0.0, 0.0, 0.0, 0.0, 1.6518364106437728E9, 0.0, 2022-05-06 12:26:50.643
