%OpenBCI Raw EEG Data
%Number of channels = 4
%Sample Rate = 200 Hz
%Board = OpenBCI_GUI$BoardGanglionBLE
Sample Index, EXG Channel 0, EXG Channel 1, EXG Channel 2, EXG Channel 3, Accel Channel 0, Accel Channel 1, Accel Channel 2, Other, Other, Other, Other, Other, Timestamp, Other, Timestamp (Formatted)
0.0, -229.84116162685677, -147.3258789544925, -175.94172346545383, -170.88911862531677, 0.0, 0.0, 0.0, 0.0, 0.0, 0.0, 0.0, 0.0, 1.6518365161115403E9, 0.0, 2022-05-06 12:28:36.111
1.0, -287.2972446461208, -223.97886844631284, -233.62968028197065, -212.4506268328987, 0.0, 0.11200000531971455, 0.0, 0.0, 0.0, 0.0, 0.0, 0.0, 1.6518365161125288E9, 0.0, 2022-05-06 12:28:36.112
1.0, -262.3221927420236, -143.00255460571498, -173.81746029062197, -182.22849529096857, 0.0, 0.11200000531971455, 0.0, 0.0, 0.0, 0.0, 0.0, 0.0, 1.6518365161125288E9, 0.0, 2022-05-06 12:28:36.112
2.0, -205.91328171035275, -63.346425449475646, -111.15543653303757, -145.62609442463145, 0.1600000075995922, 0.11200000531971455, 0.0, 0.0, 0.0, 0.0, 0.0, 0.0, 1.6518365161284935E9, 0.0, 2022-05-06 12:28:36.128
2.0, -233.65959948161617, -154.31575197167695, -171.92881081299856, -172.34767960803583, 0.1600000075995922, 0.11200000531971455, 0.0, 0.0, 0.0, 0.0, 0.0, 0.0, 1.6518365161284935E9, 0.0, 2022-05-06 12:28:36.128
3.0, -279.7052477360703, -223.518860751763, -228.1320273471065, -201.82931095873937, 0.1600000075995922, 0.11200000531971455, 0.0, 0.0, 0.0, 0.0, 0.0, 0.0, 1.6518365161295097E9, 0.0, 2022-05-06 12:28:36.129
3.0, -270.72200804250315, -136.83545957878232, -167.63540566386655, -180.34732561325654, 0.1600000075995922, 0.11200000531971455, 0.0, 0.0, 0.0, 0.0, 0.0, 0.0, 1.6518365161295097E9, 0.0, 2022-05-06 12:28:36.129
4.0, -217.9333201679401, -74.0350595228374, -120.74827991938218, -143.32979585183784, 0.1600000075995922, 0.11200000531971455, 0.0, 0.0, 0.0, 0.0, 0.0, 0.0, 1.6518365161405675E9, 0.0, 2022-05-06 12:28:36.140
4.0, -235.81378185609356, -153.45931488182396, -188.97527481103316, -202.84656374668702, 0.1600000075995922, 0.11200000531971455, 0.0, 0.0, 0.0, 0.0, 0.0, 0.0, 1.6518365161405675E9, 0.0, 2022-05-06 12:28:36.140
5.0, -293.77101146942005, -229.20350868441164, -236.23639055108652, -222.43241981463507, 0.1600000075995922, 0.11200000531971455, 0.0, 0.0, 0.0, 0.0, 0.0, 0.0, 1.6518365161566195E9, 0.0, 2022-05-06 12:28:36.156
5.0, -269.1549899610691, -145.4447092767805, -169.3221005438827, -180.7736742082052, 0.1600000075995922, 0.11200000531971455, 0.0, 0.0, 0.0, 0.0, 0.0, 0.0, 1.6518365161566195E9, 0.0, 2022-05-06 12:28:36.156
6.0, -219.6424544476904, -70.98704105895013, -125.64006906142458, -165.45130408974364, 0.1600000075995922, 0.11200000531971455, 0.0, 0.0, 0.0, 0.0, 0.0, 0.0, 1.6518365161715374E9, 0.0, 2022-05-06 12:28:36.171
6.0, -243.0953670698218, -162.17702167853713, -187.33719863044098, -190.665709591005, 0.1600000075995922, 0.11200000531971455, 0.0, 0.0, 0.0, 0.0, 0.0, 0.0, 1.6518365161715374E9, 0.0, 2022-05-06 12:28:36.171
7.0, -295.1285951533355, -240.5615848498419, -243.66383186308667, -222.61193501250818, 0.1600000075995922, 0.11200000531971455, 0.0, 0.0, 0.0, 0.0, 0.0, 0.0, 1.6518365161725247E9, 0.0, 2022-05-06 12:28:36.172
7.0, -257.6286182976328, -140.9231702303514, -172.45239680679515, -191.8923967764713, 0.1600000075995922, 0.11200000531971455, 0.0, 0.0, 0.0, 0.0, 0.0, 0.0, 1.6518365161725247E9, 0.0, 2022-05-06 12:28:36.172
8.0, -229.6130277295597, -70.30637926701456, -118.67263544397429, -152.2008385467343, 0.1600000075995922, 0.11200000531971455, 0.0, 0.0, 0.0, 0.0, 0.0, 0.0, 1.6518365161865373E9, 0.0, 2022-05-06 12:28:36.186
8.0, -247.7627622145228, -160.20235450193286, -175.52285467041656, -169.71105013927445, 0.1600000075995922, 0.11200000531971455, 0.0, 0.0, 0.0, 0.0, 0.0, 0.0, 1.6518365161865373E9, 0.0, 2022-05-06 12:28:36.186
9.0, -277.39772946340963, -215.8782451422885, -225.13262758264318, -210.19920705957338, 0.1600000075995922, 0.11200000531971455, 0.0, 0.0, 0.0, 0.0, 0.0, 0.0, 1.6518365161875448E9, 0.0, 2022-05-06 12:28:36.187
9.0, -262.42317004082724, -139.8049401436001, -165.1745514930226, -184.12836446845904, 0.1600000075995922, 0.11200000531971455, 0.0, 0.0, 0.0, 0.0, 0.0, 0.0, 1.6518365161875448E9, 0.0, 2022-05-06 12:28:36.187
10.0, -219.22358565265313, -74.54742581676692, -121.30178511282429, -150.36454766849056, 0.1600000075995922, 0.11200000531971455, 1.008000047877431, 0.0, 0.0, 0.0, 0.0, 0.0, 1.651836516200529E9, 0.0, 2022-05-06 12:28:36.200
10.0, -239.5013232124038, -155.50130025763065, -177.37784504843876, -176.6223852573894, 0.1600000075995922, 0.11200000531971455, 1.008000047877431, 0.0, 0.0, 0.0, 0.0, 0.0, 1.651836516200529E9, 0.0, 2022-05-06 12:28:36.200
11.0, -287.8283104398288, -217.96884921751916, -223.90968029713258, -202.17338175466284, 0.1600000075995922, 0.04800000227987766, 1.008000047877431, 0.0, 0.0, 0.0, 0.0, 0.0, 1.6518365162165732E9, 0.0, 2022-05-06 12:28:36.216
11.0, -256.2598149138503, -138.82882625516504, -169.7260097390972, -171.58847991703078, 0.1600000075995922, 0.04800000227987766, 1.008000047877431, 0.0, 0.0, 0.0, 0.0, 0.0, 1.6518365162165732E9, 0.0, 2022-05-06 12:28:36.216
12.0, -230.28994962153956, -90.008172233589, -128.81150422384962, -159.8377142562531, 0.0800000037997961, 0.04800000227987766, 1.008000047877431, 0.0, 0.0, 0.0, 0.0, 0.0, 1.6518365162175102E9, 0.0, 2022-05-06 12:28:36.217
12.0, -253.0622004517354, -178.90559418033808, -200.10147717921063, -200.3370908764191, 0.0800000037997961, 0.04800000227987766, 1.008000047877431, 0.0, 0.0, 0.0, 0.0, 0.0, 1.6518365162175102E9, 0.0, 2022-05-06 12:28:36.217
13.0, -266.57071909168735, -203.92552488390356, -217.35363567480817, -204.3799227285199, 0.0800000037997961, 0.04800000227987766, 1.008000047877431, 0.0, 0.0, 0.0, 0.0, 0.0, 1.6518365162305813E9, 0.0, 2022-05-06 12:28:36.230
13.0, -256.71608270844445, -125.24176971614361, -152.5374295427464, -176.77946105552837, 0.0800000037997961, 0.04800000227987766, 1.008000047877431, 0.0, 0.0, 0.0, 0.0, 0.0, 1.6518365162305813E9, 0.0, 2022-05-06 12:28:36.230
14.0, -232.7994224918075, -97.44683324545622, -131.94180048676208, -162.59028062364087, 0.0800000037997961, 0.04800000227987766, 1.008000047877431, 0.0, 0.0, 0.0, 0.0, 0.0, 1.6518365162465737E9, 0.0, 2022-05-06 12:28:36.246
14.0, -246.25558253237978, -165.66260843724012, -182.90167728299275, -173.92217748938128, 0.0800000037997961, 0.04800000227987766, 1.008000047877431, 0.0, 0.0, 0.0, 0.0, 0.0, 1.6518365162465737E9, 0.0, 2022-05-06 12:28:36.246
15.0, -276.3393377759494, -200.2828623270616, -216.20174648845568, -193.87828365294263, 0.0800000037997961, 0.04800000227987766, 1.008000047877431, 0.0, 0.0, 0.0, 0.0, 0.0, 1.6518365162615712E9, 0.0, 2022-05-06 12:28:36.261
15.0, -258.98246208159253, -129.41549806669354, -163.58509401185438, -185.69164264993742, 0.0800000037997961, 0.04800000227987766, 1.008000047877431, 0.0, 0.0, 0.0, 0.0, 0.0, 1.6518365162615712E9, 0.0, 2022-05-06 12:28:36.261
16.0, -242.49324317695573, -104.4591456623748, -146.66952651226893, -179.1804768270813, 0.0800000037997961, 0.04800000227987766, 1.008000047877431, 0.0, 0.0, 0.0, 0.0, 0.0, 1.651836516262529E9, 0.0, 2022-05-06 12:28:36.262
16.0, -255.04434742825106, -171.31359727028757, -191.73158107837662, -193.6651093554683, 0.0800000037997961, 0.04800000227987766, 1.008000047877431, 0.0, 0.0, 0.0, 0.0, 0.0, 1.651836516262529E9, 0.0, 2022-05-06 12:28:36.262
17.0, -273.1043243142776, -204.69220437482, -212.94429362704977, -197.55086540943012, 0.0800000037997961, 0.04800000227987766, 1.008000047877431, 0.0, 0.0, 0.0, 0.0, 0.0, 1.6518365162925525E9, 0.0, 2022-05-06 12:28:36.292
17.0, -240.3540204023011, -125.6905577108264, -161.55058843595907, -176.289534161333, 0.0800000037997961, 0.04800000227987766, 1.008000047877431, 0.0, 0.0, 0.0, 0.0, 0.0, 1.6518365162925525E9, 0.0, 2022-05-06 12:28:36.292
18.0, -226.48273146664724, -91.05908412113786, -129.301431118045, -159.77413595700637, 0.0800000037997961, 0.04800000227987766, 1.008000047877431, 0.0, 0.0, 0.0, 0.0, 0.0, 1.6518365162935026E9, 0.0, 2022-05-06 12:28:36.293
18.0, -256.914297406096, -164.9295880459249, -186.48824134049937, -174.78609437914565, 0.0800000037997961, 0.04800000227987766, 1.008000047877431, 0.0, 0.0, 0.0, 0.0, 0.0, 1.6518365162935026E9, 0.0, 2022-05-06 12:28:36.293
19.0, -276.90406266925856, -211.51752179395407, -224.8708345857449, -198.75137329520658, 0.0800000037997961, 0.04800000227987766, 1.008000047877431, 0.0, 0.0, 0.0, 0.0, 0.0, 1.6518365162945416E9, 0.0, 2022-05-06 12:28:36.294
19.0, -255.77736781956628, -127.97937648370862, -156.72985739307478, -176.92905705375597, 0.0800000037997961, 0.04800000227987766, 1.008000047877431, 0.0, 0.0, 0.0, 0.0, 0.0, 1.6518365162945416E9, 0.0, 2022-05-06 12:28:36.294
20.0, -234.77034976845607, -107.02471703197807, -143.67386664776132, -177.96874924143776, 0.0800000037997961, 0.04800000227987766, 0.5120000243186951, 0.0, 0.0, 0.0, 0.0, 0.0, 1.6518365163066208E9, 0.0, 2022-05-06 12:28:36.306
20.0, -255.94192341761664, -186.09742179512978, -205.93946101004258, -196.8926430172287, 0.0800000037997961, 0.04800000227987766, 0.5120000243186951, 0.0, 0.0, 0.0, 0.0, 0.0, 1.6518365163066208E9, 0.0, 2022-05-06 12:28:36.306
21.0, -269.31580565916374, -202.08175420574844, -213.50153872044757, -184.9548823586665, 0.0800000037997961, 0.0800000037997961, 0.5120000243186951, 0.0, 0.0, 0.0, 0.0, 0.0, 1.6518365163075192E9, 0.0, 2022-05-06 12:28:36.307
21.0, -246.5098957293667, -130.25697555672377, -161.66278543462977, -162.5005230247043, 0.0800000037997961, 0.0800000037997961, 0.5120000243186951, 0.0, 0.0, 0.0, 0.0, 0.0, 1.6518365163075192E9, 0.0, 2022-05-06 12:28:36.307
22.0, -217.40225437423214, -87.65577516146004, -128.28791823005304, -168.82843374973163, 0.11200000531971455, 0.0800000037997961, 0.5120000243186951, 0.0, 0.0, 0.0, 0.0, 0.0, 1.6518365163205285E9, 0.0, 2022-05-06 12:28:36.320
22.0, -227.69445905229077, -150.41129641793668, -175.37699857214466, -169.0266484473832, 0.11200000531971455, 0.0800000037997961, 0.5120000243186951, 0.0, 0.0, 0.0, 0.0, 0.0, 1.6518365163205285E9, 0.0, 2022-05-06 12:28:36.320
23.0, -266.4136432935484, -200.6493725227192, -213.24722552346066, -192.99192736344412, 0.11200000531971455, 0.0800000037997961, 0.5120000243186951, 0.0, 0.0, 0.0, 0.0, 0.0, 1.6518365163366036E9, 0.0, 2022-05-06 12:28:36.336
23.0, -253.85505924234167, -122.00301635451615, -149.52307017846033, -175.60513246944174, 0.11200000531971455, 0.0800000037997961, 0.5120000243186951, 0.0, 0.0, 0.0, 0.0, 0.0, 1.6518365163366036E9, 0.0, 2022-05-06 12:28:36.336
24.0, -227.17835285840556, -94.29783748276532, -130.16534800780937, -174.94317017728463, 0.11200000531971455, 0.0800000037997961, 0.5120000243186951, 0.0, 0.0, 0.0, 0.0, 0.0, 1.6518365163375084E9, 0.0, 2022-05-06 12:28:36.337
24.0, -242.3922658781521, -160.42300859931856, -182.90541718294844, -178.29786043753847, 0.11200000531971455, 0.0800000037997961, 0.5120000243186951, 0.0, 0.0, 0.0, 0.0, 0.0, 1.6518365163375084E9, 0.0, 2022-05-06 12:28:36.337
25.0, -274.4880872978829, -204.00406278297305, -221.59842212451622, -203.44120783964172, 0.11200000531971455, 0.0800000037997961, 0.5120000243186951, 0.0, 0.0, 0.0, 0.0, 0.0, 1.6518365163505793E9, 0.0, 2022-05-06 12:28:36.350
25.0, -256.37575181247666, -119.80395518057048, -154.0146900252439, -178.08094624010846, 0.11200000531971455, 0.0800000037997961, 0.5120000243186951, 0.0, 0.0, 0.0, 0.0, 0.0, 1.6518365163505793E9, 0.0, 2022-05-06 12:28:36.350
26.0, -227.40648675570264, -94.73166587762535, -131.1152825965546, -158.6147669707425, 0.11200000531971455, 0.0800000037997961, 0.5120000243186951, 0.0, 0.0, 0.0, 0.0, 0.0, 1.6518365163665807E9, 0.0, 2022-05-06 12:28:36.366
26.0, -256.1102189156227, -173.7482721414417, -189.54747950425372, -182.1798765915446, 0.11200000531971455, 0.0800000037997961, 0.5120000243186951, 0.0, 0.0, 0.0, 0.0, 0.0, 1.6518365163665807E9, 0.0, 2022-05-06 12:28:36.366
27.0, -267.42341628158465, -195.9445783784613, -217.9781989674084, -198.5980373970233, 0.11200000531971455, 0.0800000037997961, 0.5120000243186951, 0.0, 0.0, 0.0, 0.0, 0.0, 1.6518365163675156E9, 0.0, 2022-05-06 12:28:36.367
27.0, -255.5492339222692, -130.12233915831894, -158.33053457411006, -183.15973037993535, 0.11200000531971455, 0.0800000037997961, 0.5120000243186951, 0.0, 0.0, 0.0, 0.0, 0.0, 1.6518365163675156E9, 0.0, 2022-05-06 12:28:36.367
28.0, -231.51289690705016, -103.35213527549058, -138.59134260797873, -173.01712170010433, 0.11200000531971455, 0.0800000037997961, 0.5120000243186951, 0.0, 0.0, 0.0, 0.0, 0.0, 1.651836516380587E9, 0.0, 2022-05-06 12:28:36.380
28.0, -238.37935322569683, -157.41986893489957, -177.23572885012254, -171.74181581521407, 0.11200000531971455, 0.0800000037997961, 0.5120000243186951, 0.0, 0.0, 0.0, 0.0, 0.0, 1.651836516380587E9, 0.0, 2022-05-06 12:28:36.380
29.0, -270.20590184861794, -197.97534405440092, -214.87034210423008, -195.0713117388077, 0.11200000531971455, 0.0800000037997961, 0.5120000243186951, 0.0, 0.0, 0.0, 0.0, 0.0, 1.6518365163965688E9, 0.0, 2022-05-06 12:28:36.396
29.0, -265.2206152076833, -132.67295092809945, -169.318360643927, -186.68645603815094, 0.11200000531971455, 0.0800000037997961, 0.5120000243186951, 0.0, 0.0, 0.0, 0.0, 0.0, 1.6518365163965688E9, 0.0, 2022-05-06 12:28:36.396
30.0, -223.65536710014567, -89.03205834515393, -125.84950345894322, -155.30869540991262, 0.11200000531971455, 0.0800000037997961, 0.7680000364780426, 0.0, 0.0, 0.0, 0.0, 0.0, 1.6518365163975415E9, 0.0, 2022-05-06 12:28:36.397
30.0, -245.7656556381844, -169.57828369084746, -193.47063455777243, -191.00978038692847, 0.11200000531971455, 0.0800000037997961, 0.7680000364780426, 0.0, 0.0, 0.0, 0.0, 0.0, 1.6518365163975415E9, 0.0, 2022-05-06 12:28:36.397
31.0, -260.7289953608997, -188.31892236880958, -206.8557364991866, -181.52913399925455, 0.11200000531971455, 0.09600000455975533, 0.7680000364780426, 0.0, 0.0, 0.0, 0.0, 0.0, 1.651836516410558E9, 0.0, 2022-05-06 12:28:36.410
31.0, -243.6189530636184, -115.10664083622396, -150.84699476277456, -169.2809616443701, 0.11200000531971455, 0.09600000455975533, 0.7680000364780426, 0.0, 0.0, 0.0, 0.0, 0.0, 1.651836516410558E9, 0.0, 2022-05-06 12:28:36.410
32.0, -232.85552099114284, -101.55324339680374, -139.6385145955719, -183.27940717851743, 0.12800000607967377, 0.09600000455975533, 0.7680000364780426, 0.0, 0.0, 0.0, 0.0, 0.0, 1.6518365164265606E9, 0.0, 2022-05-06 12:28:36.426
32.0, -250.59760638093576, -167.1884876191616, -186.6228777389042, -179.81625981954858, 0.12800000607967377, 0.09600000455975533, 0.7680000364780426, 0.0, 0.0, 0.0, 0.0, 0.0, 1.6518365164265606E9, 0.0, 2022-05-06 12:28:36.426
33.0, -267.2588606835343, -196.36718707345426, -211.20898004760966, -186.9594687349163, 0.12800000607967377, 0.09600000455975533, 0.7680000364780426, 0.0, 0.0, 0.0, 0.0, 0.0, 1.651836516427539E9, 0.0, 2022-05-06 12:28:36.427
33.0, -250.5041088820435, -124.26565582770854, -159.10469386493787, -172.0597073114477, 0.12800000607967377, 0.09600000455975533, 0.7680000364780426, 0.0, 0.0, 0.0, 0.0, 0.0, 1.651836516427539E9, 0.0, 2022-05-06 12:28:36.427
34.0, -229.3474948327057, -102.78367048222572, -137.6002691197209, -174.07551338756457, 0.12800000607967377, 0.09600000455975533, 0.7680000364780426, 0.0, 0.0, 0.0, 0.0, 0.0, 1.6518365164405825E9, 0.0, 2022-05-06 12:28:36.440
34.0, -239.2769292150624, -162.0049862805754, -186.7014156379737, -184.12462456850335, 0.12800000607967377, 0.09600000455975533, 0.7680000364780426, 0.0, 0.0, 0.0, 0.0, 0.0, 1.6518365164405825E9, 0.0, 2022-05-06 12:28:36.440
35.0, -277.0835778671317, -199.22821053955704, -222.96348560834303, -203.31031134119257, 0.12800000607967377, 0.09600000455975533, 0.7680000364780426, 0.0, 0.0, 0.0, 0.0, 0.0, 1.651836516456574E9, 0.0, 2022-05-06 12:28:36.456
35.0, -253.07716005155817, -131.10967274662107, -159.67689855815843, -182.14995739189908, 0.12800000607967377, 0.09600000455975533, 0.7680000364780426, 0.0, 0.0, 0.0, 0.0, 0.0, 1.651836516456574E9, 0.0, 2022-05-06 12:28:36.456
36.0, -208.09738328447565, -76.6679490916431, -119.02792593976483, -148.3861405919306, 0.12800000607967377, 0.09600000455975533, 0.7680000364780426, 0.0, 0.0, 0.0, 0.0, 0.0, 1.6518365164574895E9, 0.0, 2022-05-06 12:28:36.457
36.0, -243.82090766122565, -156.04732565116137, -175.6163521693088, -162.57158112386242, 0.12800000607967377, 0.09600000455975533, 0.7680000364780426, 0.0, 0.0, 0.0, 0.0, 0.0, 1.6518365164574895E9, 0.0, 2022-05-06 12:28:36.457
37.0, -286.80357785196975, -219.64806429762393, -231.3146822093986, -210.9658865504898, 0.12800000607967377, 0.09600000455975533, 0.7680000364780426, 0.0, 0.0, 0.0, 0.0, 0.0, 1.6518365164705565E9, 0.0, 2022-05-06 12:28:36.470
37.0, -259.34523237729445, -133.48824911843985, -167.1305191698484, -191.50344718107954, 0.12800000607967377, 0.09600000455975533, 0.7680000364780426, 0.0, 0.0, 0.0, 0.0, 0.0, 1.6518365164705565E9, 0.0, 2022-05-06 12:28:36.470
38.0, -216.03719089040533, -82.54707182198763, -124.60411677369848, -157.00287008984014, 0.12800000607967377, 0.09600000455975533, 0.7680000364780426, 0.0, 0.0, 0.0, 0.0, 0.0, 1.6518365164865687E9, 0.0, 2022-05-06 12:28:36.486
38.0, -240.33158100256696, -176.66913400683552, -195.82677152985707, -189.05381271010265, 0.12800000607967377, 0.09600000455975533, 0.7680000364780426, 0.0, 0.0, 0.0, 0.0, 0.0, 1.6518365164865687E9, 0.0, 2022-05-06 12:28:36.486
39.0, -286.88211575103924, -219.35635210108012, -234.22432437492535, -207.562577590812, 0.12800000607967377, 0.09600000455975533, 0.7680000364780426, 0.0, 0.0, 0.0, 0.0, 0.0, 1.6518365164875262E9, 0.0, 2022-05-06 12:28:36.487
39.0, -268.30977257108316, -136.81676007900387, -175.41813747165725, -186.21148874377832, 0.12800000607967377, 0.09600000455975533, 0.7680000364780426, 0.0, 0.0, 0.0, 0.0, 0.0, 1.6518365164875262E9, 0.0, 2022-05-06 12:28:36.487
40.0, -226.3518349681981, -83.69522110838443, -132.05025758547708, -164.82674079714343, 0.12800000607967377, 0.09600000455975533, 0.8800000417977571, 0.0, 0.0, 0.0, 0.0, 0.0, 1.6518365165005572E9, 0.0, 2022-05-06 12:28:36.500
40.0, -244.97653674753383, -160.1499959025532, -185.32139255432412, -182.90915708290413, 0.12800000607967377, 0.09600000455975533, 0.8800000417977571, 0.0, 0.0, 0.0, 0.0, 0.0, 1.6518365165005572E9, 0.0, 2022-05-06 12:28:36.500
41.0, -292.1890337881632, -226.44720241706818, -235.91475915489718, -210.21042675944045, 0.12800000607967377, 0.09600000455975533, 0.8800000417977571, 0.0, 0.0, 0.0, 0.0, 0.0, 1.651836516532555E9, 0.0, 2022-05-06 12:28:36.532
41.0, -264.319299318362, -140.44446303602308, -165.5410616886802, -181.4767753998749, 0.12800000607967377, 0.09600000455975533, 0.8800000417977571, 0.0, 0.0, 0.0, 0.0, 0.0, 1.651836516532555E9, 0.0, 2022-05-06 12:28:36.532
42.0, -226.78192346310243, -80.83419764228165, -129.79509791219607, -159.82649455638602, 0.144000006839633, 0.09600000455975533, 0.8800000417977571, 0.0, 0.0, 0.0, 0.0, 0.0, 1.6518365165335116E9, 0.0, 2022-05-06 12:28:36.533
42.0, -252.029988063965, -173.29574424680322, -195.6285568322055, -188.1412771209143, 0.144000006839633, 0.09600000455975533, 0.8800000417977571, 0.0, 0.0, 0.0, 0.0, 0.0, 1.6518365165335116E9, 0.0, 2022-05-06 12:28:36.533
43.0, -289.2569522229023, -223.82179264817387, -228.85756793851033, -206.1488954075612, 0.144000006839633, 0.09600000455975533, 0.8800000417977571, 0.0, 0.0, 0.0, 0.0, 0.0, 1.6518365165345216E9, 0.0, 2022-05-06 12:28:36.534
43.0, -266.8212923887186, -133.2526354212314, -166.14692548150197, -172.1008462109603, 0.144000006839633, 0.09600000455975533, 0.8800000417977571, 0.0, 0.0, 0.0, 0.0, 0.0, 1.6518365165345216E9, 0.0, 2022-05-06 12:28:36.534
44.0, -231.96916470164433, -88.28781825397164, -135.28153114719316, -160.39869924960658, 0.144000006839633, 0.09600000455975533, 0.8800000417977571, 0.0, 0.0, 0.0, 0.0, 0.0, 1.6518365165465765E9, 0.0, 2022-05-06 12:28:36.546
44.0, -250.8780988776125, -169.32771039381623, -190.12716399738565, -184.46495546447113, 0.144000006839633, 0.09600000455975533, 0.8800000417977571, 0.0, 0.0, 0.0, 0.0, 0.0, 1.6518365165465765E9, 0.0, 2022-05-06 12:28:36.546
45.0, -275.524039585609, -209.33716011978686, -222.52217741357163, -207.64485538983718, 0.144000006839633, 0.09600000455975533, 0.8800000417977571, 0.0, 0.0, 0.0, 0.0, 0.0, 1.6518365165475464E9, 0.0, 2022-05-06 12:28:36.547
45.0, -264.4090569172986, -132.71034992765635, -172.3551594079472, -189.35300470655784, 0.144000006839633, 0.09600000455975533, 0.8800000417977571, 0.0, 0.0, 0.0, 0.0, 0.0, 1.6518365165475464E9, 0.0, 2022-05-06 12:28:36.547
46.0, -234.04854907700792, -93.7854711888358, -135.24413214763626, -162.58654072368518, 0.144000006839633, 0.09600000455975533, 0.8800000417977571, 0.0, 0.0, 0.0, 0.0, 0.0, 1.6518365165605645E9, 0.0, 2022-05-06 12:28:36.560
46.0, -245.78061523800716, -161.99750648066401, -187.34841833030805, -172.8450863021426, 0.144000006839633, 0.09600000455975533, 0.8800000417977571, 0.0, 0.0, 0.0, 0.0, 0.0, 1.6518365165605645E9, 0.0, 2022-05-06 12:28:36.560
47.0, -291.65048819454387, -227.9244628995657, -242.9457710715942, -222.42867991467938, 0.144000006839633, 0.09600000455975533, 0.8800000417977571, 0.0, 0.0, 0.0, 0.0, 0.0, 1.651836516576626E9, 0.0, 2022-05-06 12:28:36.576
47.0, -268.67628276674077, -143.68695629760623, -176.880438354332, -194.82821824168786, 0.144000006839633, 0.09600000455975533, 0.8800000417977571, 0.0, 0.0, 0.0, 0.0, 0.0, 1.651836516576626E9, 0.0, 2022-05-06 12:28:36.576
48.0, -228.95854523731396, -83.68774130847305, -135.3787685460411, -167.9869562597014, 0.144000006839633, 0.09600000455975533, 0.8800000417977571, 0.0, 0.0, 0.0, 0.0, 0.0, 1.6518365165775156E9, 0.0, 2022-05-06 12:28:36.577
48.0, -262.34089224180207, -171.48189276829362, -197.49102701013908, -194.1064175502397, 0.144000006839633, 0.09600000455975533, 0.8800000417977571, 0.0, 0.0, 0.0, 0.0, 0.0, 1.6518365165775156E9, 0.0, 2022-05-06 12:28:36.577
49.0, -297.787664021831, -223.41788345295936, -232.65730629349127, -213.40430132159963, 0.144000006839633, 0.09600000455975533, 0.8800000417977571, 0.0, 0.0, 0.0, 0.0, 0.0, 1.6518365165905466E9, 0.0, 2022-05-06 12:28:36.590
49.0, -265.72550170170143, -131.2106500454247, -168.55542105296627, -183.6982759735547, 0.144000006839633, 0.09600000455975533, 0.8800000417977571, 0.0, 0.0, 0.0, 0.0, 0.0, 1.6518365165905466E9, 0.0, 2022-05-06 12:28:36.590
50.0, -225.46547867869958, -80.407849047333, -129.301431118045, -163.34574041469023, 0.144000006839633, 0.09600000455975533, 0.9600000455975533, 0.0, 0.0, 0.0, 0.0, 0.0, 1.6518365166065652E9, 0.0, 2022-05-06 12:28:36.606
50.0, -253.57830664562061, -168.07110400870442, -191.17433598497882, -189.15852990886196, 0.144000006839633, 0.09600000455975533, 0.9600000455975533, 0.0, 0.0, 0.0, 0.0, 0.0, 1.6518365166065652E9, 0.0, 2022-05-06 12:28:36.606
51.0, -286.29121155804023, -213.03966107591987, -222.77275071060285, -207.4092416926287, 0.144000006839633, 0.11200000531971455, 0.9600000455975533, 0.0, 0.0, 0.0, 0.0, 0.0, 1.6518365166074965E9, 0.0, 2022-05-06 12:28:36.607
51.0, -266.35380489425734, -140.41080393642187, -176.2109962622635, -186.28628674289212, 0.144000006839633, 0.11200000531971455, 0.9600000455975533, 0.0, 0.0, 0.0, 0.0, 0.0, 1.6518365166074965E9, 0.0, 2022-05-06 12:28:36.607
52.0, -224.1639934941195, -78.90066936518997, -122.18440150236711, -147.83637529844418, 0.1600000075995922, 0.11200000531971455, 0.9600000455975533, 0.0, 0.0, 0.0, 0.0, 0.0, 1.651836516620566E9, 0.0, 2022-05-06 12:28:36.620
52.0, -255.840946118813, -166.1562752313912, -195.14236983796582, -185.9908346463926, 0.1600000075995922, 0.11200000531971455, 0.9600000455975533, 0.0, 0.0, 0.0, 0.0, 0.0, 1.651836516620566E9, 0.0, 2022-05-06 12:28:36.620
53.0, -287.39074214501306, -217.90153101831675, -227.14469375880435, -195.69213513145223, 0.1600000075995922, 0.11200000531971455, 0.9600000455975533, 0.0, 0.0, 0.0, 0.0, 0.0, 1.6518365166365635E9, 0.0, 2022-05-06 12:28:36.636
53.0, -273.3810769109987, -137.93499016575515, -163.2859020153992, -178.27542103780434, 0.1600000075995922, 0.11200000531971455, 0.9600000455975533, 0.0, 0.0, 0.0, 0.0, 0.0, 1.6518365166365635E9, 0.0, 2022-05-06 12:28:36.636
54.0, -221.9761520200409, -72.50544044096023, -122.87254309421405, -152.9787377375178, 0.1600000075995922, 0.11200000531971455, 0.9600000455975533, 0.0, 0.0, 0.0, 0.0, 0.0, 1.6518365166375203E9, 0.0, 2022-05-06 12:28:36.637
54.0, -234.55717547098175, -158.87469001766294, -183.08867228077725, -174.15405128663406, 0.1600000075995922, 0.11200000531971455, 0.9600000455975533, 0.0, 0.0, 0.0, 0.0, 0.0, 1.6518365166375203E9, 0.0, 2022-05-06 12:28:36.637
55.0, -301.0039779837243, -222.69234286155552, -238.51398962410167, -230.59288151795045, 0.1600000075995922, 0.11200000531971455, 0.9600000455975533, 0.0, 0.0, 0.0, 0.0, 0.0, 1.6518365166505468E9, 0.0, 2022-05-06 12:28:36.650
55.0, -283.91637508617714, -137.5123814707622, -176.64108475716785, -192.53565956884995, 0.1600000075995922, 0.11200000531971455, 0.9600000455975533, 0.0, 0.0, 0.0, 0.0, 0.0, 1.6518365166505468E9, 0.0, 2022-05-06 12:28:36.650
56.0, -226.59492846531793, -81.02867243997753, -123.36994978832081, -150.28226986946538, 0.1600000075995922, 0.11200000531971455, 0.9600000455975533, 0.0, 0.0, 0.0, 0.0, 0.0, 1.6518365166665435E9, 0.0, 2022-05-06 12:28:36.666
56.0, -240.74296999769285, -156.83644454181194, -178.57461303425953, -160.44731794903055, 0.1600000075995922, 0.11200000531971455, 0.9600000455975533, 0.0, 0.0, 0.0, 0.0, 0.0, 1.6518365166665435E9, 0.0, 2022-05-06 12:28:36.666
57.0, -282.929041497875, -201.47215051297098, -219.51155794924125, -191.83629827713594, 0.1600000075995922, 0.11200000531971455, 0.9600000455975533, 0.0, 0.0, 0.0, 0.0, 0.0, 1.6518365166675024E9, 0.0, 2022-05-06 12:28:36.667
57.0, -270.19468214875087, -135.8780451901257, -179.4721890236251, -194.67488234350458, 0.1600000075995922, 0.11200000531971455, 0.9600000455975533, 0.0, 0.0, 0.0, 0.0, 0.0, 1.6518365166675024E9, 0.0, 2022-05-06 12:28:36.667
58.0, -232.30201579770073, -86.78811837173998, -137.06172352610156, -164.06754110613838, 0.1600000075995922, 0.11200000531971455, 0.9600000455975533, 0.0, 0.0, 0.0, 0.0, 0.0, 1.6518365166805725E9, 0.0, 2022-05-06 12:28:36.680
58.0, -260.6691569616087, -180.7531047584489, -202.9699804452248, -194.65618284372613, 0.1600000075995922, 0.11200000531971455, 0.9600000455975533, 0.0, 0.0, 0.0, 0.0, 0.0, 1.6518365166805725E9, 0.0, 2022-05-06 12:28:36.680
59.0, -300.55518998904154, -227.38591730594635, -236.73379724519327, -215.9736125911586, 0.1600000075995922, 0.11200000531971455, 0.9600000455975533, 0.0, 0.0, 0.0, 0.0, 0.0, 1.6518365166965728E9, 0.0, 2022-05-06 12:28:36.696
59.0, -274.5554054970853, -145.57560577522963, -174.99926867661998, -189.28194660739973, 0.1600000075995922, 0.11200000531971455, 0.9600000455975533, 0.0, 0.0, 0.0, 0.0, 0.0, 1.6518365166965728E9, 0.0, 2022-05-06 12:28:36.696
60.0, -223.73390499921516, -78.20504797343165, -128.04856463288888, -150.6039012656547, 0.1600000075995922, 0.11200000531971455, 0.9760000463575125, 0.0, 0.0, 0.0, 0.0, 0.0, 1.651836516697517E9, 0.0, 2022-05-06 12:28:36.697
60.0, -251.34932627202943, -167.5587377147749, -192.09435137407854, -189.39414360607043, 0.1600000075995922, 0.11200000531971455, 0.9760000463575125, 0.0, 0.0, 0.0, 0.0, 0.0, 1.651836516697517E9, 0.0, 2022-05-06 12:28:36.697
61.0, -281.51161941466853, -211.03881459962577, -222.6792532117106, -205.14286231948063, 0.1600000075995922, 0.11200000531971455, 0.9760000463575125, 0.0, 0.0, 0.0, 0.0, 0.0, 1.6518365167275653E9, 0.0, 2022-05-06 12:28:36.727
61.0, -258.20456289080903, -129.17988436948508, -162.54914172412828, -181.83954569557682, 0.1600000075995922, 0.11200000531971455, 0.9760000463575125, 0.0, 0.0, 0.0, 0.0, 0.0, 1.6518365167275653E9, 0.0, 2022-05-06 12:28:36.727
62.0, -230.67141941701993, -84.78727189544588, -131.54163119150326, -161.43839143728837, 0.1600000075995922, 0.11200000531971455, 0.9760000463575125, 0.0, 0.0, 0.0, 0.0, 0.0, 1.6518365167284882E9, 0.0, 2022-05-06 12:28:36.728
62.0, -259.8463789713569, -173.9390070391819, -195.23212743690237, -192.64037676760927, 0.1600000075995922, 0.11200000531971455, 0.9760000463575125, 0.0, 0.0, 0.0, 0.0, 0.0, 1.6518365167284882E9, 0.0, 2022-05-06 12:28:36.728
63.0, -282.4578141034581, -211.42402429506183, -218.85707545699552, -198.0407923036255, 0.1600000075995922, 0.11200000531971455, 0.9760000463575125, 0.0, 0.0, 0.0, 0.0, 0.0, 1.651836516729568E9, 0.0, 2022-05-06 12:28:36.729
63.0, -253.46610964694992, -134.41200440749526, -168.92941104853526, -177.22824905021116, 0.1600000075995922, 0.11200000531971455, 0.9760000463575125, 0.0, 0.0, 0.0, 0.0, 0.0, 1.651836516729568E9, 0.0, 2022-05-06 12:28:36.729
64.0, -215.4126275978051, -65.61280482262373, -108.86661776015535, -147.6792995003052, 0.1600000075995922, 0.11200000531971455, 0.9760000463575125, 0.0, 0.0, 0.0, 0.0, 0.0, 1.6518365167405655E9, 0.0, 2022-05-06 12:28:36.740
64.0, -251.27078837295994, -165.06796434428543, -187.93184272339568, -182.07515939278528, 0.1600000075995922, 0.11200000531971455, 0.9760000463575125, 0.0, 0.0, 0.0, 0.0, 0.0, 1.6518365167405655E9, 0.0, 2022-05-06 12:28:36.740
65.0, -279.57435123762116, -213.25657527334988, -222.20802581729367, -203.86755643459037, 0.1600000075995922, 0.11200000531971455, 0.9760000463575125, 0.0, 0.0, 0.0, 0.0, 0.0, 1.6518365167565467E9, 0.0, 2022-05-06 12:28:36.756
65.0, -267.7338279779069, -131.53228144161403, -158.42029217304662, -164.5387685005553, 0.1600000075995922, 0.11200000531971455, 0.9760000463575125, 0.0, 0.0, 0.0, 0.0, 0.0, 1.6518365167565467E9, 0.0, 2022-05-06 12:28:36.756
66.0, -217.95201966771856, -70.90850315988064, -109.58093865169212, -134.61956885503605, 0.1600000075995922, 0.11200000531971455, 0.9760000463575125, 0.0, 0.0, 0.0, 0.0, 0.0, 1.651836516757521E9, 0.0, 2022-05-06 12:28:36.757
66.0, -258.687009985093, -181.96109244413674, -210.93970725079998, -212.8994148275815, 0.1600000075995922, 0.11200000531971455, 0.9760000463575125, 0.0, 0.0, 0.0, 0.0, 0.0, 1.651836516757521E9, 0.0, 2022-05-06 12:28:36.757
67.0, -302.95994566055015, -236.2644398007542, -248.64911850402132, -237.66503233416006, 0.1600000075995922, 0.11200000531971455, 0.9760000463575125, 0.0, 0.0, 0.0, 0.0, 0.0, 1.6518365167705522E9, 0.0, 2022-05-06 12:28:36.770
67.0, -269.6224774555303, -141.2934203259647, -168.33476695558056, -188.28339331923053, 0.1600000075995922, 0.11200000531971455, 0.9760000463575125, 0.0, 0.0, 0.0, 0.0, 0.0, 1.6518365167705522E9, 0.0, 2022-05-06 12:28:36.770
68.0, -227.15217355871573, -80.28443234879524, -127.94758733408526, -162.8707731203176, 0.1600000075995922, 0.11200000531971455, 0.9760000463575125, 0.0, 0.0, 0.0, 0.0, 0.0, 1.6518365167865393E9, 0.0, 2022-05-06 12:28:36.786
68.0, -255.71004962036386, -167.68589431326836, -190.5198534927331, -182.52394738746807, 0.1600000075995922, 0.11200000531971455, 0.9760000463575125, 0.0, 0.0, 0.0, 0.0, 0.0, 1.6518365167865393E9, 0.0, 2022-05-06 12:28:36.786
69.0, -289.95631351461634, -211.4015848953277, -225.3869407796301, -205.30741791753098, 0.1600000075995922, 0.11200000531971455, 0.9760000463575125, 0.0, 0.0, 0.0, 0.0, 0.0, 1.651836516787498E9, 0.0, 2022-05-06 12:28:36.787
69.0, -266.0433931979351, -134.77477470319718, -168.56290085287765, -186.20026904391125, 0.1600000075995922, 0.11200000531971455, 0.9760000463575125, 0.0, 0.0, 0.0, 0.0, 0.0, 1.651836516787498E9, 0.0, 2022-05-06 12:28:36.787
70.0, -230.09921472379938, -96.8260098528117, -146.48627141444013, -173.30135409673676, 0.1600000075995922, 0.11200000531971455, 1.008000047877431, 0.0, 0.0, 0.0, 0.0, 0.0, 1.651836516800583E9, 0.0, 2022-05-06 12:28:36.800
70.0, -252.76300845528021, -171.3734356695786, -194.5552055449225, -187.42321632942185, 0.1600000075995922, 0.11200000531971455, 1.008000047877431, 0.0, 0.0, 0.0, 0.0, 0.0, 1.651836516800583E9, 0.0, 2022-05-06 12:28:36.800
71.0, -290.3041242104955, -224.87270453572273, -233.77927628019825, -210.37124245753512, 0.1600000075995922, 0.09600000455975533, 1.008000047877431, 0.0, 0.0, 0.0, 0.0, 0.0, 1.6518365168165631E9, 0.0, 2022-05-06 12:28:36.816
71.0, -267.23268138384447, -133.18531722202897, -167.51946876524016, -184.81650606030598, 0.1600000075995922, 0.09600000455975533, 1.008000047877431, 0.0, 0.0, 0.0, 0.0, 0.0, 1.6518365168165631E9, 0.0, 2022-05-06 12:28:36.816
72.0, -222.84754870971665, -77.5543053811416, -129.94843381037936, -157.36938028549775, 0.1600000075995922, 0.09600000455975533, 1.008000047877431, 0.0, 0.0, 0.0, 0.0, 0.0, 1.6518365168175154E9, 0.0, 2022-05-06 12:28:36.817
72.0, -259.0572600807063, -163.0035395687446, -188.50404741661623, -168.84713324951008, 0.1600000075995922, 0.09600000455975533, 1.008000047877431, 0.0, 0.0, 0.0, 0.0, 0.0, 1.6518365168175154E9, 0.0, 2022-05-06 12:28:36.817
73.0, -288.9801996261813, -217.82299311924726, -229.97205812530592, -202.83908394677565, 0.1600000075995922, 0.09600000455975533, 1.008000047877431, 0.0, 0.0, 0.0, 0.0, 0.0, 1.651836516847549E9, 0.0, 2022-05-06 12:28:36.847
73.0, -264.87280451180413, -136.15853768680245, -174.74121557967737, -197.56582500925288, 0.1600000075995922, 0.09600000455975533, 1.008000047877431, 0.0, 0.0, 0.0, 0.0, 0.0, 1.651836516847549E9, 0.0, 2022-05-06 12:28:36.847
74.0, -216.1942666885443, -66.1812696158886, -116.7017081673257, -140.61836838396266, 0.1600000075995922, 0.09600000455975533, 1.008000047877431, 0.0, 0.0, 0.0, 0.0, 0.0, 1.6518365168484993E9, 0.0, 2022-05-06 12:28:36.848
74.0, -256.2411154140718, -172.86939565185457, -196.79166571842507, -192.5543590686284, 0.1600000075995922, 0.09600000455975533, 1.008000047877431, 0.0, 0.0, 0.0, 0.0, 0.0, 1.6518365168484993E9, 0.0, 2022-05-06 12:28:36.848
75.0, -287.3458633455448, -220.23522859066725, -237.93056523101404, -231.08280841214582, 0.1600000075995922, 0.09600000455975533, 1.008000047877431, 0.0, 0.0, 0.0, 0.0, 0.0, 1.6518365168495245E9, 0.0, 2022-05-06 12:28:36.849
75.0, -287.21122694713995, -144.8874641833827, -177.0674333521165, -200.13139637885615, 0.1600000075995922, 0.09600000455975533, 1.008000047877431, 0.0, 0.0, 0.0, 0.0, 0.0, 1.6518365168495245E9, 0.0, 2022-05-06 12:28:36.849
76.0, -230.60410121781752, -82.65926882065833, -130.05315100913867, -164.25079620396718, 0.1600000075995922, 0.09600000455975533, 1.008000047877431, 0.0, 0.0, 0.0, 0.0, 0.0, 1.6518365168605847E9, 0.0, 2022-05-06 12:28:36.860
76.0, -248.94457060052082, -168.3366369055584, -184.4761751643382, -184.07974576903507, 0.1600000075995922, 0.09600000455975533, 1.008000047877431, 0.0, 0.0, 0.0, 0.0, 0.0, 1.6518365168605847E9, 0.0, 2022-05-06 12:28:36.860
77.0, -277.405209263321, -208.03567493520677, -218.04177726665512, -200.23237367765978, 0.1600000075995922, 0.09600000455975533, 1.008000047877431, 0.0, 0.0, 0.0, 0.0, 0.0, 1.6518365168765657E9, 0.0, 2022-05-06 12:28:36.876
77.0, -262.71114233741537, -138.56329335831106, -170.51886852970347, -180.6614772095345, 0.1600000075995922, 0.09600000455975533, 1.008000047877431, 0.0, 0.0, 0.0, 0.0, 0.0, 1.6518365168765657E9, 0.0, 2022-05-06 12:28:36.876
78.0, -224.56042288942263, -72.19502874463797, -121.1521891145967, -156.15765269985422, 0.1600000075995922, 0.09600000455975533, 1.008000047877431, 0.0, 0.0, 0.0, 0.0, 0.0, 1.651836516877718E9, 0.0, 2022-05-06 12:28:36.877
78.0, -253.52968794619665, -170.3449631817639, -195.78563263034448, -193.70998815493658, 0.1600000075995922, 0.09600000455975533, 1.008000047877431, 0.0, 0.0, 0.0, 0.0, 0.0, 1.651836516877718E9, 0.0, 2022-05-06 12:28:36.877
79.0, -288.344416633714, -221.96680227015167, -226.78566336305812, -207.83559028757736, 0.1600000075995922, 0.09600000455975533, 1.008000047877431, 0.0, 0.0, 0.0, 0.0, 0.0, 1.6518365168905385E9, 0.0, 2022-05-06 12:28:36.890
79.0, -257.41170410020277, -131.83147343806922, -160.73903014557436, -185.73278154945, 0.1600000075995922, 0.09600000455975533, 1.008000047877431, 0.0, 0.0, 0.0, 0.0, 0.0, 1.6518365168905385E9, 0.0, 2022-05-06 12:28:36.890
80.0, -215.28547099931166, -72.83829153701663, -120.56128492159769, -149.76242377562448, 0.1600000075995922, 0.09600000455975533, 1.008000047877431, 0.0, 0.0, 0.0, 0.0, 0.0, 1.6518365169065583E9, 0.0, 2022-05-06 12:28:36.906
80.0, -254.15425123879686, -170.64415517821908, -191.30897238338366, -181.05042680492625, 0.1600000075995922, 0.09600000455975533, 1.008000047877431, 0.0, 0.0, 0.0, 0.0, 0.0, 1.6518365169065583E9, 0.0, 2022-05-06 12:28:36.906
81.0, -288.43043433269486, -223.96764874644578, -232.9078795905225, -210.4497803566046, 0.1600000075995922, 0.11200000531971455, 1.008000047877431, 0.0, 0.0, 0.0, 0.0, 0.0, 1.651836516907517E9, 0.0, 2022-05-06 12:28:36.907
81.0, -264.6633701142855, -133.41345111932606, -167.14547876967117, -184.68186966190115, 0.1600000075995922, 0.11200000531971455, 1.008000047877431, 0.0, 0.0, 0.0, 0.0, 0.0, 1.651836516907517E9, 0.0, 2022-05-06 12:28:36.907
82.0, -222.795190110337, -81.33160433638841, -121.64211600879207, -151.6510732532479, 0.1600000075995922, 0.11200000531971455, 1.008000047877431, 0.0, 0.0, 0.0, 0.0, 0.0, 1.6518365169205592E9, 0.0, 2022-05-06 12:28:36.920
82.0, -234.44123857235536, -158.25386662501842, -183.6646168739535, -170.18601743364707, 0.1600000075995922, 0.11200000531971455, 1.008000047877431, 0.0, 0.0, 0.0, 0.0, 0.0, 1.6518365169205592E9, 0.0, 2022-05-06 12:28:36.920
83.0, -292.84725618036464, -222.79332016035914, -236.9133124430664, -217.58176957210526, 0.1600000075995922, 0.11200000531971455, 1.008000047877431, 0.0, 0.0, 0.0, 0.0, 0.0, 1.6518365169365952E9, 0.0, 2022-05-06 12:28:36.936
83.0, -267.31869908282533, -131.1321121463552, -160.95594434300438, -178.14826443931088, 0.1600000075995922, 0.11200000531971455, 1.008000047877431, 0.0, 0.0, 0.0, 0.0, 0.0, 1.6518365169365952E9, 0.0, 2022-05-06 12:28:36.936
84.0, -215.0049785026349, -72.9617082355544, -123.4484876873903, -146.92383970925584, 0.1600000075995922, 0.11200000531971455, 1.008000047877431, 0.0, 0.0, 0.0, 0.0, 0.0, 1.651836516937503E9, 0.0, 2022-05-06 12:28:36.937
84.0, -251.5849399692379, -171.84466306399554, -195.53131943335757, -194.959114740137, 0.1600000075995922, 0.11200000531971455, 1.008000047877431, 0.0, 0.0, 0.0, 0.0, 0.0, 1.651836516937503E9, 0.0, 2022-05-06 12:28:36.937
85.0, -284.2978448816575, -216.9590762294829, -224.98677148437127, -214.64968800684437, 0.1600000075995922, 0.11200000531971455, 1.008000047877431, 0.0, 0.0, 0.0, 0.0, 0.0, 1.6518365169505856E9, 0.0, 2022-05-06 12:28:36.950
85.0, -251.6896571679972, -125.23802981618792, -160.3500805501826, -184.59585196292028, 0.1600000075995922, 0.11200000531971455, 1.008000047877431, 0.0, 0.0, 0.0, 0.0, 0.0, 1.6518365169505856E9, 0.0, 2022-05-06 12:28:36.950
86.0, -221.66948022367433, -88.77774514816701, -131.06292399717495, -171.36782581964508, 0.1600000075995922, 0.11200000531971455, 1.008000047877431, 0.0, 0.0, 0.0, 0.0, 0.0, 1.651836516966563E9, 0.0, 2022-05-06 12:28:36.966
86.0, -249.8758056894876, -163.73655996005982, -181.66751029761508, -173.38737179571763, 0.1600000075995922, 0.11200000531971455, 1.008000047877431, 0.0, 0.0, 0.0, 0.0, 0.0, 1.651836516966563E9, 0.0, 2022-05-06 12:28:36.966
87.0, -288.47157323220745, -218.00250831712037, -229.46717163128778, -201.69093466037884, 0.1600000075995922, 0.11200000531971455, 1.008000047877431, 0.0, 0.0, 0.0, 0.0, 0.0, 1.6518365169675255E9, 0.0, 2022-05-06 12:28:36.967
87.0, -263.3955440293066, -127.66522488743067, -163.07272771792486, -188.64990351488814, 0.1600000075995922, 0.11200000531971455, 1.008000047877431, 0.0, 0.0, 0.0, 0.0, 0.0, 1.6518365169675255E9, 0.0, 2022-05-06 12:28:36.967
88.0, -222.76901081064716, -87.64829536154866, -126.51146575110033, -166.61067307600752, 0.1600000075995922, 0.11200000531971455, 1.008000047877431, 0.0, 0.0, 0.0, 0.0, 0.0, 1.6518365169805768E9, 0.0, 2022-05-06 12:28:36.980
88.0, -244.23977645626292, -164.46210055146366, -189.483901205007, -184.7379681612365, 0.1600000075995922, 0.11200000531971455, 1.008000047877431, 0.0, 0.0, 0.0, 0.0, 0.0, 1.6518365169805768E9, 0.0, 2022-05-06 12:28:36.980
89.0, -290.6332354065962, -220.0631931927055, -231.81208890350536, -213.17616742430255, 0.1600000075995922, 0.11200000531971455, 1.008000047877431, 0.0, 0.0, 0.0, 0.0, 0.0, 1.651836516996586E9, 0.0, 2022-05-06 12:28:36.996
89.0, -264.34173871809617, -137.47872237116098, -169.81576733803377, -193.56787195662037, 0.1600000075995922, 0.11200000531971455, 1.008000047877431, 0.0, 0.0, 0.0, 0.0, 0.0, 1.651836516996586E9, 0.0, 2022-05-06 12:28:36.996
90.0, -208.86780267534778, -73.4030164303258, -116.86626376537606, -149.35477468045428, 0.1600000075995922, 0.11200000531971455, 1.008000047877431, 0.0, 0.0, 0.0, 0.0, 0.0, 1.651836516997556E9, 0.0, 2022-05-06 12:28:36.997
90.0, -240.78036899724975, -159.72364730760455, -180.42586351232603, -172.0297881118022, 0.1600000075995922, 0.11200000531971455, 1.008000047877431, 0.0, 0.0, 0.0, 0.0, 0.0, 1.651836516997556E9, 0.0, 2022-05-06 12:28:36.997
91.0, -282.90660209814087, -217.46396272350103, -223.22153870528564, -199.0767445913516, 0.1600000075995922, 0.11200000531971455, 1.008000047877431, 0.0, 0.0, 0.0, 0.0, 0.0, 1.6518365170105815E9, 0.0, 2022-05-06 12:28:37.010
91.0, -257.89789109444246, -120.9820236666128, -159.75169655727223, -176.3568523605354, 0.1600000075995922, 0.11200000531971455, 1.008000047877431, 0.0, 0.0, 0.0, 0.0, 0.0, 1.6518365170105815E9, 0.0, 2022-05-06 12:28:37.010
92.0, -218.10161566594616, -74.56612531654537, -120.3705500238575, -151.77448995178565, 0.1600000075995922, 0.11200000531971455, 1.008000047877431, 0.0, 0.0, 0.0, 0.0, 0.0, 1.6518365170265636E9, 0.0, 2022-05-06 12:28:37.026
92.0, -238.0165829299949, -161.56367808580399, -184.3976372652687, -171.19579042168334, 0.1600000075995922, 0.11200000531971455, 1.008000047877431, 0.0, 0.0, 0.0, 0.0, 0.0, 1.6518365170265636E9, 0.0, 2022-05-06 12:28:37.026
93.0, -267.7674870775081, -209.9467638125643, -215.99605199089274, -195.24708703672513, 0.1600000075995922, 0.11200000531971455, 1.008000047877431, 0.0, 0.0, 0.0, 0.0, 0.0, 1.6518365170275676E9, 0.0, 2022-05-06 12:28:37.027
93.0, -252.97244285279885, -135.26844149734825, -166.90612517250702, -191.09579808590934, 0.1600000075995922, 0.11200000531971455, 1.008000047877431, 0.0, 0.0, 0.0, 0.0, 0.0, 1.6518365170275676E9, 0.0, 2022-05-06 12:28:37.027
94.0, -232.89291999069974, -91.37323571741581, -135.9734126389958, -172.37385890772566, 0.1600000075995922, 0.11200000531971455, 1.008000047877431, 0.0, 0.0, 0.0, 0.0, 0.0, 1.6518365170576315E9, 0.0, 2022-05-06 12:28:37.057
94.0, -247.03348172316328, -169.10705629643053, -189.74569420190528, -190.16456299694255, 0.1600000075995922, 0.11200000531971455, 1.008000047877431, 0.0, 0.0, 0.0, 0.0, 0.0, 1.6518365170576315E9, 0.0, 2022-05-06 12:28:37.057
95.0, -295.98877214314416, -223.54504005145282, -233.37162718502805, -215.46498619718477, 0.1600000075995922, 0.11200000531971455, 1.008000047877431, 0.0, 0.0, 0.0, 0.0, 0.0, 1.651836517058514E9, 0.0, 2022-05-06 12:28:37.058
95.0, -254.97702922904864, -129.3967985669151, -158.89151956746355, -181.30474000191316, 0.1600000075995922, 0.11200000531971455, 1.008000047877431, 0.0, 0.0, 0.0, 0.0, 0.0, 1.651836517058514E9, 0.0, 2022-05-06 12:28:37.058
96.0, -212.6712809302844, -75.9611080000177, -122.11708330316469, -146.93131950916722, 0.1600000075995922, 0.11200000531971455, 1.008000047877431, 0.0, 0.0, 0.0, 0.0, 0.0, 1.6518365170595229E9, 0.0, 2022-05-06 12:28:37.059
96.0, -234.18318547541276, -155.10113096237183, -174.96934947697446, -164.59860689984635, 0.1600000075995922, 0.11200000531971455, 1.008000047877431, 0.0, 0.0, 0.0, 0.0, 0.0, 1.6518365170595229E9, 0.0, 2022-05-06 12:28:37.059
97.0, -282.1997610065155, -213.3201535725966, -221.25809122854844, -187.74484772561118, 0.1600000075995922, 0.11200000531971455, 1.008000047877431, 0.0, 0.0, 0.0, 0.0, 0.0, 1.65183651707053E9, 0.0, 2022-05-06 12:28:37.070
97.0, -245.93769103614613, -119.12703328859061, -156.1651324997656, -185.06333945738152, 0.1600000075995922, 0.11200000531971455, 1.008000047877431, 0.0, 0.0, 0.0, 0.0, 0.0, 1.65183651707053E9, 0.0, 2022-05-06 12:28:37.070
98.0, -207.7832316881977, -75.41882250644267, -119.86192362988368, -158.6072871708311, 0.1600000075995922, 0.11200000531971455, 1.008000047877431, 0.0, 0.0, 0.0, 0.0, 0.0, 1.6518365170865731E9, 0.0, 2022-05-06 12:28:37.086
98.0, -239.95759100699797, -171.006925473921, -190.86392428865656, -177.83411284303293, 0.1600000075995922, 0.11200000531971455, 1.008000047877431, 0.0, 0.0, 0.0, 0.0, 0.0, 1.6518365170865731E9, 0.0, 2022-05-06 12:28:37.086
99.0, -275.2323273890652, -207.44103084225208, -219.36570185096934, -198.9308884930797, 0.1600000075995922, 0.11200000531971455, 1.008000047877431, 0.0, 0.0, 0.0, 0.0, 0.0, 1.6518365170875106E9, 0.0, 2022-05-06 12:28:37.087
99.0, -255.61281222151592, -128.9143514726311, -161.47205053688958, -178.06224674033, 0.1600000075995922, 0.11200000531971455, 1.008000047877431, 0.0, 0.0, 0.0, 0.0, 0.0, 1.6518365170875106E9, 0.0, 2022-05-06 12:28:37.087
100.0, -208.1946206833236, -78.59773746877909, -123.08571739168838, -156.37456689728424, 0.1600000075995922, 0.11200000531971455, 1.008000047877431, 0.0, 0.0, 0.0, 0.0, 0.0, 1.6518365171025307E9, 0.0, 2022-05-06 12:28:37.102
100.0, -243.89944556029513, -166.80327792372555, -193.80722555378452, -184.43129636486992, 0.1600000075995922, 0.11200000531971455, 1.008000047877431, 0.0, 0.0, 0.0, 0.0, 0.0, 1.6518365171025307E9, 0.0, 2022-05-06 12:28:37.102
0.0, -289.9432238647714, -216.74590193200856, -226.64541711471975, -209.9467638125643, 0.1600000075995922, 0.11200000531971455, 1.008000047877431, 0.0, 0.0, 0.0, 0.0, 0.0, 1.651836517116562E9, 0.0, 2022-05-06 12:28:37.116
1.0, -252.36470910999924, -124.15345882903785, -159.99292010441422, -175.65188121888787, 0.1600000075995922, 0.11200000531971455, 1.008000047877431, 0.0, 0.0, 0.0, 0.0, 0.0, 1.6518365171175275E9, 0.0, 2022-05-06 12:28:37.117
1.0, -203.78340868558735, -65.50808762386441, -112.91505946218967, -137.27676777355373, 0.1600000075995922, 0.11200000531971455, 1.008000047877431, 0.0, 0.0, 0.0, 0.0, 0.0, 1.6518365171175275E9, 0.0, 2022-05-06 12:28:37.117
2.0, -246.1489953836426, -165.95432063378394, -187.19321248214692, -182.52207743749022, 0.1600000075995922, 0.11200000531971455, 1.008000047877431, 0.0, 0.0, 0.0, 0.0, 0.0, 1.6518365171315255E9, 0.0, 2022-05-06 12:28:37.131
2.0, -279.96143088303506, -214.4383836593479, -223.71707544941455, -206.3601997550577, 0.1600000075995922, 0.11200000531971455, 1.008000047877431, 0.0, 0.0, 0.0, 0.0, 0.0, 1.6518365171315255E9, 0.0, 2022-05-06 12:28:37.131
3.0, -247.5626775668934, -122.43310484942049, -151.75392050202936, -171.5641705673188, 0.1600000075995922, 0.11200000531971455, 1.008000047877431, 0.0, 0.0, 0.0, 0.0, 0.0, 1.651836517132516E9, 0.0, 2022-05-06 12:28:37.132
3.0, -211.27816819678992, -79.78328575473279, -128.97792977187783, -158.3698035236448, 0.1600000075995922, 0.11200000531971455, 1.008000047877431, 0.0, 0.0, 0.0, 0.0, 0.0, 1.651836517132516E9, 0.0, 2022-05-06 12:28:37.132
4.0, -245.7413462884724, -174.06990353763103, -194.78520939219743, -195.18911858741194, 0.1600000075995922, 0.11200000531971455, 1.008000047877431, 0.0, 0.0, 0.0, 0.0, 0.0, 1.6518365171455882E9, 0.0, 2022-05-06 12:28:37.145
4.0, -276.0981142288074, -209.3184606200084, -216.33077303692698, -202.4295649016276, 0.1600000075995922, 0.11200000531971455, 1.008000047877431, 0.0, 0.0, 0.0, 0.0, 0.0, 1.6518365171455882E9, 0.0, 2022-05-06 12:28:37.145
5.0, -248.40789495687932, -110.08021529577672, -144.05720639321953, -165.21008054260164, 0.1600000075995922, 0.11200000531971455, 1.008000047877431, 0.0, 0.0, 0.0, 0.0, 0.0, 1.6518365171615443E9, 0.0, 2022-05-06 12:28:37.161
5.0, -219.78644059598446, -74.26319342013448, -115.4993303315714, -147.65125025063753, 0.1600000075995922, 0.11200000531971455, 1.008000047877431, 0.0, 0.0, 0.0, 0.0, 0.0, 1.6518365171615443E9, 0.0, 2022-05-06 12:28:37.161
6.0, -250.90614812728018, -175.3826084220782, -192.02516322489828, -183.1578604299575, 0.1600000075995922, 0.11200000531971455, 1.008000047877431, 0.0, 0.0, 0.0, 0.0, 0.0, 1.6518365171625485E9, 0.0, 2022-05-06 12:28:37.162
6.0, -285.33192721940577, -215.8445860426873, -225.38881072960794, -210.78824130259454, 0.1600000075995922, 0.11200000531971455, 1.008000047877431, 0.0, 0.0, 0.0, 0.0, 0.0, 1.6518365171625485E9, 0.0, 2022-05-06 12:28:37.162
7.0, -249.83653673995286, -121.91699865553528, -157.80133873037994, -174.14470153674483, 0.1600000075995922, 0.11200000531971455, 1.008000047877431, 0.0, 0.0, 0.0, 0.0, 0.0, 1.6518365171755447E9, 0.0, 2022-05-06 12:28:37.175
7.0, -206.0236087590456, -64.12806454021484, -107.39870702754706, -141.2859405260533, 0.1600000075995922, 0.11200000531971455, 1.008000047877431, 0.0, 0.0, 0.0, 0.0, 0.0, 1.6518365171755447E9, 0.0, 2022-05-06 12:28:37.175
8.0, -241.68729473650455, -167.95890701003373, -188.3114425688982, -183.06436293106526, 0.1600000075995922, 0.11200000531971455, 1.008000047877431, 0.0, 0.0, 0.0, 0.0, 0.0, 1.6518365171916137E9, 0.0, 2022-05-06 12:28:37.191
8.0, -276.43844512477517, -218.2493417141959, -222.8419388597831, -199.91635213140398, 0.1600000075995922, 0.11200000531971455, 1.008000047877431, 0.0, 0.0, 0.0, 0.0, 0.0, 1.6518365171916137E9, 0.0, 2022-05-06 12:28:37.191
9.0, -252.85089610423893, -121.44577126111835, -157.7078412314877, -179.07014977838844, 0.1600000075995922, 0.11200000531971455, 1.008000047877431, 0.0, 0.0, 0.0, 0.0, 0.0, 1.6518365171925664E9, 0.0, 2022-05-06 12:28:37.192
9.0, -206.86134634912014, -70.35499796643853, -117.04390901327133, -152.0007538991049, 0.1600000075995922, 0.11200000531971455, 1.008000047877431, 0.0, 0.0, 0.0, 0.0, 0.0, 1.6518365171925664E9, 0.0, 2022-05-06 12:28:37.192
10.0, -246.84461677540094, -169.42494779266417, -191.2023852346465, -179.17860687710345, 0.1600000075995922, 0.11200000531971455, 1.0240000486373901, 0.0, 0.0, 0.0, 0.0, 0.0, 1.6518365172055478E9, 0.0, 2022-05-06 12:28:37.205
10.0, -281.9099187599495, -212.6581912804395, -229.08009198587388, -213.86991886608303, 0.1600000075995922, 0.11200000531971455, 1.0240000486373901, 0.0, 0.0, 0.0, 0.0, 0.0, 1.6518365172055478E9, 0.0, 2022-05-06 12:28:37.205
11.0, -258.1540742414072, -135.70600979216397, -169.48104629199952, -191.74467072822154, 0.1600000075995922, 0.11200000531971455, 1.0240000486373901, 0.0, 0.0, 0.0, 0.0, 0.0, 1.6518365172215595E9, 0.0, 2022-05-06 12:28:37.221
11.0, -224.31545944232494, -86.7432395722717, -132.08204673510045, -160.16869540233165, 0.1600000075995922, 0.11200000531971455, 1.0240000486373901, 0.0, 0.0, 0.0, 0.0, 0.0, 1.6518365172215595E9, 0.0, 2022-05-06 12:28:37.221
12.0, -246.0106190852821, -175.782777717337, -195.7613232806325, -189.29877615720034, 0.1600000075995922, 0.11200000531971455, 1.0240000486373901, 0.0, 0.0, 0.0, 0.0, 0.0, 1.6518365172224956E9, 0.0, 2022-05-06 12:28:37.222
12.0, -284.26605573203415, -229.34562488272786, -236.02882610354573, -218.9150439063087, 0.1600000075995922, 0.11200000531971455, 1.0240000486373901, 0.0, 0.0, 0.0, 0.0, 0.0, 1.6518365172224956E9, 0.0, 2022-05-06 12:28:37.222
13.0, -242.47267372719944, -121.81602135673165, -150.81894551310688, -169.14819519594312, 0.1600000075995922, 0.11200000531971455, 1.0240000486373901, 0.0, 0.0, 0.0, 0.0, 0.0, 1.651836517235567E9, 0.0, 2022-05-06 12:28:37.235
13.0, -195.3162751859054, -60.111411987803876, -103.21001907717437, -131.64821834024042, 0.1600000075995922, 0.11200000531971455, 1.0240000486373901, 0.0, 0.0, 0.0, 0.0, 0.0, 1.651836517235567E9, 0.0, 2022-05-06 12:28:37.235
14.0, -229.79815277736634, -156.80278544221073, -167.73451301269233, -162.97362036909908, 0.1600000075995922, 0.11200000531971455, 1.0240000486373901, 0.0, 0.0, 0.0, 0.0, 0.0, 1.6518365172515533E9, 0.0, 2022-05-06 12:28:37.251
14.0, -279.0526351938024, -214.72261605598032, -221.82094617187977, -203.18502469267696, 0.1600000075995922, 0.11200000531971455, 1.0240000486373901, 0.0, 0.0, 0.0, 0.0, 0.0, 1.6518365172515533E9, 0.0, 2022-05-06 12:28:37.251
15.0, -247.62625586614013, -117.19724491145462, -156.77286624256521, -176.48213900905102, 0.1600000075995922, 0.11200000531971455, 1.0240000486373901, 0.0, 0.0, 0.0, 0.0, 0.0, 1.6518365172524967E9, 0.0, 2022-05-06 12:28:37.252
15.0, -206.0610077586025, -70.50833386462182, -119.0559751894325, -148.60492473933846, 0.1600000075995922, 0.11200000531971455, 1.0240000486373901, 0.0, 0.0, 0.0, 0.0, 0.0, 1.6518365172524967E9, 0.0, 2022-05-06 12:28:37.252
16.0, -233.927002328448, -167.31938411761075, -183.5318504255265, -177.25629829987884, 0.1600000075995922, 0.11200000531971455, 1.0240000486373901, 0.0, 0.0, 0.0, 0.0, 0.0, 1.6518365172655504E9, 0.0, 2022-05-06 12:28:37.265
16.0, -294.19175021443516, -209.47553641814739, -216.24475533794612, -202.59038059972227, 0.1600000075995922, 0.11200000531971455, 1.0240000486373901, 0.0, 0.0, 0.0, 0.0, 0.0, 1.6518365172655504E9, 0.0, 2022-05-06 12:28:37.265
17.0, -250.35264293383807, -119.76655618101358, -151.68286240287125, -179.2721043759957, 0.1600000075995922, 0.11200000531971455, 1.0240000486373901, 0.0, 0.0, 0.0, 0.0, 0.0, 1.6518365172815435E9, 0.0, 2022-05-06 12:28:37.281
17.0, -202.93819129560143, -65.69134272169322, -107.54082322586328, -126.12064620573074, 0.1600000075995922, 0.11200000531971455, 1.0240000486373901, 0.0, 0.0, 0.0, 0.0, 0.0, 1.6518365172815435E9, 0.0, 2022-05-06 12:28:37.281
18.0, -238.46724087465554, -167.1211694199592, -186.11238139495254, -186.4938511904329, 0.1600000075995922, 0.11200000531971455, 1.0240000486373901, 0.0, 0.0, 0.0, 0.0, 0.0, 1.6518365172825065E9, 0.0, 2022-05-06 12:28:37.282
18.0, -284.53158862888813, -219.22545560263097, -229.4092031819746, -218.9935818053782, 0.1600000075995922, 0.11200000531971455, 1.0240000486373901, 0.0, 0.0, 0.0, 0.0, 0.0, 1.6518365172825065E9, 0.0, 2022-05-06 12:28:37.282
19.0, -245.9732200857252, -126.96960349567235, -150.67308941483498, -168.83030369970948, 0.1600000075995922, 0.11200000531971455, 1.0240000486373901, 0.0, 0.0, 0.0, 0.0, 0.0, 1.651836517295648E9, 0.0, 2022-05-06 12:28:37.295
19.0, -202.8409538967535, -64.1056251404807, -109.04426300805062, -136.8466792786494, 0.1600000075995922, 0.11200000531971455, 1.0240000486373901, 0.0, 0.0, 0.0, 0.0, 0.0, 1.651836517295648E9, 0.0, 2022-05-06 12:28:37.295
20.0, -241.50777953863144, -164.19656765460968, -181.25051145255566, -177.9332201918587, 0.1600000075995922, 0.11200000531971455, 1.0240000486373901, 0.0, 0.0, 0.0, 0.0, 0.0, 1.651836517311554E9, 0.0, 2022-05-06 12:28:37.311
20.0, -280.5448552761227, -211.24076919723302, -221.68256987351924, -215.85206584259868, 0.1600000075995922, 0.11200000531971455, 1.0240000486373901, 0.0, 0.0, 0.0, 0.0, 0.0, 1.651836517311554E9, 0.0, 2022-05-06 12:28:37.311
21.0, -252.1590146124363, -117.97140420228243, -158.3324045240879, -182.00597124360502, 0.1600000075995922, 0.11200000531971455, 1.0240000486373901, 0.0, 0.0, 0.0, 0.0, 0.0, 1.6518365173125E9, 0.0, 2022-05-06 12:28:37.312
21.0, -199.99489003047347, -70.44849546533078, -112.36903406865895, -139.30379354953766, 0.1600000075995922, 0.11200000531971455, 1.0240000486373901, 0.0, 0.0, 0.0, 0.0, 0.0, 1.6518365173125E9, 0.0, 2022-05-06 12:28:37.312
22.0, -242.20340093038976, -177.63402819540352, -192.95265841390938, -188.92104626167566, 0.1600000075995922, 0.11200000531971455, 1.0240000486373901, 0.0, 0.0, 0.0, 0.0, 0.0, 1.6518365173255656E9, 0.0, 2022-05-06 12:28:37.325
22.0, -283.3497802428901, -215.48555564694107, -216.1400381391868, -209.63261221628636, 0.1600000075995922, 0.11200000531971455, 1.0240000486373901, 0.0, 0.0, 0.0, 0.0, 0.0, 1.6518365173255656E9, 0.0, 2022-05-06 12:28:37.325
23.0, -251.4484336208552, -121.57292785961181, -157.96963422838598, -175.86879541631788, 0.1600000075995922, 0.11200000531971455, 1.0240000486373901, 0.0, 0.0, 0.0, 0.0, 0.0, 1.651836517341555E9, 0.0, 2022-05-06 12:28:37.341
23.0, -203.68243138678372, -69.5509194759652, -117.74701020494103, -151.78383970167488, 0.1600000075995922, 0.11200000531971455, 1.0240000486373901, 0.0, 0.0, 0.0, 0.0, 0.0, 1.651836517341555E9, 0.0, 2022-05-06 12:28:37.341
24.0, -238.34756407607347, -169.39876849297434, -189.14170035906136, -179.85552876908332, 0.1600000075995922, 0.11200000531971455, 1.0240000486373901, 0.0, 0.0, 0.0, 0.0, 0.0, 1.6518365173425148E9, 0.0, 2022-05-06 12:28:37.342
24.0, -280.88892607204616, -219.70416279695928, -223.3655248535797, -204.9465175718069, 0.1600000075995922, 0.11200000531971455, 1.0240000486373901, 0.0, 0.0, 0.0, 0.0, 0.0, 1.6518365173425148E9, 0.0, 2022-05-06 12:28:37.342
25.0, -243.90505541022867, -114.04450924880803, -146.00195437017828, -168.3029778059572, 0.1600000075995922, 0.11200000531971455, 1.0240000486373901, 0.0, 0.0, 0.0, 0.0, 0.0, 1.6518365173565578E9, 0.0, 2022-05-06 12:28:37.356
25.0, -205.2457095682621, -76.57819149270654, -120.7613695692271, -146.5554595636204, 0.1600000075995922, 0.11200000531971455, 1.0240000486373901, 0.0, 0.0, 0.0, 0.0, 0.0, 1.6518365173565578E9, 0.0, 2022-05-06 12:28:37.356
26.0, -225.52718702796847, -168.50119250360876, -186.98751798458397, -183.92453992087394, 0.1600000075995922, 0.11200000531971455, 1.0240000486373901, 0.0, 0.0, 0.0, 0.0, 0.0, 1.65183651737158E9, 0.0, 2022-05-06 12:28:37.371
26.0, -291.15869135037065, -215.01432825252414, -220.85231208335608, -208.01323553547263, 0.1600000075995922, 0.11200000531971455, 1.0240000486373901, 0.0, 0.0, 0.0, 0.0, 0.0, 1.65183651737158E9, 0.0, 2022-05-06 12:28:37.371
27.0, -250.90614812728018, -120.77632916904986, -152.07929179817438, -178.18379348888993, 0.1600000075995922, 0.11200000531971455, 1.0240000486373901, 0.0, 0.0, 0.0, 0.0, 0.0, 1.6518365173724759E9, 0.0, 2022-05-06 12:28:37.372
27.0, -205.00635597109795, -75.09345121029764, -115.18143883533776, -141.30090012587607, 0.1600000075995922, 0.11200000531971455, 1.0240000486373901, 0.0, 0.0, 0.0, 0.0, 0.0, 1.6518365173724759E9, 0.0, 2022-05-06 12:28:37.372
28.0, -242.58113082591444, -169.68300088960677, -184.792196710594, -171.2986376704648, 0.1600000075995922, 0.11200000531971455, 1.0240000486373901, 0.0, 0.0, 0.0, 0.0, 0.0, 1.6518365174025488E9, 0.0, 2022-05-06 12:28:37.402
28.0, -275.84754093177617, -208.3573063313961, -213.6567445686087, -192.4215926202014, 0.1600000075995922, 0.11200000531971455, 1.0240000486373901, 0.0, 0.0, 0.0, 0.0, 0.0, 1.6518365174025488E9, 0.0, 2022-05-06 12:28:37.402
29.0, -246.29485148191452, -112.37651386857033, -148.9639551350847, -165.83464383520186, 0.1600000075995922, 0.11200000531971455, 1.0240000486373901, 0.0, 0.0, 0.0, 0.0, 0.0, 1.651836517403534E9, 0.0, 2022-05-06 12:28:37.403
29.0, -193.33412820938975, -59.90571749024093, -109.34345500450581, -140.41080393642187, 0.1600000075995922, 0.11200000531971455, 1.0240000486373901, 0.0, 0.0, 0.0, 0.0, 0.0, 1.651836517403534E9, 0.0, 2022-05-06 12:28:37.403
30.0, -242.28193882945925, -169.6381220901385, -183.7861636225134, -185.15122710634023, 0.1600000075995922, 0.11200000531971455, 1.0240000486373901, 0.0, 0.0, 0.0, 0.0, 0.0, 1.6518365174045103E9, 0.0, 2022-05-06 12:28:37.404
30.0, -289.0568675752729, -223.3655248535797, -230.2992993714288, -214.07561336364597, 0.1600000075995922, 0.11200000531971455, 1.0240000486373901, 0.0, 0.0, 0.0, 0.0, 0.0, 1.6518365174045103E9, 0.0, 2022-05-06 12:28:37.404
31.0, -254.37303538620472, -121.95813755504787, -161.23830678965896, -179.87048836890608, 0.1600000075995922, 0.11200000531971455, 1.0240000486373901, 0.0, 0.0, 0.0, 0.0, 0.0, 1.651836517415589E9, 0.0, 2022-05-06 12:28:37.415
31.0, -216.3270331369713, -74.69702181499451, -121.17275856435299, -148.08133874554187, 0.1600000075995922, 0.11200000531971455, 1.0240000486373901, 0.0, 0.0, 0.0, 0.0, 0.0, 1.651836517415589E9, 0.0, 2022-05-06 12:28:37.415
32.0, -250.1544282361865, -173.5612771436572, -196.58410127088428, -195.17789888754487, 0.1600000075995922, 0.11200000531971455, 1.0240000486373901, 0.0, 0.0, 0.0, 0.0, 0.0, 1.651836517431581E9, 0.0, 2022-05-06 12:28:37.431
32.0, -287.2205766970292, -224.6296110386029, -233.7400073306635, -219.94351639412344, 0.1600000075995922, 0.11200000531971455, 1.0240000486373901, 0.0, 0.0, 0.0, 0.0, 0.0, 1.651836517431581E9, 0.0, 2022-05-06 12:28:37.431
33.0, -259.9454863201827, -126.9097650963813, -162.49491317477077, -189.62788735330105, 0.1600000075995922, 0.11200000531971455, 1.0240000486373901, 0.0, 0.0, 0.0, 0.0, 0.0, 1.65183651743248E9, 0.0, 2022-05-06 12:28:37.432
33.0, -221.28240057826042, -88.69172744918615, -135.67235069256276, -161.44026138726622, 0.1600000075995922, 0.11200000531971455, 1.0240000486373901, 0.0, 0.0, 0.0, 0.0, 0.0, 1.65183651743248E9, 0.0, 2022-05-06 12:28:37.432
34.0, -253.43058059737086, -172.69362035393715, -196.29238907434046, -187.25679078139365, 0.1600000075995922, 0.11200000531971455, 1.0240000486373901, 0.0, 0.0, 0.0, 0.0, 0.0, 1.6518365174455483E9, 0.0, 2022-05-06 12:28:37.445
34.0, -287.04106149915606, -217.64721782132983, -226.32378571853042, -211.30434749647975, 0.1600000075995922, 0.11200000531971455, 1.0240000486373901, 0.0, 0.0, 0.0, 0.0, 0.0, 1.6518365174455483E9, 0.0, 2022-05-06 12:28:37.445
35.0, -257.18170025292784, -127.62034608796239, -156.53725254535675, -172.58890315517783, 0.1600000075995922, 0.11200000531971455, 1.0240000486373901, 0.0, 0.0, 0.0, 0.0, 0.0, 1.6518365174615593E9, 0.0, 2022-05-06 12:28:37.461
35.0, -211.36792579572648, -73.29081943165511, -118.4650709964335, -149.13599053304642, 0.1600000075995922, 0.11200000531971455, 1.0240000486373901, 0.0, 0.0, 0.0, 0.0, 0.0, 1.6518365174615593E9, 0.0, 2022-05-06 12:28:37.461
36.0, -248.8641627514735, -175.7453787177801, -190.4282259438187, -184.2686107167974, 0.1600000075995922, 0.11200000531971455, 1.0240000486373901, 0.0, 0.0, 0.0, 0.0, 0.0, 1.6518365174625375E9, 0.0, 2022-05-06 12:28:37.462
36.0, -278.08400110527873, -213.4734894707799, -220.75507468450814, -199.37780653778464, 0.1600000075995922, 0.11200000531971455, 1.0240000486373901, 0.0, 0.0, 0.0, 0.0, 0.0, 1.6518365174625375E9, 0.0, 2022-05-06 12:28:37.462
37.0, -248.99505924992263, -122.89311254397035, -150.6992687145248, -169.2641320945695, 0.1600000075995922, 0.11200000531971455, 1.0240000486373901, 0.0, 0.0, 0.0, 0.0, 0.0, 1.651836517475535E9, 0.0, 2022-05-06 12:28:37.475
37.0, -225.50100772827864, -79.33075786009431, -127.504409189336, -155.4078027587384, 0.1600000075995922, 0.11200000531971455, 1.0240000486373901, 0.0, 0.0, 0.0, 0.0, 0.0, 1.651836517475535E9, 0.0, 2022-05-06 12:28:37.475
38.0, -268.0087106246501, -182.82126943394542, -199.21699083968997, -183.52063072565943, 0.1600000075995922, 0.11200000531971455, 1.0240000486373901, 0.0, 0.0, 0.0, 0.0, 0.0, 1.6518365174915683E9, 0.0, 2022-05-06 12:28:37.491
38.0, -291.5065020462498, -220.6989761851728, -227.90950329974294, -203.9479642836377, 0.1600000075995922, 0.11200000531971455, 1.0240000486373901, 0.0, 0.0, 0.0, 0.0, 0.0, 1.6518365174915683E9, 0.0, 2022-05-06 12:28:37.491
39.0, -242.8915425222367, -115.33477473352104, -152.98434758745134, -174.06616363767534, 0.1600000075995922, 0.11200000531971455, 1.0240000486373901, 0.0, 0.0, 0.0, 0.0, 0.0, 1.6518365174924865E9, 0.0, 2022-05-06 12:28:37.492
39.0, -231.5222466569394, -83.27261241339147, -126.1318659055978, -157.46848763432354, 0.1600000075995922, 0.11200000531971455, 1.0240000486373901, 0.0, 0.0, 0.0, 0.0, 0.0, 1.6518365174924865E9, 0.0, 2022-05-06 12:28:37.492
40.0, -257.36869525071234, -181.71051914710552, -195.81368188001215, -179.84056916926056, 0.1600000075995922, 0.11200000531971455, 1.0240000486373901, 0.0, 0.0, 0.0, 0.0, 0.0, 1.651836517505562E9, 0.0, 2022-05-06 12:28:37.505
40.0, -293.5821465216577, -215.19010355044156, -230.10108467377722, -218.16332401521504, 0.1600000075995922, 0.11200000531971455, 1.0240000486373901, 0.0, 0.0, 0.0, 0.0, 0.0, 1.651836517505562E9, 0.0, 2022-05-06 12:28:37.505
41.0, -257.54447054862976, -125.06599441822618, -160.2584530012682, -181.92743334453553, 0.1600000075995922, 0.11200000531971455, 1.0240000486373901, 0.0, 0.0, 0.0, 0.0, 0.0, 1.6518365175215428E9, 0.0, 2022-05-06 12:28:37.521
41.0, -230.46011506952345, -91.10770282056183, -135.3993379957974, -169.23795279487967, 0.1600000075995922, 0.11200000531971455, 1.0240000486373901, 0.0, 0.0, 0.0, 0.0, 0.0, 1.6518365175215428E9, 0.0, 2022-05-06 12:28:37.521
42.0, -253.5315578961745, -176.77385120559484, -195.07692158874124, -185.1250478066504, 0.1600000075995922, 0.11200000531971455, 1.0240000486373901, 0.0, 0.0, 0.0, 0.0, 0.0, 1.6518365175225408E9, 0.0, 2022-05-06 12:28:37.522
42.0, -295.81860669516027, -227.4756749048829, -234.46928782202303, -214.45708315912634, 0.1600000075995922, 0.11200000531971455, 1.0240000486373901, 0.0, 0.0, 0.0, 0.0, 0.0, 1.6518365175225408E9, 0.0, 2022-05-06 12:28:37.522
43.0, -253.58391649555415, -122.77343574538827, -155.98374735191464, -173.3032240467146, 0.1600000075995922, 0.11200000531971455, 1.0240000486373901, 0.0, 0.0, 0.0, 0.0, 0.0, 1.6518365175355709E9, 0.0, 2022-05-06 12:28:37.535
43.0, -219.53960719890893, -76.72778749093413, -115.8321814276278, -139.5057481471449, 0.1600000075995922, 0.11200000531971455, 1.0240000486373901, 0.0, 0.0, 0.0, 0.0, 0.0, 1.6518365175355709E9, 0.0, 2022-05-06 12:28:37.535
44.0, -247.6748745655641, -168.2618389064446, -183.09428213071078, -171.1976603716612, 0.1600000075995922, 0.11200000531971455, 1.0240000486373901, 0.0, 0.0, 0.0, 0.0, 0.0, 1.651836517551535E9, 0.0, 2022-05-06 12:28:37.551
44.0, -301.0694262329489, -226.1442705206573, -235.50898000970483, -225.15319703239948, 0.1600000075995922, 0.11200000531971455, 1.0240000486373901, 0.0, 0.0, 0.0, 0.0, 0.0, 1.651836517551535E9, 0.0, 2022-05-06 12:28:37.551
45.0, -263.1917194817215, -125.03233531862497, -165.84212363511324, -190.66009974107146, 0.1600000075995922, 0.11200000531971455, 1.0240000486373901, 0.0, 0.0, 0.0, 0.0, 0.0, 1.6518365175525064E9, 0.0, 2022-05-06 12:28:37.552
45.0, -219.79018049594015, -85.5202922867611, -132.04838763549924, -165.91318173427135, 0.1600000075995922, 0.11200000531971455, 1.0240000486373901, 0.0, 0.0, 0.0, 0.0, 0.0, 1.6518365175525064E9, 0.0, 2022-05-06 12:28:37.552
46.0, -262.39512079115957, -182.89232753310353, -198.65600584633648, -188.82380886282772, 0.1600000075995922, 0.11200000531971455, 1.0240000486373901, 0.0, 0.0, 0.0, 0.0, 0.0, 1.651836517565573E9, 0.0, 2022-05-06 12:28:37.565
46.0, -289.34857977181673, -211.63719859253615, -222.1425775680691, -197.9454248547554, 0.1600000075995922, 0.11200000531971455, 1.0240000486373901, 0.0, 0.0, 0.0, 0.0, 0.0, 1.651836517565573E9, 0.0, 2022-05-06 12:28:37.565
47.0, -247.33080376964062, -116.38194672111422, -149.5473795281723, -164.83609054703265, 0.1600000075995922, 0.11200000531971455, 1.0240000486373901, 0.0, 0.0, 0.0, 0.0, 0.0, 1.6518365175815384E9, 0.0, 2022-05-06 12:28:37.581
47.0, -217.79307391960174, -78.34716417174786, -129.27338186837733, -154.89917636476457, 0.1600000075995922, 0.11200000531971455, 1.0240000486373901, 0.0, 0.0, 0.0, 0.0, 0.0, 1.6518365175815384E9, 0.0, 2022-05-06 12:28:37.581
48.0, -236.7768060946837, -169.12575579620898, -194.82634829171002, -190.3459481447935, 0.1600000075995922, 0.11200000531971455, 1.0240000486373901, 0.0, 0.0, 0.0, 0.0, 0.0, 1.651836517582522E9, 0.0, 2022-05-06 12:28:37.582
48.0, -298.993781757541, -221.19638287927955, -234.1139973262325, -218.5896726101637, 0.1600000075995922, 0.11200000531971455, 1.0240000486373901, 0.0, 0.0, 0.0, 0.0, 0.0, 1.651836517582522E9, 0.0, 2022-05-06 12:28:37.582
49.0, -261.6097418004647, -124.85656002070755, -163.1531355669722, -183.3485953276977, 0.1600000075995922, 0.11200000531971455, 1.0240000486373901, 0.0, 0.0, 0.0, 0.0, 0.0, 1.6518365175955493E9, 0.0, 2022-05-06 12:28:37.595
49.0, -215.25742174964398, -71.69762205053121, -111.86414757464081, -145.34373197797686, 0.1600000075995922, 0.11200000531971455, 1.0240000486373901, 0.0, 0.0, 0.0, 0.0, 0.0, 1.6518365175955493E9, 0.0, 2022-05-06 12:28:37.595
50.0, -261.58730240073055, -184.27983041666448, -198.98885694239289, -185.91416669730097, 0.1600000075995922, 0.11200000531971455, 1.008000047877431, 0.0, 0.0, 0.0, 0.0, 0.0, 1.651836517611532E9, 0.0, 2022-05-06 12:28:37.611
50.0, -299.6669637495652, -230.75930706597865, -240.5541050499305, -215.4331970475614, 0.1600000075995922, 0.11200000531971455, 1.008000047877431, 0.0, 0.0, 0.0, 0.0, 0.0, 1.651836517611532E9, 0.0, 2022-05-06 12:28:37.611
51.0, -261.18339320551604, -119.00735649000853, -155.80797205399722, -177.57792969606817, 0.1600000075995922, 0.11200000531971455, 1.008000047877431, 0.0, 0.0, 0.0, 0.0, 0.0, 1.6518365176125178E9, 0.0, 2022-05-06 12:28:37.612
51.0, -219.1057788040489, -82.25535962544382, -134.11281241104007, -160.9316349932924, 0.1600000075995922, 0.11200000531971455, 1.008000047877431, 0.0, 0.0, 0.0, 0.0, 0.0, 1.6518365176125178E9, 0.0, 2022-05-06 12:28:37.612
52.0, -260.4877718137577, -185.77953029889613, -204.6847245749086, -195.40603278484195, 0.1600000075995922, 0.11200000531971455, 1.008000047877431, 0.0, 0.0, 0.0, 0.0, 0.0, 1.6518365176255589E9, 0.0, 2022-05-06 12:28:37.625
52.0, -291.89171174168587, -216.2110962383449, -230.71068836655468, -214.5431008581072, 0.1600000075995922, 0.11200000531971455, 1.008000047877431, 0.0, 0.0, 0.0, 0.0, 0.0, 1.6518365176255589E9, 0.0, 2022-05-06 12:28:37.625
53.0, -266.2359980456531, -123.0576681420207, -159.0018466161564, -183.3822544272989, 0.1600000075995922, 0.11200000531971455, 1.008000047877431, 0.0, 0.0, 0.0, 0.0, 0.0, 1.6518365176415687E9, 0.0, 2022-05-06 12:28:37.641
53.0, -223.9601689465344, -81.34282403625548, -126.63675239961594, -148.60866463929415, 0.1600000075995922, 0.11200000531971455, 1.008000047877431, 0.0, 0.0, 0.0, 0.0, 0.0, 1.6518365176415687E9, 0.0, 2022-05-06 12:28:37.641
54.0, -245.21028049476445, -169.32771039381623, -192.37297392077744, -181.26173115242273, 0.1600000075995922, 0.11200000531971455, 1.008000047877431, 0.0, 0.0, 0.0, 0.0, 0.0, 1.651836517642491E9, 0.0, 2022-05-06 12:28:37.642
54.0, -299.4014308527112, -226.27516701910645, -226.64915701467544, -221.28240057826042, 0.1600000075995922, 0.11200000531971455, 1.008000047877431, 0.0, 0.0, 0.0, 0.0, 0.0, 1.651836517642491E9, 0.0, 2022-05-06 12:28:37.642
55.0, -257.95585954375565, -123.69719103444368, -155.7443937547505, -180.24821826443076, 0.1600000075995922, 0.11200000531971455, 1.008000047877431, 0.0, 0.0, 0.0, 0.0, 0.0, 1.6518365176555912E9, 0.0, 2022-05-06 12:28:37.655
55.0, -215.2125429501757, -78.75855316687375, -121.81228145677596, -147.6961290501058, 0.1600000075995922, 0.11200000531971455, 1.008000047877431, 0.0, 0.0, 0.0, 0.0, 0.0, 1.6518365176555912E9, 0.0, 2022-05-06 12:28:37.655
56.0, -247.121369372122, -170.55065767932683, -187.09597508329898, -173.57249684352428, 0.1600000075995922, 0.11200000531971455, 1.008000047877431, 0.0, 0.0, 0.0, 0.0, 0.0, 1.6518365176715436E9, 0.0, 2022-05-06 12:28:37.671
56.0, -291.1399918505922, -216.05776034016162, -224.79416663665324, -198.6148669468239, 0.1600000075995922, 0.11200000531971455, 1.008000047877431, 0.0, 0.0, 0.0, 0.0, 0.0, 1.6518365176715436E9, 0.0, 2022-05-06 12:28:37.671
57.0, -260.73460521083325, -121.02690246608108, -162.17328177858144, -189.72886465210468, 0.1600000075995922, 0.11200000531971455, 1.008000047877431, 0.0, 0.0, 0.0, 0.0, 0.0, 1.6518365176725028E9, 0.0, 2022-05-06 12:28:37.672
57.0, -223.35056525375694, -79.25595986098051, -129.1761444695294, -158.8559905178845, 0.1600000075995922, 0.11200000531971455, 1.008000047877431, 0.0, 0.0, 0.0, 0.0, 0.0, 1.6518365176725028E9, 0.0, 2022-05-06 12:28:37.672
58.0, -250.33020353410393, -182.61183503642678, -200.26416282728314, -187.77289697527885, 0.1600000075995922, 0.11200000531971455, 1.008000047877431, 0.0, 0.0, 0.0, 0.0, 0.0, 1.651836517685538E9, 0.0, 2022-05-06 12:28:37.685
58.0, -287.9535970883444, -218.01372801698744, -221.34597887750715, -207.11939944606274, 0.1600000075995922, 0.11200000531971455, 1.008000047877431, 0.0, 0.0, 0.0, 0.0, 0.0, 1.651836517685538E9, 0.0, 2022-05-06 12:28:37.685
59.0, -244.58571720216423, -114.12304714787751, -146.0692725693807, -160.57260459754616, 0.1600000075995922, 0.11200000531971455, 1.008000047877431, 0.0, 0.0, 0.0, 0.0, 0.0, 1.651836517701553E9, 0.0, 2022-05-06 12:28:37.701
59.0, -205.62717936374247, -83.19781441427767, -128.12149268202484, -161.42530178744346, 0.1600000075995922, 0.11200000531971455, 1.008000047877431, 0.0, 0.0, 0.0, 0.0, 0.0, 1.651836517701553E9, 0.0, 2022-05-06 12:28:37.701
60.0, -258.25131164025515, -182.45101933833212, -200.97474381886423, -193.77917630411685, 0.1600000075995922, 0.11200000531971455, 1.008000047877431, 0.0, 0.0, 0.0, 0.0, 0.0, 1.6518365177025428E9, 0.0, 2022-05-06 12:28:37.702
60.0, -300.8487721355632, -219.48350869957358, -225.09709853306413, -207.71030363906175, 0.1600000075995922, 0.11200000531971455, 1.008000047877431, 0.0, 0.0, 0.0, 0.0, 0.0, 1.6518365177025428E9, 0.0, 2022-05-06 12:28:37.702
61.0, -260.25215811654925, -121.41585206147283, -155.28064616024494, -174.2681182352826, 0.1600000075995922, 0.11200000531971455, 1.008000047877431, 0.0, 0.0, 0.0, 0.0, 0.0, 1.6518365177155359E9, 0.0, 2022-05-06 12:28:37.715
61.0, -218.07356641627848, -77.5206462815404, -126.55821450054646, -156.68310864362866, 0.1600000075995922, 0.11200000531971455, 1.008000047877431, 0.0, 0.0, 0.0, 0.0, 0.0, 1.6518365177155359E9, 0.0, 2022-05-06 12:28:37.715
62.0, -256.55339706037194, -180.61472846008837, -199.0225160419941, -186.55742948967963, 0.1600000075995922, 0.11200000531971455, 1.008000047877431, 0.0, 0.0, 0.0, 0.0, 0.0, 1.6518365177315683E9, 0.0, 2022-05-06 12:28:37.731
62.0, -302.41953011695296, -227.01566721033305, -232.42730244621634, -212.9573832768947, 0.1600000075995922, 0.11200000531971455, 1.008000047877431, 0.0, 0.0, 0.0, 0.0, 0.0, 1.6518365177315683E9, 0.0, 2022-05-06 12:28:37.731
63.0, -263.9023004733026, -123.27084243949503, -160.5165060982108, -185.88798739761114, 0.1600000075995922, 0.11200000531971455, 1.008000047877431, 0.0, 0.0, 0.0, 0.0, 0.0, 1.6518365177324805E9, 0.0, 2022-05-06 12:28:37.732
63.0, -219.98465529363602, -81.38396293576807, -125.15201211720705, -158.01451302785426, 0.1600000075995922, 0.11200000531971455, 1.008000047877431, 0.0, 0.0, 0.0, 0.0, 0.0, 1.6518365177324805E9, 0.0, 2022-05-06 12:28:37.732
64.0, -258.43082683812827, -180.11732176598161, -198.3942128494382, -192.44777191989124, 0.1600000075995922, 0.11200000531971455, 1.008000047877431, 0.0, 0.0, 0.0, 0.0, 0.0, 1.6518365177455444E9, 0.0, 2022-05-06 12:28:37.745
64.0, -294.31142701301724, -220.52694078721106, -230.44889536965638, -213.2154363738373, 0.1600000075995922, 0.11200000531971455, 1.008000047877431, 0.0, 0.0, 0.0, 0.0, 0.0, 1.6518365177455444E9, 0.0, 2022-05-06 12:28:37.745
65.0, -255.63338167127222, -118.51368969585747, -153.64256997965276, -166.50408592727035, 0.1600000075995922, 0.11200000531971455, 1.008000047877431, 0.0, 0.0, 0.0, 0.0, 0.0, 1.6518365177775319E9, 0.0, 2022-05-06 12:28:37.777
65.0, -200.73165032174438, -67.20226230379194, -112.7953826636076, -128.78719487413764, 0.1600000075995922, 0.11200000531971455, 1.008000047877431, 0.0, 0.0, 0.0, 0.0, 0.0, 1.6518365177775319E9, 0.0, 2022-05-06 12:28:37.777
66.0, -255.81663676910102, -179.2721043759957, -193.75299700442702, -182.33134253975004, 0.1600000075995922, 0.11200000531971455, 1.008000047877431, 0.0, 0.0, 0.0, 0.0, 0.0, 1.6518365177785156E9, 0.0, 2022-05-06 12:28:37.778
66.0, -281.40503226593137, -215.07790655177087, -226.44720241706818, -197.3545206617564, 0.1600000075995922, 0.11200000531971455, 1.008000047877431, 0.0, 0.0, 0.0, 0.0, 0.0, 1.6518365177785156E9, 0.0, 2022-05-06 12:28:37.778
67.0, -249.31295074615628, -119.20183128770441, -162.6295495731756, -188.18428597040474, 0.1600000075995922, 0.11200000531971455, 1.008000047877431, 0.0, 0.0, 0.0, 0.0, 0.0, 1.6518365177794957E9, 0.0, 2022-05-06 12:28:37.779
67.0, -216.85061913076788, -75.48988060560077, -120.29388207476586, -163.02971886843443, 0.1600000075995922, 0.11200000531971455, 1.008000047877431, 0.0, 0.0, 0.0, 0.0, 0.0, 1.6518365177794957E9, 0.0, 2022-05-06 12:28:37.779
68.0, -264.54556326568127, -186.78556338697672, -207.03712164703757, -198.44657144881785, 0.1600000075995922, 0.11200000531971455, 1.008000047877431, 0.0, 0.0, 0.0, 0.0, 0.0, 1.6518365177915947E9, 0.0, 2022-05-06 12:28:37.791
68.0, -300.05591334495693, -225.09335863310844, -237.62576338462532, -219.28155410196632, 0.1600000075995922, 0.11200000531971455, 1.008000047877431, 0.0, 0.0, 0.0, 0.0, 0.0, 1.6518365177915947E9, 0.0, 2022-05-06 12:28:37.791
69.0, -259.1675871293992, -115.62648693006486, -157.73028063122183, -182.03963034320623, 0.1600000075995922, 0.11200000531971455, 1.008000047877431, 0.0, 0.0, 0.0, 0.0, 0.0, 1.6518365177925344E9, 0.0, 2022-05-06 12:28:37.792
69.0, -223.16357025597245, -83.86351660639048, -134.23622910957783, -164.14046915527433, 0.1600000075995922, 0.11200000531971455, 1.008000047877431, 0.0, 0.0, 0.0, 0.0, 0.0, 1.6518365177925344E9, 0.0, 2022-05-06 12:28:37.792
70.0, -248.44155405648053, -179.29828367568552, -193.34534790925682, -179.61991507187486, 0.1600000075995922, 0.11200000531971455, 1.008000047877431, 0.0, 0.0, 0.0, 0.0, 0.0, 1.6518365178065307E9, 0.0, 2022-05-06 12:28:37.806
70.0, -281.14697916898876, -210.30953410826623, -218.59715241007507, -196.3896264731884, 0.1600000075995922, 0.11200000531971455, 1.008000047877431, 0.0, 0.0, 0.0, 0.0, 0.0, 1.6518365178065307E9, 0.0, 2022-05-06 12:28:37.806
71.0, -258.651480935514, -116.63999981805682, -159.2262406134978, -180.39033446274698, 0.1600000075995922, 0.11200000531971455, 1.008000047877431, 0.0, 0.0, 0.0, 0.0, 0.0, 1.6518365178375268E9, 0.0, 2022-05-06 12:28:37.837
71.0, -224.98490153439343, -81.45876093488187, -123.92158503178507, -151.6230240035802, 0.1600000075995922, 0.11200000531971455, 1.008000047877431, 0.0, 0.0, 0.0, 0.0, 0.0, 1.6518365178375268E9, 0.0, 2022-05-06 12:28:37.837
72.0, -259.2610846282914, -181.83767574559897, -198.1324198525399, -189.13796045910567, 0.1600000075995922, 0.11200000531971455, 1.008000047877431, 0.0, 0.0, 0.0, 0.0, 0.0, 1.651836517838503E9, 0.0, 2022-05-06 12:28:37.838
72.0, -296.90317768231034, -232.83495154138654, -236.86282379366457, -216.56264683417976, 0.1600000075995922, 0.11200000531971455, 1.008000047877431, 0.0, 0.0, 0.0, 0.0, 0.0, 1.651836517838503E9, 0.0, 2022-05-06 12:28:37.838
73.0, -242.5549515262246, -109.22751810587943, -148.6647631386295, -166.9715734217316, 0.1600000075995922, 0.11200000531971455, 1.008000047877431, 0.0, 0.0, 0.0, 0.0, 0.0, 1.6518365178395703E9, 0.0, 2022-05-06 12:28:37.839
73.0, -209.96546331234276, -73.41797603014857, -120.5369755718857, -157.87239682953805, 0.1600000075995922, 0.11200000531971455, 1.008000047877431, 0.0, 0.0, 0.0, 0.0, 0.0, 1.6518365178395703E9, 0.0, 2022-05-06 12:28:37.839
74.0, -252.51430510822684, -181.8301959456876, -197.0889877649024, -186.32929559238255, 0.1600000075995922, 0.11200000531971455, 1.008000047877431, 0.0, 0.0, 0.0, 0.0, 0.0, 1.651836517851532E9, 0.0, 2022-05-06 12:28:37.851
74.0, -284.6550053274259, -207.90477843675762, -214.38228516001254, -200.19684462808073, 0.1600000075995922, 0.11200000531971455, 1.008000047877431, 0.0, 0.0, 0.0, 0.0, 0.0, 1.651836517851532E9, 0.0, 2022-05-06 12:28:37.851
75.0, -250.3040242344141, -114.4633780438453, -151.27521330770105, -164.6378758493811, 0.1600000075995922, 0.11200000531971455, 1.008000047877431, 0.0, 0.0, 0.0, 0.0, 0.0, 1.6518365178524833E9, 0.0, 2022-05-06 12:28:37.852
75.0, -212.18322398606688, -69.79027307312936, -115.10664083622396, -134.26988820917904, 0.1600000075995922, 0.11200000531971455, 1.008000047877431, 0.0, 0.0, 0.0, 0.0, 0.0, 1.6518365178524833E9, 0.0, 2022-05-06 12:28:37.852
76.0, -249.8963751392439, -186.65466688852757, -203.74974958598614, -186.47515169065446, 0.1600000075995922, 0.11200000531971455, 1.008000047877431, 0.0, 0.0, 0.0, 0.0, 0.0, 1.6518365178655603E9, 0.0, 2022-05-06 12:28:37.865
76.0, -278.92921849526465, -211.14353179838508, -220.8111731838435, -207.41859144251794, 0.1600000075995922, 0.11200000531971455, 1.008000047877431, 0.0, 0.0, 0.0, 0.0, 0.0, 1.6518365178655603E9, 0.0, 2022-05-06 12:28:37.865
77.0, -250.77151172887534, -116.96537111420184, -152.80483238957822, -162.16954187862575, 0.1600000075995922, 0.11200000531971455, 1.008000047877431, 0.0, 0.0, 0.0, 0.0, 0.0, 1.651836517881558E9, 0.0, 2022-05-06 12:28:37.881
77.0, -205.3616464668885, -71.26005375571549, -111.17974588274956, -131.51732184179127, 0.1600000075995922, 0.11200000531971455, 1.008000047877431, 0.0, 0.0, 0.0, 0.0, 0.0, 1.651836517881558E9, 0.0, 2022-05-06 12:28:37.881
78.0, -248.79684455227107, -175.939853515476, -192.60110781807452, -193.97365110181272, 0.1600000075995922, 0.11200000531971455, 1.008000047877431, 0.0, 0.0, 0.0, 0.0, 0.0, 1.651836517882548E9, 0.0, 2022-05-06 12:28:37.882
78.0, -291.5850399453193, -220.29880688991398, -232.38242364674807, -219.15065760351717, 0.1600000075995922, 0.11200000531971455, 1.008000047877431, 0.0, 0.0, 0.0, 0.0, 0.0, 1.651836517882548E9, 0.0, 2022-05-06 12:28:37.882
79.0, -249.39896844513714, -116.33706792164594, -152.4794610934332, -179.72837217058986, 0.1600000075995922, 0.11200000531971455, 1.008000047877431, 0.0, 0.0, 0.0, 0.0, 0.0, 1.651836517895621E9, 0.0, 2022-05-06 12:28:37.895
79.0, -222.6287645623088, -80.4452480468899, -134.34842610824853, -166.1188762318343, 0.1600000075995922, 0.11200000531971455, 1.008000047877431, 0.0, 0.0, 0.0, 0.0, 0.0, 1.651836517895621E9, 0.0, 2022-05-06 12:28:37.895
80.0, -251.59428971912712, -180.3828546628356, -197.81452835630625, -182.82126943394542, 0.1600000075995922, 0.11200000531971455, 1.008000047877431, 0.0, 0.0, 0.0, 0.0, 0.0, 1.6518365179115784E9, 0.0, 2022-05-06 12:28:37.911
80.0, -281.6182065634057, -216.9927353290841, -224.73058833740652, -210.75458220299333, 0.1600000075995922, 0.11200000531971455, 1.008000047877431, 0.0, 0.0, 0.0, 0.0, 0.0, 1.6518365179115784E9, 0.0, 2022-05-06 12:28:37.911
81.0, -239.95198115706444, -103.00432457961142, -134.5802999055013, -155.93886855244637, 0.1600000075995922, 0.11200000531971455, 1.008000047877431, 0.0, 0.0, 0.0, 0.0, 0.0, 1.6518365179125028E9, 0.0, 2022-05-06 12:28:37.912
81.0, -216.56264683417976, -81.95990752894431, -127.73628298658878, -150.35893781855702, 0.1600000075995922, 0.11200000531971455, 1.008000047877431, 0.0, 0.0, 0.0, 0.0, 0.0, 1.6518365179125028E9, 0.0, 2022-05-06 12:28:37.912
82.0, -265.9405459491536, -187.4176064794883, -204.46033057756722, -193.02371651306748, 0.1600000075995922, 0.11200000531971455, 1.008000047877431, 0.0, 0.0, 0.0, 0.0, 0.0, 1.6518365179256027E9, 0.0, 2022-05-06 12:28:37.925
82.0, -287.07846049871296, -213.4398303711787, -228.1039780974388, -211.74565569125116, 0.1600000075995922, 0.11200000531971455, 1.008000047877431, 0.0, 0.0, 0.0, 0.0, 0.0, 1.6518365179256027E9, 0.0, 2022-05-06 12:28:37.925
83.0, -256.5346975605935, -113.45360505580902, -155.39284315891564, -175.07593662571162, 0.1600000075995922, 0.11200000531971455, 1.008000047877431, 0.0, 0.0, 0.0, 0.0, 0.0, 1.6518365179575474E9, 0.0, 2022-05-06 12:28:37.957
83.0, -216.78330093156546, -76.80632539000362, -124.9089186200872, -150.50853381678462, 0.1600000075995922, 0.11200000531971455, 1.008000047877431, 0.0, 0.0, 0.0, 0.0, 0.0, 1.6518365179575474E9, 0.0, 2022-05-06 12:28:37.957
84.0, -240.7448399476707, -180.7493648584932, -195.32749488577247, -183.69640602357686, 0.1600000075995922, 0.11200000531971455, 1.008000047877431, 0.0, 0.0, 0.0, 0.0, 0.0, 1.6518365179585452E9, 0.0, 2022-05-06 12:28:37.958
84.0, -268.7118118163198, -205.34668686706573, -208.94073072448373, -194.8712270911783, 0.1600000075995922, 0.11200000531971455, 1.008000047877431, 0.0, 0.0, 0.0, 0.0, 0.0, 1.6518365179585452E9, 0.0, 2022-05-06 12:28:37.958
85.0, -252.61902230698615, -107.02097713202238, -143.05491320509464, -165.21008054260164, 0.1600000075995922, 0.11200000531971455, 1.008000047877431, 0.0, 0.0, 0.0, 0.0, 0.0, 1.6518365179595675E9, 0.0, 2022-05-06 12:28:37.959
85.0, -205.75059606228024, -68.01382059417665, -111.90902637410909, -135.34697939641774, 0.1600000075995922, 0.11200000531971455, 1.008000047877431, 0.0, 0.0, 0.0, 0.0, 0.0, 1.6518365179595675E9, 0.0, 2022-05-06 12:28:37.959
86.0, -253.0827699014917, -186.52751029003412, -203.9143051840365, -193.2742898100987, 0.1600000075995922, 0.11200000531971455, 1.008000047877431, 0.0, 0.0, 0.0, 0.0, 0.0, 1.6518365179715378E9, 0.0, 2022-05-06 12:28:37.971
86.0, -296.30105378944427, -231.09963796194643, -240.86825664620847, -222.79332016035914, 0.1600000075995922, 0.11200000531971455, 1.008000047877431, 0.0, 0.0, 0.0, 0.0, 0.0, 1.6518365179715378E9, 0.0, 2022-05-06 12:28:37.971
87.0, -248.9651400502771, -112.91505946218967, -152.69263539090753, -174.38779503386468, 0.1600000075995922, 0.11200000531971455, 1.008000047877431, 0.0, 0.0, 0.0, 0.0, 0.0, 1.651836517972479E9, 0.0, 2022-05-06 12:28:37.972
87.0, -206.62947255186737, -72.51292024087161, -113.09831456001848, -134.9206308014691, 0.1600000075995922, 0.11200000531971455, 1.008000047877431, 0.0, 0.0, 0.0, 0.0, 0.0, 1.651836517972479E9, 0.0, 2022-05-06 12:28:37.972
88.0, -252.81723700463772, -180.7942436579615, -195.11806048825383, -178.1202151896432, 0.1600000075995922, 0.11200000531971455, 1.008000047877431, 0.0, 0.0, 0.0, 0.0, 0.0, 1.6518365179865584E9, 0.0, 2022-05-06 12:28:37.986
88.0, -284.1276794336736, -210.47782960627228, -220.4371831882745, -202.41086540184915, 0.1600000075995922, 0.11200000531971455, 1.008000047877431, 0.0, 0.0, 0.0, 0.0, 0.0, 1.6518365179865584E9, 0.0, 2022-05-06 12:28:37.986
89.0, -242.7419465240091, -103.15392057783902, -148.42914944142103, -178.85697548091412, 0.1600000075995922, 0.11200000531971455, 1.008000047877431, 0.0, 0.0, 0.0, 0.0, 0.0, 1.6518365180015612E9, 0.0, 2022-05-06 12:28:38.001
89.0, -214.89839135389775, -80.60606374498457, -123.43539803754538, -149.79421292524785, 0.1600000075995922, 0.11200000531971455, 1.008000047877431, 0.0, 0.0, 0.0, 0.0, 0.0, 1.6518365180015612E9, 0.0, 2022-05-06 12:28:38.001
90.0, -256.19062676467, -187.78037677519023, -204.59122707601637, -198.18851835187525, 0.1600000075995922, 0.11200000531971455, 1.008000047877431, 0.0, 0.0, 0.0, 0.0, 0.0, 1.6518365180025291E9, 0.0, 2022-05-06 12:28:38.002
90.0, -289.96566326450557, -225.64686382655054, -236.15972260199487, -220.24644829053432, 0.1600000075995922, 0.11200000531971455, 1.008000047877431, 0.0, 0.0, 0.0, 0.0, 0.0, 1.6518365180025291E9, 0.0, 2022-05-06 12:28:38.002
91.0, -251.25769872311503, -119.01109638996422, -151.80627910140902, -167.49889931548387, 0.1600000075995922, 0.11200000531971455, 1.008000047877431, 0.0, 0.0, 0.0, 0.0, 0.0, 1.6518365180155313E9, 0.0, 2022-05-06 12:28:38.015
91.0, -212.36273918394, -76.54453239310533, -122.4293649494648, -149.2145284321159, 0.1600000075995922, 0.11200000531971455, 1.008000047877431, 0.0, 0.0, 0.0, 0.0, 0.0, 1.6518365180155313E9, 0.0, 2022-05-06 12:28:38.015
92.0, -250.32272373419255, -184.6089416127652, -203.1663251928985, -198.06510165333748, 0.1600000075995922, 0.11200000531971455, 1.008000047877431, 0.0, 0.0, 0.0, 0.0, 0.0, 1.6518365180315998E9, 0.0, 2022-05-06 12:28:38.031
92.0, -289.97314306441694, -220.53442058712244, -225.07839903328568, -210.94531710073352, 0.1600000075995922, 0.11200000531971455, 1.008000047877431, 0.0, 0.0, 0.0, 0.0, 0.0, 1.6518365180315998E9, 0.0, 2022-05-06 12:28:38.031
93.0, -265.70119235198945, -128.63385897595435, -166.2647323301062, -186.80800278671086, 0.1600000075995922, 0.11200000531971455, 1.008000047877431, 0.0, 0.0, 0.0, 0.0, 0.0, 1.6518365180325277E9, 0.0, 2022-05-06 12:28:38.032
93.0, -215.2499419497326, -81.06233153957874, -123.22596364002675, -149.8839705241844, 0.1600000075995922, 0.11200000531971455, 1.008000047877431, 0.0, 0.0, 0.0, 0.0, 0.0, 1.6518365180325277E9, 0.0, 2022-05-06 12:28:38.032
94.0, -254.5637702839449, -186.40783349145204, -200.28660222701728, -178.36704858671874, 0.1600000075995922, 0.11200000531971455, 1.008000047877431, 0.0, 0.0, 0.0, 0.0, 0.0, 1.6518365180455756E9, 0.0, 2022-05-06 12:28:38.045
94.0, -289.19898377358913, -218.31665991339833, -229.850511376746, -214.2850477611646, 0.1600000075995922, 0.11200000531971455, 1.008000047877431, 0.0, 0.0, 0.0, 0.0, 0.0, 1.6518365180455756E9, 0.0, 2022-05-06 12:28:38.045
95.0, -242.42405502777547, -107.95969202090055, -146.00195437017828, -165.2586992420256, 0.1600000075995922, 0.11200000531971455, 1.008000047877431, 0.0, 0.0, 0.0, 0.0, 0.0, 1.6518365180615509E9, 0.0, 2022-05-06 12:28:38.061
95.0, -208.10673303436488, -74.06497872248292, -115.26745653431863, -139.16541725117713, 0.1600000075995922, 0.11200000531971455, 1.008000047877431, 0.0, 0.0, 0.0, 0.0, 0.0, 1.6518365180615509E9, 0.0, 2022-05-06 12:28:38.061
96.0, -248.57993035484105, -178.2698111878708, -195.52944948337972, -188.977144761011, 0.1600000075995922, 0.11200000531971455, 1.008000047877431, 0.0, 0.0, 0.0, 0.0, 0.0, 1.651836518062523E9, 0.0, 2022-05-06 12:28:38.062
96.0, -289.26630197279155, -217.34054602496326, -231.0024005630985, -213.73902236763388, 0.1600000075995922, 0.11200000531971455, 1.008000047877431, 0.0, 0.0, 0.0, 0.0, 0.0, 1.651836518062523E9, 0.0, 2022-05-06 12:28:38.062
97.0, -250.23670603521168, -113.3526277570054, -154.0315195750445, -180.76058455836028, 0.1600000075995922, 0.11200000531971455, 1.008000047877431, 0.0, 0.0, 0.0, 0.0, 0.0, 1.6518365180765493E9, 0.0, 2022-05-06 12:28:38.076
97.0, -212.12712548673153, -75.0373527109623, -125.56714101228863, -148.56004593987018, 0.1600000075995922, 0.11200000531971455, 1.008000047877431, 0.0, 0.0, 0.0, 0.0, 0.0, 1.6518365180765493E9, 0.0, 2022-05-06 12:28:38.076
98.0, -251.80372411664575, -182.00597124360502, -197.2797226626426, -182.00223134364933, 0.1600000075995922, 0.11200000531971455, 1.008000047877431, 0.0, 0.0, 0.0, 0.0, 0.0, 1.651836518091548E9, 0.0, 2022-05-06 12:28:38.091
98.0, -293.0660403277725, -236.80298539437354, -241.24224664177746, -224.98116163443774, 0.1600000075995922, 0.11200000531971455, 1.008000047877431, 0.0, 0.0, 0.0, 0.0, 0.0, 1.651836518091548E9, 0.0, 2022-05-06 12:28:38.091
99.0, -254.3057171870023, -109.69500560034066, -145.1791763799265, -162.0349054802209, 0.1600000075995922, 0.11200000531971455, 1.008000047877431, 0.0, 0.0, 0.0, 0.0, 0.0, 1.6518365180925229E9, 0.0, 2022-05-06 12:28:38.092
99.0, -210.38059220742434, -86.44404757581651, -131.8800921374932, -170.6778142778203, 0.1600000075995922, 0.11200000531971455, 1.008000047877431, 0.0, 0.0, 0.0, 0.0, 0.0, 1.6518365180925229E9, 0.0, 2022-05-06 12:28:38.092
100.0, -261.2619311045855, -196.56914167106152, -205.04749487061054, -187.52606357820332, 0.1600000075995922, 0.11200000531971455, 1.0240000486373901, 0.0, 0.0, 0.0, 0.0, 0.0, 1.6518365181065805E9, 0.0, 2022-05-06 12:28:38.106
100.0, -295.9981218930334, -224.55855293944478, -232.98454753961414, -217.4751824233681, 0.1600000075995922, 0.11200000531971455, 1.0240000486373901, 0.0, 0.0, 0.0, 0.0, 0.0, 1.6518365181065805E9, 0.0, 2022-05-06 12:28:38.106
0.0, -255.25191187579185, -119.57769123325124, -157.7452402310446, -190.6451401412487, 0.1600000075995922, 0.11200000531971455, 1.0240000486373901, 0.0, 0.0, 0.0, 0.0, 0.0, 1.6518365181075015E9, 0.0, 2022-05-06 12:28:38.107
1.0, -209.78968801442534, -78.92497871490195, -120.79128876887262, -155.50878005754203, 0.1600000075995922, 0.09600000455975533, 1.0240000486373901, 0.0, 0.0, 0.0, 0.0, 0.0, 1.651836518120556E9, 0.0, 2022-05-06 12:28:38.120
1.0, -246.5603843787685, -177.74809514405206, -196.2400304749608, -187.22687158174813, 0.1600000075995922, 0.09600000455975533, 1.0240000486373901, 0.0, 0.0, 0.0, 0.0, 0.0, 1.651836518120556E9, 0.0, 2022-05-06 12:28:38.120
2.0, -285.6984374150634, -212.17387423617765, -217.729495620355, -199.9088723314926, 0.1600000075995922, 0.09600000455975533, 1.0240000486373901, 0.0, 0.0, 0.0, 0.0, 0.0, 1.6518365181365757E9, 0.0, 2022-05-06 12:28:38.136
2.0, -242.02388573251665, -104.48345501208678, -146.15529026836157, -168.91632139869034, 0.1600000075995922, 0.09600000455975533, 1.0240000486373901, 0.0, 0.0, 0.0, 0.0, 0.0, 1.6518365181365757E9, 0.0, 2022-05-06 12:28:38.136
3.0, -204.25837597995996, -71.76307029975578, -122.95295094326138, -152.17652919702232, 0.1600000075995922, 0.09600000455975533, 1.0240000486373901, 0.0, 0.0, 0.0, 0.0, 0.0, 1.6518365181374795E9, 0.0, 2022-05-06 12:28:38.137
3.0, -255.10979567747563, -174.8459327784367, -193.2817696100101, -175.98099241498858, 0.1600000075995922, 0.09600000455975533, 1.0240000486373901, 0.0, 0.0, 0.0, 0.0, 0.0, 1.6518365181374795E9, 0.0, 2022-05-06 12:28:38.137
4.0, -289.60663286875933, -217.43591347383335, -229.65603657905012, -212.9499034769833, 0.1600000075995922, 0.09600000455975533, 1.0240000486373901, 0.0, 0.0, 0.0, 0.0, 0.0, 1.6518365181515343E9, 0.0, 2022-05-06 12:28:38.151
4.0, -253.79709079302847, -111.83609832497314, -148.4366292413324, -174.53739103209227, 0.1600000075995922, 0.09600000455975533, 1.0240000486373901, 0.0, 0.0, 0.0, 0.0, 0.0, 1.6518365181515343E9, 0.0, 2022-05-06 12:28:38.151
5.0, -212.85640597809106, -76.51648314343765, -120.33876087423414, -150.1457635210827, 0.1600000075995922, 0.09600000455975533, 1.0240000486373901, 0.0, 0.0, 0.0, 0.0, 0.0, 1.6518365181665688E9, 0.0, 2022-05-06 12:28:38.166
5.0, -257.77260444592685, -190.3702574945055, -206.22182345669717, -195.47335098404437, 0.1600000075995922, 0.09600000455975533, 1.0240000486373901, 0.0, 0.0, 0.0, 0.0, 0.0, 1.6518365181665688E9, 0.0, 2022-05-06 12:28:38.166
6.0, -284.11271983385086, -219.33204275136814, -228.50788729265332, -206.65939175151289, 0.1600000075995922, 0.09600000455975533, 1.0240000486373901, 0.0, 0.0, 0.0, 0.0, 0.0, 1.6518365181675198E9, 0.0, 2022-05-06 12:28:38.167
6.0, -239.79864525888115, -108.06253926968202, -141.30090012587607, -158.39224292337894, 0.1600000075995922, 0.09600000455975533, 1.0240000486373901, 0.0, 0.0, 0.0, 0.0, 0.0, 1.6518365181675198E9, 0.0, 2022-05-06 12:28:38.167
7.0, -198.90283924341202, -67.4584454507567, -111.51633687876165, -131.18447074573487, 0.1600000075995922, 0.09600000455975533, 1.0240000486373901, 0.0, 0.0, 0.0, 0.0, 0.0, 1.651836518180566E9, 0.0, 2022-05-06 12:28:38.180
7.0, -227.20266220811754, -170.67594432784244, -181.27669075224549, -161.8553902823478, 0.1600000075995922, 0.09600000455975533, 1.0240000486373901, 0.0, 0.0, 0.0, 0.0, 0.0, 1.651836518180566E9, 0.0, 2022-05-06 12:28:38.180
8.0, -290.9866559524089, -211.48199274437502, -223.69089614972472, -207.68412433937192, 0.1600000075995922, 0.09600000455975533, 1.0240000486373901, 0.0, 0.0, 0.0, 0.0, 0.0, 1.6518365181965373E9, 0.0, 2022-05-06 12:28:38.196
8.0, -248.83050365187228, -112.3335050190799, -149.1098112333566, -173.60989584308118, 0.1600000075995922, 0.09600000455975533, 1.0240000486373901, 0.0, 0.0, 0.0, 0.0, 0.0, 1.6518365181965373E9, 0.0, 2022-05-06 12:28:38.196
9.0, -211.83541329018772, -76.37436694512144, -119.41126568522304, -146.97806825861335, 0.1600000075995922, 0.09600000455975533, 1.0240000486373901, 0.0, 0.0, 0.0, 0.0, 0.0, 1.6518365181974916E9, 0.0, 2022-05-06 12:28:38.197
9.0, -248.785624852404, -180.93822980625555, -195.0544821890071, -184.63512091245502, 0.1600000075995922, 0.09600000455975533, 1.0240000486373901, 0.0, 0.0, 0.0, 0.0, 0.0, 1.6518365181974916E9, 0.0, 2022-05-06 12:28:38.197
10.0, -298.1036855680868, -226.19101927010342, -243.12715621944517, -226.76135401334614, 0.1600000075995922, 0.09600000455975533, 1.0240000486373901, 0.0, 0.0, 0.0, 0.0, 0.0, 1.651836518210538E9, 0.0, 2022-05-06 12:28:38.210
10.0, -242.32307772897184, -112.61773741571233, -154.12127717398107, -183.95445912051946, 0.1600000075995922, 0.09600000455975533, 1.0240000486373901, 0.0, 0.0, 0.0, 0.0, 0.0, 1.651836518210538E9, 0.0, 2022-05-06 12:28:38.210
11.0, -207.6205460401252, -75.65630615362898, -123.14742574095726, -152.31490549538285, 0.1600000075995922, 0.11200000531971455, 1.0240000486373901, 0.0, 0.0, 0.0, 0.0, 0.0, 1.6518365182265477E9, 0.0, 2022-05-06 12:28:38.226
11.0, -260.1250015180558, -183.63469767430797, -201.26645601540804, -188.59567496553063, 0.1600000075995922, 0.11200000531971455, 1.0240000486373901, 0.0, 0.0, 0.0, 0.0, 0.0, 1.6518365182265477E9, 0.0, 2022-05-06 12:28:38.226
12.0, -294.5021619107574, -219.1226083538495, -226.98200811073184, -207.25403584446758, 0.1600000075995922, 0.11200000531971455, 1.0240000486373901, 0.0, 0.0, 0.0, 0.0, 0.0, 1.6518365182275403E9, 0.0, 2022-05-06 12:28:38.227
12.0, -239.16286226641387, -100.31346656149253, -142.64352420996875, -163.0072794687003, 0.1600000075995922, 0.11200000531971455, 1.0240000486373901, 0.0, 0.0, 0.0, 0.0, 0.0, 1.6518365182275403E9, 0.0, 2022-05-06 12:28:38.227
13.0, -209.6961905155331, -80.83980749221519, -123.65979203488678, -154.966494563967, 0.1600000075995922, 0.11200000531971455, 1.0240000486373901, 0.0, 0.0, 0.0, 0.0, 0.0, 1.6518365182405846E9, 0.0, 2022-05-06 12:28:38.240
13.0, -256.36266216263175, -188.6985222143121, -207.10443984623998, -185.35692160390317, 0.1600000075995922, 0.11200000531971455, 1.0240000486373901, 0.0, 0.0, 0.0, 0.0, 0.0, 1.6518365182405846E9, 0.0, 2022-05-06 12:28:38.240
14.0, -282.8710730485618, -213.28088462306187, -221.63395117409527, -210.70222360361367, 0.1600000075995922, 0.11200000531971455, 1.0240000486373901, 0.0, 0.0, 0.0, 0.0, 0.0, 1.651836518256538E9, 0.0, 2022-05-06 12:28:38.256
14.0, -240.95427434518933, -113.38815680658445, -151.589364903979, -172.44678695686162, 0.1600000075995922, 0.11200000531971455, 1.0240000486373901, 0.0, 0.0, 0.0, 0.0, 0.0, 1.651836518256538E9, 0.0, 2022-05-06 12:28:38.256
15.0, -211.77557489089668, -78.40139272110537, -120.45843767281622, -149.93258922360837, 0.1600000075995922, 0.11200000531971455, 1.0240000486373901, 0.0, 0.0, 0.0, 0.0, 0.0, 1.6518365182575164E9, 0.0, 2022-05-06 12:28:38.257
15.0, -267.84789492655545, -198.54941869759932, -211.63719859253615, -201.06824131775647, 0.1600000075995922, 0.11200000531971455, 1.0240000486373901, 0.0, 0.0, 0.0, 0.0, 0.0, 1.6518365182575164E9, 0.0, 2022-05-06 12:28:38.257
16.0, -290.67250435613096, -221.44134632637724, -216.79452063143253, -205.9076718604192, 0.1600000075995922, 0.11200000531971455, 1.0240000486373901, 0.0, 0.0, 0.0, 0.0, 0.0, 1.651836518271552E9, 0.0, 2022-05-06 12:28:38.271
16.0, -244.94474759791046, -110.0334665463306, -148.2907731430605, -171.1602613721043, 0.1600000075995922, 0.11200000531971455, 1.0240000486373901, 0.0, 0.0, 0.0, 0.0, 0.0, 1.651836518271552E9, 0.0, 2022-05-06 12:28:38.271
17.0, -209.41195811890066, -80.0955674010329, -126.93220449611545, -151.23781430814415, 0.1600000075995922, 0.11200000531971455, 1.0240000486373901, 0.0, 0.0, 0.0, 0.0, 0.0, 1.6518365182865841E9, 0.0, 2022-05-06 12:28:38.286
17.0, -243.21317391842604, -186.57051913952455, -185.00537100806832, -165.20260074269027, 0.1600000075995922, 0.11200000531971455, 1.0240000486373901, 0.0, 0.0, 0.0, 0.0, 0.0, 1.6518365182865841E9, 0.0, 2022-05-06 12:28:38.286
18.0, -266.8605613382533, -209.84765646373853, -221.805986572057, -198.73828364536166, 0.1600000075995922, 0.11200000531971455, 1.0240000486373901, 0.0, 0.0, 0.0, 0.0, 0.0, 1.6518365183015704E9, 0.0, 2022-05-06 12:28:38.301
18.0, -237.76039978303015, -111.922116023954, -148.46654844097793, -176.10066921357065, 0.1600000075995922, 0.11200000531971455, 1.0240000486373901, 0.0, 0.0, 0.0, 0.0, 0.0, 1.6518365183015704E9, 0.0, 2022-05-06 12:28:38.301
19.0, -228.65000349096954, -87.00316261919215, -134.6550979046151, -161.1186299910769, 0.1600000075995922, 0.11200000531971455, 1.0240000486373901, 0.0, 0.0, 0.0, 0.0, 0.0, 1.651836518302468E9, 0.0, 2022-05-06 12:28:38.302
19.0, -271.4942973833531, -195.71831443114206, -209.19878382142633, -200.64189272280782, 0.1600000075995922, 0.11200000531971455, 1.0240000486373901, 0.0, 0.0, 0.0, 0.0, 0.0, 1.651836518302468E9, 0.0, 2022-05-06 12:28:38.302
20.0, -291.15495145041496, -217.0806229780428, -221.0654863808304, -199.6096803350374, 0.1600000075995922, 0.11200000531971455, 1.008000047877431, 0.0, 0.0, 0.0, 0.0, 0.0, 1.651836518316532E9, 0.0, 2022-05-06 12:28:38.316
20.0, -254.0813231896609, -121.2232472137548, -168.20200050715357, -196.8758134674281, 0.1600000075995922, 0.11200000531971455, 1.008000047877431, 0.0, 0.0, 0.0, 0.0, 0.0, 1.651836518316532E9, 0.0, 2022-05-06 12:28:38.316
21.0, -224.9213232351467, -85.73533653421327, -132.5046554300934, -169.30901089403778, 0.1600000075995922, 0.11200000531971455, 1.008000047877431, 0.0, 0.0, 0.0, 0.0, 0.0, 1.6518365183175206E9, 0.0, 2022-05-06 12:28:38.317
21.0, -262.21186569333076, -191.75028057815507, -210.9490570006892, -199.59098083525896, 0.1600000075995922, 0.11200000531971455, 1.008000047877431, 0.0, 0.0, 0.0, 0.0, 0.0, 1.6518365183175206E9, 0.0, 2022-05-06 12:28:38.317
22.0, -295.94202339369804, -231.39322010846809, -240.7037010481581, -221.5479334751144, 0.1600000075995922, 0.11200000531971455, 1.008000047877431, 0.0, 0.0, 0.0, 0.0, 0.0, 1.6518365183305743E9, 0.0, 2022-05-06 12:28:38.330
22.0, -254.50767178460956, -117.445948258508, -153.86696397699416, -176.60929560754448, 0.1600000075995922, 0.11200000531971455, 1.008000047877431, 0.0, 0.0, 0.0, 0.0, 0.0, 1.6518365183305743E9, 0.0, 2022-05-06 12:28:38.330
23.0, -218.49617511127144, -80.38353969762102, -133.1703576222062, -157.98459382820874, 0.1600000075995922, 0.11200000531971455, 1.008000047877431, 0.0, 0.0, 0.0, 0.0, 0.0, 1.6518365183465853E9, 0.0, 2022-05-06 12:28:38.346
23.0, -253.15008810069412, -189.37544410629198, -200.14822592865676, -183.6403075242415, 0.1600000075995922, 0.11200000531971455, 1.008000047877431, 0.0, 0.0, 0.0, 0.0, 0.0, 1.6518365183465853E9, 0.0, 2022-05-06 12:28:38.346
24.0, -294.96590950526297, -216.8300496810116, -221.38711777701974, -207.01842214725912, 0.1600000075995922, 0.11200000531971455, 1.008000047877431, 0.0, 0.0, 0.0, 0.0, 0.0, 1.6518365183475227E9, 0.0, 2022-05-06 12:28:38.347
24.0, -248.25455905869603, -111.45836842944846, -152.42336259409785, -173.16484774835408, 0.1600000075995922, 0.11200000531971455, 1.008000047877431, 0.0, 0.0, 0.0, 0.0, 0.0, 1.6518365183475227E9, 0.0, 2022-05-06 12:28:38.347
25.0, -214.29252756107599, -87.49308951338753, -130.66836455184966, -154.4765676697716, 0.1600000075995922, 0.11200000531971455, 1.008000047877431, 0.0, 0.0, 0.0, 0.0, 0.0, 1.651836518360603E9, 0.0, 2022-05-06 12:28:38.360
25.0, -260.749564810656, -189.64845680305734, -206.51727555319667, -184.18259301781654, 0.1600000075995922, 0.11200000531971455, 1.008000047877431, 0.0, 0.0, 0.0, 0.0, 0.0, 1.651836518360603E9, 0.0, 2022-05-06 12:28:38.360
26.0, -296.67130388505757, -222.02477071946487, -231.997213951312, -211.39036519546062, 0.1600000075995922, 0.11200000531971455, 1.008000047877431, 0.0, 0.0, 0.0, 0.0, 0.0, 1.6518365183765664E9, 0.0, 2022-05-06 12:28:38.376
26.0, -259.9716656198725, -114.60362429218367, -155.91268925275654, -182.02467074338347, 0.1600000075995922, 0.11200000531971455, 1.008000047877431, 0.0, 0.0, 0.0, 0.0, 0.0, 1.6518365183765664E9, 0.0, 2022-05-06 12:28:38.376
27.0, -221.3609384773299, -79.32140811020508, -125.44372431375086, -153.45931488182396, 0.1600000075995922, 0.11200000531971455, 1.008000047877431, 0.0, 0.0, 0.0, 0.0, 0.0, 1.6518365183774917E9, 0.0, 2022-05-06 12:28:38.377
27.0, -276.67031892202795, -196.20824132533744, -214.41594425961375, -204.44537097774446, 0.1600000075995922, 0.11200000531971455, 1.008000047877431, 0.0, 0.0, 0.0, 0.0, 0.0, 1.6518365183774917E9, 0.0, 2022-05-06 12:28:38.377
28.0, -294.0720734158531, -221.4974448257126, -228.56772569194436, -215.1714040506631, 0.1600000075995922, 0.11200000531971455, 1.008000047877431, 0.0, 0.0, 0.0, 0.0, 0.0, 1.6518365183905425E9, 0.0, 2022-05-06 12:28:38.390
28.0, -247.95910696219653, -104.34881861368194, -149.82039222493768, -168.7816850002855, 0.1600000075995922, 0.11200000531971455, 1.008000047877431, 0.0, 0.0, 0.0, 0.0, 0.0, 1.6518365183905425E9, 0.0, 2022-05-06 12:28:38.390
29.0, -215.5117349466309, -82.38812607387081, -127.37351269088686, -156.75042684283108, 0.1600000075995922, 0.11200000531971455, 1.008000047877431, 0.0, 0.0, 0.0, 0.0, 0.0, 1.6518365184065804E9, 0.0, 2022-05-06 12:28:38.406
29.0, -269.11198111157864, -193.05176576273516, -204.37057297863066, -195.47335098404437, 0.1600000075995922, 0.11200000531971455, 1.008000047877431, 0.0, 0.0, 0.0, 0.0, 0.0, 1.6518365184065804E9, 0.0, 2022-05-06 12:28:38.406
30.0, -287.49358939379454, -210.8275102521293, -214.92457065358758, -208.3236472317949, 0.1600000075995922, 0.11200000531971455, 1.0240000486373901, 0.0, 0.0, 0.0, 0.0, 0.0, 1.6518365184075198E9, 0.0, 2022-05-06 12:28:38.407
30.0, -245.86476298701018, -107.9578220709227, -143.5111809996888, -166.44424752797931, 0.1600000075995922, 0.11200000531971455, 1.0240000486373901, 0.0, 0.0, 0.0, 0.0, 0.0, 1.6518365184075198E9, 0.0, 2022-05-06 12:28:38.407
31.0, -227.01192731037736, -87.60902641201392, -131.8763522375375, -150.59829141572118, 0.1600000075995922, 0.11200000531971455, 1.0240000486373901, 0.0, 0.0, 0.0, 0.0, 0.0, 1.6518365184205453E9, 0.0, 2022-05-06 12:28:38.420
31.0, -265.1626467583701, -186.83231213642284, -207.82624053768814, -181.61702164821327, 0.1600000075995922, 0.11200000531971455, 1.0240000486373901, 0.0, 0.0, 0.0, 0.0, 0.0, 1.6518365184205453E9, 0.0, 2022-05-06 12:28:38.420
32.0, -286.2556825084612, -207.64859528979287, -219.38253140076995, -203.79462838545442, 0.1600000075995922, 0.11200000531971455, 1.0240000486373901, 0.0, 0.0, 0.0, 0.0, 0.0, 1.6518365184365368E9, 0.0, 2022-05-06 12:28:38.436
32.0, -255.68948017060757, -113.29091940773651, -155.13105016201735, -180.80920325778425, 0.1600000075995922, 0.11200000531971455, 1.0240000486373901, 0.0, 0.0, 0.0, 0.0, 0.0, 1.6518365184365368E9, 0.0, 2022-05-06 12:28:38.436
33.0, -222.6586837619543, -80.18532499996945, -133.45459001883864, -155.4078027587384, 0.1600000075995922, 0.11200000531971455, 1.0240000486373901, 0.0, 0.0, 0.0, 0.0, 0.0, 1.6518365184515731E9, 0.0, 2022-05-06 12:28:38.451
33.0, -263.9434393728152, -190.72180809034035, -209.75228901486844, -198.17729865200818, 0.1600000075995922, 0.11200000531971455, 1.0240000486373901, 0.0, 0.0, 0.0, 0.0, 0.0, 1.6518365184515731E9, 0.0, 2022-05-06 12:28:38.451
34.0, -265.48053825460374, -203.21681384230033, -207.23907624464482, -184.73609821125865, 0.1600000075995922, 0.11200000531971455, 1.0240000486373901, 0.0, 0.0, 0.0, 0.0, 0.0, 1.6518365184524975E9, 0.0, 2022-05-06 12:28:38.452
34.0, -245.083123896271, -101.83186594350263, -145.39609057735652, -166.27595202997327, 0.1600000075995922, 0.11200000531971455, 1.0240000486373901, 0.0, 0.0, 0.0, 0.0, 0.0, 1.6518365184524975E9, 0.0, 2022-05-06 12:28:38.452
35.0, -235.78573260642588, -86.25144272809848, -132.654251428321, -162.8950824700296, 0.1600000075995922, 0.11200000531971455, 1.0240000486373901, 0.0, 0.0, 0.0, 0.0, 0.0, 1.6518365184665608E9, 0.0, 2022-05-06 12:28:38.466
35.0, -259.29474372789264, -183.6982759735547, -193.25559031032026, -175.94733331538737, 0.1600000075995922, 0.11200000531971455, 1.0240000486373901, 0.0, 0.0, 0.0, 0.0, 0.0, 1.6518365184665608E9, 0.0, 2022-05-06 12:28:38.466
36.0, -281.5845474638045, -207.46534019196406, -224.3640781417489, -213.27153487317264, 0.1600000075995922, 0.11200000531971455, 1.0240000486373901, 0.0, 0.0, 0.0, 0.0, 0.0, 1.6518365184675663E9, 0.0, 2022-05-06 12:28:38.467
36.0, -255.18085377663374, -107.8119659726508, -151.27147340774536, -185.54391660168767, 0.1600000075995922, 0.11200000531971455, 1.0240000486373901, 0.0, 0.0, 0.0, 0.0, 0.0, 1.6518365184675663E9, 0.0, 2022-05-06 12:28:38.467
37.0, -229.21472838427871, -86.83112722123042, -134.01183511223644, -165.0791840441525, 0.1600000075995922, 0.11200000531971455, 1.0240000486373901, 0.0, 0.0, 0.0, 0.0, 0.0, 1.6518365184805796E9, 0.0, 2022-05-06 12:28:38.480
37.0, -268.85766791459173, -192.16166957328096, -202.16029210481793, -178.09029598999768, 0.1600000075995922, 0.11200000531971455, 1.0240000486373901, 0.0, 0.0, 0.0, 0.0, 0.0, 1.6518365184805796E9, 0.0, 2022-05-06 12:28:38.480
38.0, -290.34339316003025, -217.6079488717951, -226.24524781946093, -208.90333172492683, 0.1600000075995922, 0.11200000531971455, 1.0240000486373901, 0.0, 0.0, 0.0, 0.0, 0.0, 1.6518365185125396E9, 0.0, 2022-05-06 12:28:38.512
38.0, -259.96418581996113, -112.00439382297918, -152.94694858789444, -175.32650992274284, 0.1600000075995922, 0.11200000531971455, 1.0240000486373901, 0.0, 0.0, 0.0, 0.0, 0.0, 1.6518365185125396E9, 0.0, 2022-05-06 12:28:38.512
39.0, -219.3974910005927, -74.95320496195927, -120.35746037401259, -146.11789126880467, 0.1600000075995922, 0.11200000531971455, 1.0240000486373901, 0.0, 0.0, 0.0, 0.0, 0.0, 1.6518365185134845E9, 0.0, 2022-05-06 12:28:38.513
39.0, -259.7622312223539, -191.94475537585095, -205.2494494682178, -190.41700624395162, 0.1600000075995922, 0.11200000531971455, 1.0240000486373901, 0.0, 0.0, 0.0, 0.0, 0.0, 1.6518365185134845E9, 0.0, 2022-05-06 12:28:38.513
40.0, -293.52604802232236, -218.62146175978705, -218.4400766119361, -200.3875795258209, 0.1600000075995922, 0.11200000531971455, 1.0240000486373901, 0.0, 0.0, 0.0, 0.0, 0.0, 1.6518365185144908E9, 0.0, 2022-05-06 12:28:38.514
40.0, -251.680307418108, -105.38851080136374, -146.8883106596768, -158.27256612479687, 0.1600000075995922, 0.11200000531971455, 1.0240000486373901, 0.0, 0.0, 0.0, 0.0, 0.0, 1.6518365185144908E9, 0.0, 2022-05-06 12:28:38.514
41.0, -221.12906468007714, -91.52096176566556, -139.0270409528166, -172.6412617545575, 0.1600000075995922, 0.11200000531971455, 1.0240000486373901, 0.0, 0.0, 0.0, 0.0, 0.0, 1.6518365185265384E9, 0.0, 2022-05-06 12:28:38.526
41.0, -259.4518195260316, -189.99252759898081, -202.2463098037988, -189.97195814922452, 0.1600000075995922, 0.11200000531971455, 1.0240000486373901, 0.0, 0.0, 0.0, 0.0, 0.0, 1.6518365185265384E9, 0.0, 2022-05-06 12:28:38.526
42.0, -288.2378294849768, -219.3806614507921, -227.34103850647807, -209.96920321229845, 0.1600000075995922, 0.11200000531971455, 1.0240000486373901, 0.0, 0.0, 0.0, 0.0, 0.0, 1.6518365185275123E9, 0.0, 2022-05-06 12:28:38.527
42.0, -252.31235051061958, -107.19488247996196, -149.0312733342871, -183.03070383146405, 0.1600000075995922, 0.11200000531971455, 1.0240000486373901, 0.0, 0.0, 0.0, 0.0, 0.0, 1.6518365185275123E9, 0.0, 2022-05-06 12:28:38.527
43.0, -217.62851832155138, -80.06564820138738, -120.6155134709552, -144.08712559286505, 0.1600000075995922, 0.11200000531971455, 1.0240000486373901, 0.0, 0.0, 0.0, 0.0, 0.0, 1.651836518541618E9, 0.0, 2022-05-06 12:28:38.541
43.0, -268.77913001552224, -195.38546333508566, -212.63575188070536, -201.81622130889446, 0.1600000075995922, 0.11200000531971455, 1.0240000486373901, 0.0, 0.0, 0.0, 0.0, 0.0, 1.651836518541618E9, 0.0, 2022-05-06 12:28:38.541
44.0, -293.2081565260887, -219.98278534365818, -227.6252709031105, -215.5079950466752, 0.1600000075995922, 0.11200000531971455, 1.0240000486373901, 0.0, 0.0, 0.0, 0.0, 0.0, 1.6518365185565405E9, 0.0, 2022-05-06 12:28:38.556
44.0, -251.8224236164242, -112.15398982120678, -152.73003439046443, -178.2286722883582, 0.1600000075995922, 0.11200000531971455, 1.0240000486373901, 0.0, 0.0, 0.0, 0.0, 0.0, 1.6518365185565405E9, 0.0, 2022-05-06 12:28:38.556
45.0, -219.5134278992191, -86.09062703000382, -131.67813753988594, -155.04503246303648, 0.1600000075995922, 0.11200000531971455, 1.0240000486373901, 0.0, 0.0, 0.0, 0.0, 0.0, 1.6518365185575836E9, 0.0, 2022-05-06 12:28:38.557
45.0, -255.73435897007585, -190.86766418861225, -197.08524786494672, -178.46802588552237, 0.1600000075995922, 0.11200000531971455, 1.0240000486373901, 0.0, 0.0, 0.0, 0.0, 0.0, 1.6518365185575836E9, 0.0, 2022-05-06 12:28:38.557
46.0, -278.2784759029746, -205.29245831770822, -212.48241598252207, -191.280923133716, 0.1600000075995922, 0.11200000531971455, 1.0240000486373901, 0.0, 0.0, 0.0, 0.0, 0.0, 1.6518365185715508E9, 0.0, 2022-05-06 12:28:38.571
46.0, -237.3714501876384, -96.61470550531521, -149.1846092324704, -170.66285467799753, 0.1600000075995922, 0.11200000531971455, 1.0240000486373901, 0.0, 0.0, 0.0, 0.0, 0.0, 1.6518365185715508E9, 0.0, 2022-05-06 12:28:38.571
47.0, -221.82094617187977, -78.55472861928865, -124.5424084244296, -148.5114272404462, 0.1600000075995922, 0.11200000531971455, 1.0240000486373901, 0.0, 0.0, 0.0, 0.0, 0.0, 1.6518365185865653E9, 0.0, 2022-05-06 12:28:38.586
47.0, -266.9316194374114, -198.97576729254797, -213.86243906617165, -199.542362135835, 0.1600000075995922, 0.11200000531971455, 1.0240000486373901, 0.0, 0.0, 0.0, 0.0, 0.0, 1.6518365185865653E9, 0.0, 2022-05-06 12:28:38.586
48.0, -286.12478601001203, -216.39248138619587, -224.39399734139442, -214.46456295903772, 0.1600000075995922, 0.11200000531971455, 1.0240000486373901, 0.0, 0.0, 0.0, 0.0, 0.0, 1.6518365185875244E9, 0.0, 2022-05-06 12:28:38.587
48.0, -241.597537137568, -112.26244691992179, -151.5183068048209, -173.51265844423324, 0.1600000075995922, 0.11200000531971455, 1.0240000486373901, 0.0, 0.0, 0.0, 0.0, 0.0, 1.6518365185875244E9, 0.0, 2022-05-06 12:28:38.587
49.0, -233.16780263744295, -92.48959585418925, -137.0673333760351, -155.31804515980184, 0.1600000075995922, 0.11200000531971455, 1.0240000486373901, 0.0, 0.0, 0.0, 0.0, 0.0, 1.651836518601586E9, 0.0, 2022-05-06 12:28:38.601
49.0, -261.3741281032562, -190.41139639401808, -214.94327015336603, -199.23195043951273, 0.1600000075995922, 0.11200000531971455, 1.0240000486373901, 0.0, 0.0, 0.0, 0.0, 0.0, 1.651836518601586E9, 0.0, 2022-05-06 12:28:38.601
50.0, -295.30624040123075, -225.10644828295335, -225.16815663222224, -213.20421667397022, 0.1600000075995922, 0.11200000531971455, 1.0240000486373901, 0.0, 0.0, 0.0, 0.0, 0.0, 1.6518365186165524E9, 0.0, 2022-05-06 12:28:38.616
50.0, -259.6687337234616, -112.55041921650991, -151.7763599017635, -165.19512094277889, 0.1600000075995922, 0.11200000531971455, 1.0240000486373901, 0.0, 0.0, 0.0, 0.0, 0.0, 1.6518365186165524E9, 0.0, 2022-05-06 12:28:38.616
51.0, -215.59401274565607, -73.64050007751212, -125.96731030754745, -154.33819137141109, 0.1600000075995922, 0.11200000531971455, 1.0240000486373901, 0.0, 0.0, 0.0, 0.0, 0.0, 1.6518365186175303E9, 0.0, 2022-05-06 12:28:38.617
51.0, -256.17192726489156, -194.1101574501954, -204.51642907690257, -189.6503267530352, 0.1600000075995922, 0.11200000531971455, 1.0240000486373901, 0.0, 0.0, 0.0, 0.0, 0.0, 1.6518365186175303E9, 0.0, 2022-05-06 12:28:38.617
52.0, -293.9224774176255, -221.80785652203485, -227.53551330417395, -220.77751408424228, 0.1600000075995922, 0.11200000531971455, 1.0240000486373901, 0.0, 0.0, 0.0, 0.0, 0.0, 1.651836518631571E9, 0.0, 2022-05-06 12:28:38.631
52.0, -250.62939553055912, -104.75646770885214, -143.41020370088518, -169.58576349075884, 0.1600000075995922, 0.11200000531971455, 1.0240000486373901, 0.0, 0.0, 0.0, 0.0, 0.0, 1.651836518631571E9, 0.0, 2022-05-06 12:28:38.631
53.0, -206.36767955496907, -73.08325498411432, -120.57063467148691, -134.89819140173495, 0.1600000075995922, 0.11200000531971455, 1.0240000486373901, 0.0, 0.0, 0.0, 0.0, 0.0, 1.651836518646577E9, 0.0, 2022-05-06 12:28:38.646
53.0, -261.2694109044969, -187.13524403283373, -208.5480412291363, -199.3927661376074, 0.1600000075995922, 0.11200000531971455, 1.0240000486373901, 0.0, 0.0, 0.0, 0.0, 0.0, 1.651836518646577E9, 0.0, 2022-05-06 12:28:38.646
54.0, -290.0217617638409, -209.47740636812523, -219.11699850391597, -200.2753825271502, 0.1600000075995922, 0.11200000531971455, 1.0240000486373901, 0.0, 0.0, 0.0, 0.0, 0.0, 1.6518365186475067E9, 0.0, 2022-05-06 12:28:38.647
54.0, -251.42599422112107, -104.02718721749261, -145.74764117319137, -164.5929970499128, 0.1600000075995922, 0.11200000531971455, 1.0240000486373901, 0.0, 0.0, 0.0, 0.0, 0.0, 1.6518365186475067E9, 0.0, 2022-05-06 12:28:38.647
55.0, -217.3218465251848, -81.7598228813149, -128.81337417382747, -165.31105784140527, 0.1600000075995922, 0.11200000531971455, 1.0240000486373901, 0.0, 0.0, 0.0, 0.0, 0.0, 1.651836518660621E9, 0.0, 2022-05-06 12:28:38.660
55.0, -247.1138895722106, -180.22764881467447, -193.78665610402822, -178.35582888685167, 0.1600000075995922, 0.11200000531971455, 1.0240000486373901, 0.0, 0.0, 0.0, 0.0, 0.0, 1.651836518660621E9, 0.0, 2022-05-06 12:28:38.660
56.0, -278.1662789043039, -217.35363567480817, -224.9998611342162, -213.70536326803267, 0.1600000075995922, 0.11200000531971455, 1.0240000486373901, 0.0, 0.0, 0.0, 0.0, 0.0, 1.651836518676536E9, 0.0, 2022-05-06 12:28:38.676
56.0, -262.4923581900075, -116.79520566621795, -157.95841452851892, -185.03529020771384, 0.1600000075995922, 0.11200000531971455, 1.0240000486373901, 0.0, 0.0, 0.0, 0.0, 0.0, 1.651836518676536E9, 0.0, 2022-05-06 12:28:38.676
57.0, -226.83241211250424, -90.02874168334529, -129.71842996310443, -156.64570964407176, 0.1600000075995922, 0.11200000531971455, 1.0240000486373901, 0.0, 0.0, 0.0, 0.0, 0.0, 1.651836518677518E9, 0.0, 2022-05-06 12:28:38.677
57.0, -264.343608668074, -201.1935279662721, -215.87450524233282, -199.1272332407534, 0.1600000075995922, 0.11200000531971455, 1.0240000486373901, 0.0, 0.0, 0.0, 0.0, 0.0, 1.651836518677518E9, 0.0, 2022-05-06 12:28:38.677
58.0, -288.75393567886204, -218.53544406080619, -226.9259096113965, -214.8759519541636, 0.1600000075995922, 0.11200000531971455, 1.0240000486373901, 0.0, 0.0, 0.0, 0.0, 0.0, 1.6518365186915836E9, 0.0, 2022-05-06 12:28:38.691
58.0, -247.9366675624624, -102.59854543441907, -138.63809135742486, -165.64764883741736, 0.1600000075995922, 0.11200000531971455, 1.0240000486373901, 0.0, 0.0, 0.0, 0.0, 0.0, 1.6518365186915836E9, 0.0, 2022-05-06 12:28:38.691
59.0, -202.26500930357724, -72.80650238739327, -116.74097711686045, -137.1421313751489, 0.1600000075995922, 0.11200000531971455, 1.0240000486373901, 0.0, 0.0, 0.0, 0.0, 0.0, 1.6518365187066169E9, 0.0, 2022-05-06 12:28:38.706
59.0, -251.8186837164685, -186.08433214528486, -196.2063713753596, -174.95999972708523, 0.1600000075995922, 0.11200000531971455, 1.0240000486373901, 0.0, 0.0, 0.0, 0.0, 0.0, 1.6518365187066169E9, 0.0, 2022-05-06 12:28:38.706
60.0, -272.84440126735717, -202.1135433553718, -212.83396657835692, -195.03952258918434, 0.1600000075995922, 0.11200000531971455, 1.0240000486373901, 0.0, 0.0, 0.0, 0.0, 0.0, 1.65183651870762E9, 0.0, 2022-05-06 12:28:38.707
60.0, -238.9646475687623, -99.34483247296885, -138.12198516353965, -167.304424517788, 0.1600000075995922, 0.11200000531971455, 1.0240000486373901, 0.0, 0.0, 0.0, 0.0, 0.0, 1.65183651870762E9, 0.0, 2022-05-06 12:28:38.707
61.0, -214.52440135832876, -90.49996907776222, -139.26265465002507, -165.21008054260164, 0.1600000075995922, 0.11200000531971455, 1.0240000486373901, 0.0, 0.0, 0.0, 0.0, 0.0, 1.6518365187215776E9, 0.0, 2022-05-06 12:28:38.721
61.0, -269.88614040240645, -192.53565956884995, -206.8725660489872, -199.27308933902532, 0.1600000075995922, 0.11200000531971455, 1.0240000486373901, 0.0, 0.0, 0.0, 0.0, 0.0, 1.6518365187215776E9, 0.0, 2022-05-06 12:28:38.721
62.0, -285.30200801976025, -217.30127707542852, -218.35405891295522, -212.60209278110415, 0.1600000075995922, 0.11200000531971455, 1.0240000486373901, 0.0, 0.0, 0.0, 0.0, 0.0, 1.65183651873654E9, 0.0, 2022-05-06 12:28:38.736
62.0, -244.82881069928408, -107.20984207978472, -146.41708326525986, -176.58311630785465, 0.1600000075995922, 0.11200000531971455, 1.0240000486373901, 0.0, 0.0, 0.0, 0.0, 0.0, 1.65183651873654E9, 0.0, 2022-05-06 12:28:38.736
63.0, -209.59147331677377, -76.6473796418868, -121.22511716373265, -141.6187916221097, 0.1600000075995922, 0.11200000531971455, 1.0240000486373901, 0.0, 0.0, 0.0, 0.0, 0.0, 1.6518365187375634E9, 0.0, 2022-05-06 12:28:38.737
63.0, -254.2309191878885, -186.5854787393473, -203.8021081853658, -188.13940717093647, 0.1600000075995922, 0.11200000531971455, 1.0240000486373901, 0.0, 0.0, 0.0, 0.0, 0.0, 1.6518365187375634E9, 0.0, 2022-05-06 12:28:38.737
64.0, -289.77866826672107, -209.7504190648906, -217.08249292802066, -198.5400689477101, 0.1600000075995922, 0.11200000531971455, 1.0240000486373901, 0.0, 0.0, 0.0, 0.0, 0.0, 1.6518365187505672E9, 0.0, 2022-05-06 12:28:38.750
64.0, -236.86282379366457, -92.01088865986094, -126.19544420484453, -142.08627911657095, 0.1600000075995922, 0.11200000531971455, 1.0240000486373901, 0.0, 0.0, 0.0, 0.0, 0.0, 1.6518365187505672E9, 0.0, 2022-05-06 12:28:38.750
65.0, -205.04001507069916, -69.6088879252784, -111.98756427317858, -130.99747574795038, 0.1600000075995922, 0.11200000531971455, 1.0240000486373901, 0.0, 0.0, 0.0, 0.0, 0.0, 1.651836518766559E9, 0.0, 2022-05-06 12:28:38.766
65.0, -253.7148129940033, -191.31645218329504, -210.97897620033473, -209.3184606200084, 0.1600000075995922, 0.11200000531971455, 1.0240000486373901, 0.0, 0.0, 0.0, 0.0, 0.0, 1.651836518766559E9, 0.0, 2022-05-06 12:28:38.766
66.0, -289.9432238647714, -209.01739867357537, -218.48121551144868, -215.8819850422442, 0.1600000075995922, 0.11200000531971455, 1.0240000486373901, 0.0, 0.0, 0.0, 0.0, 0.0, 1.651836518781588E9, 0.0, 2022-05-06 12:28:38.781
