%OpenBCI Raw EEG Data
%Number of channels = 4
%Sample Rate = 200 Hz
%Board = OpenBCI_GUI$BoardGanglionBLE
Sample Index, EXG Channel 0, EXG Channel 1, EXG Channel 2, EXG Channel 3, Accel Channel 0, Accel Channel 1, Accel Channel 2, Other, Other, Other, Other, Other, Timestamp, Other, Timestamp (Formatted)
0.0, -242.85601347265765, -94.27539808303118, -136.64472468104213, -172.08775656111538, 0.0, 0.0, 0.0, 0.0, 0.0, 0.0, 0.0, 0.0, 1.6518364620226915E9, 0.0, 2022-05-06 12:27:42.022
1.0, -208.7144667771645, -91.39567511714995, -132.59815292898566, -148.4403691412881, 0.0, 0.04800000227987766, 0.0, 0.0, 0.0, 0.0, 0.0, 0.0, 1.651836462035742E9, 0.0, 2022-05-06 12:27:42.035
1.0, -266.91104998765513, -208.86219282541424, -220.09685229230672, -186.17221979424357, 0.0, 0.04800000227987766, 0.0, 0.0, 0.0, 0.0, 0.0, 0.0, 1.651836462035742E9, 0.0, 2022-05-06 12:27:42.035
2.0, -294.8892415561713, -206.01238905917853, -217.92397041805089, -210.31701390817761, 0.0800000037997961, 0.04800000227987766, 0.0, 0.0, 0.0, 0.0, 0.0, 0.0, 1.6518364620526075E9, 0.0, 2022-05-06 12:27:42.052
2.0, -227.03623666008934, -83.00707951653749, -123.62239303532988, -158.79615211859345, 0.0800000037997961, 0.04800000227987766, 0.0, 0.0, 0.0, 0.0, 0.0, 0.0, 1.6518364620526075E9, 0.0, 2022-05-06 12:27:42.052
3.0, -194.91423594066873, -81.68315493222326, -133.71638301573694, -148.20849534403533, 0.0800000037997961, 0.04800000227987766, 0.0, 0.0, 0.0, 0.0, 0.0, 0.0, 1.6518364620536294E9, 0.0, 2022-05-06 12:27:42.053
3.0, -280.3410307285376, -211.29312779661268, -233.56423203274608, -210.38433210738003, 0.0800000037997961, 0.04800000227987766, 0.0, 0.0, 0.0, 0.0, 0.0, 0.0, 1.6518364620536294E9, 0.0, 2022-05-06 12:27:42.053
4.0, -296.6881334348582, -207.67664453946054, -219.068379804492, -219.06090000458062, 0.0800000037997961, 0.04800000227987766, 0.0, 0.0, 0.0, 0.0, 0.0, 0.0, 1.6518364620647333E9, 0.0, 2022-05-06 12:27:42.064
4.0, -239.01513621816412, -93.95750658679754, -132.3999382313341, -156.77286624256521, 0.0800000037997961, 0.04800000227987766, 0.0, 0.0, 0.0, 0.0, 0.0, 0.0, 1.6518364620647333E9, 0.0, 2022-05-06 12:27:42.064
5.0, -228.61447444139048, -94.95979977492243, -140.66511713340878, -161.28318558912724, 0.0800000037997961, 0.04800000227987766, 0.0, 0.0, 0.0, 0.0, 0.0, 0.0, 1.6518364620956912E9, 0.0, 2022-05-06 12:27:42.095
5.0, -279.492073438596, -213.47722937073559, -227.71128860209137, -205.8403536612168, 0.0800000037997961, 0.04800000227987766, 0.0, 0.0, 0.0, 0.0, 0.0, 0.0, 1.6518364620956912E9, 0.0, 2022-05-06 12:27:42.095
6.0, -289.21207342343405, -197.69859145767987, -210.79198120255023, -197.02540946565568, 0.0800000037997961, 0.04800000227987766, 0.0, 0.0, 0.0, 0.0, 0.0, 0.0, 1.6518364621116595E9, 0.0, 2022-05-06 12:27:42.111
6.0, -223.33747560391203, -76.07704489864409, -115.46941113192588, -132.07830683514476, 0.0800000037997961, 0.04800000227987766, 0.0, 0.0, 0.0, 0.0, 0.0, 0.0, 1.6518364621116595E9, 0.0, 2022-05-06 12:27:42.111
7.0, -191.256613784004, -75.30662550777197, -121.62902635894716, -133.4321506191045, 0.0800000037997961, 0.04800000227987766, 0.0, 0.0, 0.0, 0.0, 0.0, 0.0, 1.6518364621126008E9, 0.0, 2022-05-06 12:27:42.112
7.0, -259.5210076752119, -197.99778345413506, -212.5048553822562, -197.04784886538982, 0.0800000037997961, 0.04800000227987766, 0.0, 0.0, 0.0, 0.0, 0.0, 0.0, 1.6518364621126008E9, 0.0, 2022-05-06 12:27:42.112
8.0, -302.69815266365185, -209.11276612244546, -222.26225436665118, -234.98165411595255, 0.0800000037997961, 0.04800000227987766, 0.0, 0.0, 0.0, 0.0, 0.0, 0.0, 1.6518364621137547E9, 0.0, 2022-05-06 12:27:42.113
8.0, -222.8325891098939, -69.68555587437004, -107.79513642285019, -138.23418216221035, 0.0800000037997961, 0.04800000227987766, 0.0, 0.0, 0.0, 0.0, 0.0, 0.0, 1.6518364621137547E9, 0.0, 2022-05-06 12:27:42.113
9.0, -200.40066917566583, -81.2979452367872, -117.24586361087859, -128.0205153832212, 0.0800000037997961, 0.04800000227987766, 0.0, 0.0, 0.0, 0.0, 0.0, 0.0, 1.6518364621146872E9, 0.0, 2022-05-06 12:27:42.114
9.0, -286.5530045549385, -218.30170031357557, -239.42839516326785, -220.8784913830459, 0.0800000037997961, 0.04800000227987766, 0.0, 0.0, 0.0, 0.0, 0.0, 0.0, 1.6518364621146872E9, 0.0, 2022-05-06 12:27:42.114
10.0, -303.47979175439104, -215.05920705199242, -231.15947636123747, -224.5847322391346, 0.0800000037997961, 0.04800000227987766, 0.5120000243186951, 0.0, 0.0, 0.0, 0.0, 0.0, 1.651836462124736E9, 0.0, 2022-05-06 12:27:42.124
10.0, -234.07846827665344, -86.12241617962718, -131.45000364258885, -165.29235834162682, 0.0800000037997961, 0.04800000227987766, 0.5120000243186951, 0.0, 0.0, 0.0, 0.0, 0.0, 1.651836462124736E9, 0.0, 2022-05-06 12:27:42.124
11.0, -211.8597226398997, -91.84072321187705, -132.4298574309796, -153.56777198053896, 0.0800000037997961, 0.0800000037997961, 0.5120000243186951, 0.0, 0.0, 0.0, 0.0, 0.0, 1.6518364621407397E9, 0.0, 2022-05-06 12:27:42.140
11.0, -259.35271217720583, -202.30614820308983, -208.18153103347868, -184.02925711963326, 0.0800000037997961, 0.0800000037997961, 0.5120000243186951, 0.0, 0.0, 0.0, 0.0, 0.0, 1.6518364621407397E9, 0.0, 2022-05-06 12:27:42.140
12.0, -277.1808152659796, -177.79484389349818, -198.1286799525842, -187.92997277341783, 0.11200000531971455, 0.0800000037997961, 0.5120000243186951, 0.0, 0.0, 0.0, 0.0, 0.0, 1.6518364621417272E9, 0.0, 2022-05-06 12:27:42.141
12.0, -222.55209661321715, -90.66639462579042, -136.41659078374505, -172.2672717589885, 0.11200000531971455, 0.0800000037997961, 0.5120000243186951, 0.0, 0.0, 0.0, 0.0, 0.0, 1.6518364621417272E9, 0.0, 2022-05-06 12:27:42.141
13.0, -234.4225390725769, -122.85571354441345, -160.65114249661565, -171.55669076740742, 0.11200000531971455, 0.0800000037997961, 0.5120000243186951, 0.0, 0.0, 0.0, 0.0, 0.0, 1.6518364621546865E9, 0.0, 2022-05-06 12:27:42.154
13.0, -276.42161557497457, -210.26465530879796, -226.2602074192837, -203.14762569312006, 0.11200000531971455, 0.0800000037997961, 0.5120000243186951, 0.0, 0.0, 0.0, 0.0, 0.0, 1.6518364621546865E9, 0.0, 2022-05-06 12:27:42.154
14.0, -265.0635394095443, -165.16520174313337, -179.70219287090003, -171.99051916226745, 0.11200000531971455, 0.0800000037997961, 0.5120000243186951, 0.0, 0.0, 0.0, 0.0, 0.0, 1.6518364621706808E9, 0.0, 2022-05-06 12:27:42.170
14.0, -230.72751791635528, -88.63188904989511, -134.56908020563424, -164.12176965549588, 0.11200000531971455, 0.0800000037997961, 0.5120000243186951, 0.0, 0.0, 0.0, 0.0, 0.0, 1.6518364621706808E9, 0.0, 2022-05-06 12:27:42.170
15.0, -229.93091922579333, -122.44806444924325, -152.71507479064167, -157.00847993977368, 0.11200000531971455, 0.0800000037997961, 0.5120000243186951, 0.0, 0.0, 0.0, 0.0, 0.0, 1.6518364621717014E9, 0.0, 2022-05-06 12:27:42.171
15.0, -261.6190915503539, -200.9448246192187, -218.63081150967628, -187.51858377829194, 0.11200000531971455, 0.0800000037997961, 0.5120000243186951, 0.0, 0.0, 0.0, 0.0, 0.0, 1.6518364621717014E9, 0.0, 2022-05-06 12:27:42.171
16.0, -275.02289299154654, -182.28646374028176, -202.85965339653194, -207.42233134247363, 0.11200000531971455, 0.0800000037997961, 0.5120000243186951, 0.0, 0.0, 0.0, 0.0, 0.0, 1.6518364621846929E9, 0.0, 2022-05-06 12:27:42.184
16.0, -238.04650212964043, -99.1223084256053, -139.78998054377735, -178.35208898689598, 0.11200000531971455, 0.0800000037997961, 0.5120000243186951, 0.0, 0.0, 0.0, 0.0, 0.0, 1.6518364621846929E9, 0.0, 2022-05-06 12:27:42.184
17.0, -218.94683305593207, -118.80914179235697, -154.27461307216436, -170.03081158548594, 0.11200000531971455, 0.0800000037997961, 0.5120000243186951, 0.0, 0.0, 0.0, 0.0, 0.0, 1.6518364622007606E9, 0.0, 2022-05-06 12:27:42.200
17.0, -262.812119636219, -197.21240446344018, -216.40557103604078, -191.26222363393754, 0.11200000531971455, 0.0800000037997961, 0.5120000243186951, 0.0, 0.0, 0.0, 0.0, 0.0, 1.6518364622007606E9, 0.0, 2022-05-06 12:27:42.200
18.0, -267.5991915795021, -174.0063252383843, -185.10634830687195, -173.88664843980223, 0.11200000531971455, 0.0800000037997961, 0.5120000243186951, 0.0, 0.0, 0.0, 0.0, 0.0, 1.6518364622016451E9, 0.0, 2022-05-06 12:27:42.201
18.0, -221.03369723120704, -81.15582903847098, -119.18687168788165, -149.04623293410987, 0.11200000531971455, 0.0800000037997961, 0.5120000243186951, 0.0, 0.0, 0.0, 0.0, 0.0, 1.6518364622016451E9, 0.0, 2022-05-06 12:27:42.201
19.0, -213.8194302166812, -114.45589824393392, -150.2168216202408, -162.19946107827127, 0.11200000531971455, 0.0800000037997961, 0.5120000243186951, 0.0, 0.0, 0.0, 0.0, 0.0, 1.6518364622147062E9, 0.0, 2022-05-06 12:27:42.214
19.0, -280.4046090277843, -203.37201969046146, -226.4397226171568, -208.67893772758543, 0.11200000531971455, 0.0800000037997961, 0.5120000243186951, 0.0, 0.0, 0.0, 0.0, 0.0, 1.6518364622147062E9, 0.0, 2022-05-06 12:27:42.214
20.0, -277.7530199592002, -176.12684851326048, -194.75155029259622, -201.54694851208478, 0.11200000531971455, 0.0800000037997961, 0.7680000364780426, 0.0, 0.0, 0.0, 0.0, 0.0, 1.6518364622307768E9, 0.0, 2022-05-06 12:27:42.230
20.0, -243.25992266787216, -101.99455159157515, -138.20800286252052, -168.20948030706495, 0.11200000531971455, 0.0800000037997961, 0.7680000364780426, 0.0, 0.0, 0.0, 0.0, 0.0, 1.6518364622307768E9, 0.0, 2022-05-06 12:27:42.230
21.0, -230.5704421182163, -119.85631377995014, -158.94574811682105, -171.4856326682493, 0.11200000531971455, 0.09600000455975533, 0.7680000364780426, 0.0, 0.0, 0.0, 0.0, 0.0, 1.6518364622316444E9, 0.0, 2022-05-06 12:27:42.231
21.0, -259.78654057206586, -200.3875795258209, -222.61380496248603, -193.48372420761734, 0.11200000531971455, 0.09600000455975533, 0.7680000364780426, 0.0, 0.0, 0.0, 0.0, 0.0, 1.6518364622316444E9, 0.0, 2022-05-06 12:27:42.231
22.0, -281.8594301105477, -179.24592507630587, -195.81742177996784, -192.08500162418932, 0.12800000607967377, 0.09600000455975533, 0.7680000364780426, 0.0, 0.0, 0.0, 0.0, 0.0, 1.65183646224466E9, 0.0, 2022-05-06 12:27:42.244
22.0, -237.74357023322955, -95.88729496393353, -133.18531722202897, -165.8608231348917, 0.12800000607967377, 0.09600000455975533, 0.7680000364780426, 0.0, 0.0, 0.0, 0.0, 0.0, 1.65183646224466E9, 0.0, 2022-05-06 12:27:42.244
23.0, -231.21370491059497, -123.85052693262696, -149.551119428128, -169.57454379089177, 0.12800000607967377, 0.09600000455975533, 0.7680000364780426, 0.0, 0.0, 0.0, 0.0, 0.0, 1.6518364622606587E9, 0.0, 2022-05-06 12:27:42.260
23.0, -271.08477833820507, -201.47589041292667, -217.8080335194245, -195.89595967903733, 0.12800000607967377, 0.09600000455975533, 0.7680000364780426, 0.0, 0.0, 0.0, 0.0, 0.0, 1.6518364622606587E9, 0.0, 2022-05-06 12:27:42.260
24.0, -271.8514578291215, -176.83368960488588, -196.539222471416, -200.14822592865676, 0.12800000607967377, 0.09600000455975533, 0.7680000364780426, 0.0, 0.0, 0.0, 0.0, 0.0, 1.651836462261673E9, 0.0, 2022-05-06 12:27:42.261
24.0, -225.09896848304197, -89.82865703571588, -127.96815678384155, -160.60626369714737, 0.12800000607967377, 0.09600000455975533, 0.7680000364780426, 0.0, 0.0, 0.0, 0.0, 0.0, 1.651836462261673E9, 0.0, 2022-05-06 12:27:42.261
25.0, -227.4925044546835, -116.44178512040526, -148.16735644452274, -159.61893010884523, 0.12800000607967377, 0.09600000455975533, 0.7680000364780426, 0.0, 0.0, 0.0, 0.0, 0.0, 1.651836462274674E9, 0.0, 2022-05-06 12:27:42.274
25.0, -256.8806383064948, -190.30480924528092, -202.45948410127312, -177.70882619451731, 0.12800000607967377, 0.09600000455975533, 0.7680000364780426, 0.0, 0.0, 0.0, 0.0, 0.0, 1.651836462274674E9, 0.0, 2022-05-06 12:27:42.274
26.0, -261.39095765305683, -167.14734871964902, -183.70014592353255, -171.50433216802776, 0.12800000607967377, 0.09600000455975533, 0.7680000364780426, 0.0, 0.0, 0.0, 0.0, 0.0, 1.6518364623067782E9, 0.0, 2022-05-06 12:27:42.306
26.0, -235.21913776313886, -92.14739500824362, -130.989995948039, -176.94214670360088, 0.12800000607967377, 0.09600000455975533, 0.7680000364780426, 0.0, 0.0, 0.0, 0.0, 0.0, 1.6518364623067782E9, 0.0, 2022-05-06 12:27:42.306
27.0, -226.32565566850826, -124.97997671924531, -160.71846069581807, -171.47067306842655, 0.12800000607967377, 0.09600000455975533, 0.7680000364780426, 0.0, 0.0, 0.0, 0.0, 0.0, 1.6518364623076272E9, 0.0, 2022-05-06 12:27:42.307
27.0, -261.2264020550065, -192.81428211554885, -214.26634826138616, -176.72149260621518, 0.12800000607967377, 0.09600000455975533, 0.7680000364780426, 0.0, 0.0, 0.0, 0.0, 0.0, 1.6518364623076272E9, 0.0, 2022-05-06 12:27:42.307
28.0, -274.73118079500273, -177.46573269739747, -196.19515167549253, -205.6944975629449, 0.12800000607967377, 0.09600000455975533, 0.7680000364780426, 0.0, 0.0, 0.0, 0.0, 0.0, 1.6518364623086088E9, 0.0, 2022-05-06 12:27:42.308
28.0, -232.346894597169, -99.38410142250359, -138.3201998611912, -181.01863765530288, 0.12800000607967377, 0.09600000455975533, 0.7680000364780426, 0.0, 0.0, 0.0, 0.0, 0.0, 1.6518364623086088E9, 0.0, 2022-05-06 12:27:42.308
29.0, -226.69216586416587, -130.0662406589836, -163.13443606719375, -178.13891468942165, 0.12800000607967377, 0.09600000455975533, 0.7680000364780426, 0.0, 0.0, 0.0, 0.0, 0.0, 1.651836462309628E9, 0.0, 2022-05-06 12:27:42.309
29.0, -281.10397031949833, -206.15824515745044, -222.78584036044776, -203.38323939032853, 0.12800000607967377, 0.09600000455975533, 0.7680000364780426, 0.0, 0.0, 0.0, 0.0, 0.0, 1.651836462309628E9, 0.0, 2022-05-06 12:27:42.309
30.0, -286.21267365897074, -180.016344467178, -200.26416282728314, -202.88583269622177, 0.12800000607967377, 0.09600000455975533, 0.8960000425577164, 0.0, 0.0, 0.0, 0.0, 0.0, 1.6518364623197234E9, 0.0, 2022-05-06 12:27:42.319
30.0, -244.01538245892152, -106.69186593592167, -135.45917639508843, -165.84960343502462, 0.12800000607967377, 0.09600000455975533, 0.8960000425577164, 0.0, 0.0, 0.0, 0.0, 0.0, 1.6518364623197234E9, 0.0, 2022-05-06 12:27:42.319
31.0, -230.04685612441972, -129.55013446509838, -161.3018850889057, -171.92694086302072, 0.12800000607967377, 0.09600000455975533, 0.8960000425577164, 0.0, 0.0, 0.0, 0.0, 0.0, 1.6518364623347697E9, 0.0, 2022-05-06 12:27:42.334
31.0, -259.78654057206586, -198.23339715134352, -211.86159258987755, -189.8672409504652, 0.12800000607967377, 0.09600000455975533, 0.8960000425577164, 0.0, 0.0, 0.0, 0.0, 0.0, 1.6518364623347697E9, 0.0, 2022-05-06 12:27:42.334
32.0, -259.93613657029346, -171.09668307285756, -178.24737178813666, -174.3466561343521, 0.144000006839633, 0.09600000455975533, 0.8960000425577164, 0.0, 0.0, 0.0, 0.0, 0.0, 1.65183646235067E9, 0.0, 2022-05-06 12:27:42.350
32.0, -211.65028824238107, -66.49168131221086, -95.11313567310572, -109.24995750561357, 0.144000006839633, 0.09600000455975533, 0.8960000425577164, 0.0, 0.0, 0.0, 0.0, 0.0, 1.65183646235067E9, 0.0, 2022-05-06 12:27:42.350
33.0, -216.68793348269537, -105.85412834584713, -146.94440915901214, -155.43772195838392, 0.144000006839633, 0.09600000455975533, 0.8960000425577164, 0.0, 0.0, 0.0, 0.0, 0.0, 1.6518364623516915E9, 0.0, 2022-05-06 12:27:42.351
33.0, -263.4404228287749, -199.0187761420384, -223.89659064728767, -212.50111548230052, 0.144000006839633, 0.09600000455975533, 0.8960000425577164, 0.0, 0.0, 0.0, 0.0, 0.0, 1.6518364623516915E9, 0.0, 2022-05-06 12:27:42.351
34.0, -263.6984759257175, -163.34761036466807, -185.76831059902906, -193.26307011023164, 0.144000006839633, 0.09600000455975533, 0.8960000425577164, 0.0, 0.0, 0.0, 0.0, 0.0, 1.6518364623647695E9, 0.0, 2022-05-06 12:27:42.364
34.0, -217.22647907631472, -85.51655238680542, -117.66099250596017, -155.06373196281493, 0.144000006839633, 0.09600000455975533, 0.8960000425577164, 0.0, 0.0, 0.0, 0.0, 0.0, 1.6518364623647695E9, 0.0, 2022-05-06 12:27:42.364
35.0, -221.54232362518087, -122.52660234831274, -151.4098497061059, -167.55499781481922, 0.144000006839633, 0.09600000455975533, 0.8960000425577164, 0.0, 0.0, 0.0, 0.0, 0.0, 1.651836462396658E9, 0.0, 2022-05-06 12:27:42.396
35.0, -266.0733123975806, -206.46117705386132, -220.46710238792002, -194.15690619964153, 0.144000006839633, 0.09600000455975533, 0.8960000425577164, 0.0, 0.0, 0.0, 0.0, 0.0, 1.651836462396658E9, 0.0, 2022-05-06 12:27:42.396
36.0, -271.6233239318244, -168.02996510919183, -190.24497084598988, -184.6762598119676, 0.144000006839633, 0.09600000455975533, 0.8960000425577164, 0.0, 0.0, 0.0, 0.0, 0.0, 1.6518364623977644E9, 0.0, 2022-05-06 12:27:42.397
36.0, -231.26606350997463, -94.81394367665052, -134.86827220208943, -166.447987427935, 0.144000006839633, 0.09600000455975533, 0.8960000425577164, 0.0, 0.0, 0.0, 0.0, 0.0, 1.6518364623977644E9, 0.0, 2022-05-06 12:27:42.397
37.0, -229.48587113106623, -122.17505175247788, -152.1840089969337, -169.97845298610628, 0.144000006839633, 0.09600000455975533, 0.8960000425577164, 0.0, 0.0, 0.0, 0.0, 0.0, 1.651836462398626E9, 0.0, 2022-05-06 12:27:42.398
37.0, -268.6987221664749, -204.27333557978272, -225.01856063399464, -205.60847986396402, 0.144000006839633, 0.09600000455975533, 0.8960000425577164, 0.0, 0.0, 0.0, 0.0, 0.0, 1.651836462398626E9, 0.0, 2022-05-06 12:27:42.398
38.0, -275.0341126914136, -175.36764882225543, -196.97679076623172, -204.62862607557327, 0.144000006839633, 0.09600000455975533, 0.8960000425577164, 0.0, 0.0, 0.0, 0.0, 0.0, 1.651836462399723E9, 0.0, 2022-05-06 12:27:42.399
38.0, -230.77613661577925, -92.2670718068257, -124.13849922921509, -159.92186200525612, 0.144000006839633, 0.09600000455975533, 0.8960000425577164, 0.0, 0.0, 0.0, 0.0, 0.0, 1.651836462399723E9, 0.0, 2022-05-06 12:27:42.399
39.0, -234.92368566663936, -116.21365122310817, -153.16012288536876, -167.58117711450905, 0.144000006839633, 0.09600000455975533, 0.8960000425577164, 0.0, 0.0, 0.0, 0.0, 0.0, 1.6518364624096296E9, 0.0, 2022-05-06 12:27:42.409
39.0, -273.28383951215073, -204.63610587548465, -225.57206582743675, -201.47215051297098, 0.144000006839633, 0.09600000455975533, 0.8960000425577164, 0.0, 0.0, 0.0, 0.0, 0.0, 1.6518364624096296E9, 0.0, 2022-05-06 12:27:42.409
40.0, -259.34149247733876, -168.75176580064, -185.78327019885182, -182.9372063325718, 0.144000006839633, 0.09600000455975533, 0.9600000455975533, 0.0, 0.0, 0.0, 0.0, 0.0, 1.6518364624247723E9, 0.0, 2022-05-06 12:27:42.424
40.0, -213.03405122598633, -86.49640617519617, -123.67101173475385, -160.37812979985029, 0.144000006839633, 0.09600000455975533, 0.9600000455975533, 0.0, 0.0, 0.0, 0.0, 0.0, 1.6518364624247723E9, 0.0, 2022-05-06 12:27:42.424
41.0, -242.07811428187415, -127.48196978960186, -158.87842991761863, -175.79399741720408, 0.144000006839633, 0.09600000455975533, 0.9600000455975533, 0.0, 0.0, 0.0, 0.0, 0.0, 1.6518364624407644E9, 0.0, 2022-05-06 12:27:42.440
41.0, -268.8819772643037, -200.34270072635263, -216.59256603382528, -188.2703036693856, 0.144000006839633, 0.09600000455975533, 0.9600000455975533, 0.0, 0.0, 0.0, 0.0, 0.0, 1.6518364624407644E9, 0.0, 2022-05-06 12:27:42.440
42.0, -260.1156517681666, -162.31913787685335, -173.1237088488415, -160.55016519781202, 0.1600000075995922, 0.09600000455975533, 0.9600000455975533, 0.0, 0.0, 0.0, 0.0, 0.0, 1.6518364624556773E9, 0.0, 2022-05-06 12:27:42.455
42.0, -227.197052358184, -91.96413991041481, -132.78140802681446, -154.20355497300625, 0.1600000075995922, 0.09600000455975533, 0.9600000455975533, 0.0, 0.0, 0.0, 0.0, 0.0, 1.6518364624556773E9, 0.0, 2022-05-06 12:27:42.455
43.0, -220.45027283811942, -111.86040767468512, -149.05371273402125, -171.2986376704648, 0.1600000075995922, 0.09600000455975533, 0.9600000455975533, 0.0, 0.0, 0.0, 0.0, 0.0, 1.6518364624566228E9, 0.0, 2022-05-06 12:27:42.456
43.0, -255.49313542293385, -186.66588658839464, -207.8000612379983, -186.1273409947753, 0.1600000075995922, 0.09600000455975533, 0.9600000455975533, 0.0, 0.0, 0.0, 0.0, 0.0, 1.6518364624566228E9, 0.0, 2022-05-06 12:27:42.456
44.0, -268.90815656399354, -166.27969192992896, -184.91935330908746, -181.47116554994136, 0.1600000075995922, 0.09600000455975533, 0.9600000455975533, 0.0, 0.0, 0.0, 0.0, 0.0, 1.6518364624707189E9, 0.0, 2022-05-06 12:27:42.470
44.0, -238.353173926007, -94.11458238493651, -132.75148882716894, -174.70194663014263, 0.1600000075995922, 0.09600000455975533, 0.9600000455975533, 0.0, 0.0, 0.0, 0.0, 0.0, 1.6518364624707189E9, 0.0, 2022-05-06 12:27:42.470
45.0, -225.93296617316082, -125.36518641468138, -163.7814387595281, -180.06870306655765, 0.1600000075995922, 0.09600000455975533, 0.9600000455975533, 0.0, 0.0, 0.0, 0.0, 0.0, 1.6518364624716234E9, 0.0, 2022-05-06 12:27:42.471
45.0, -264.5923120151274, -199.7218773337081, -218.18950331490487, -193.34160800930113, 0.1600000075995922, 0.09600000455975533, 0.9600000455975533, 0.0, 0.0, 0.0, 0.0, 0.0, 1.6518364624716234E9, 0.0, 2022-05-06 12:27:42.471
46.0, -276.5899110729806, -173.72209284175187, -195.7949823802337, -207.36623284313828, 0.1600000075995922, 0.09600000455975533, 0.9600000455975533, 0.0, 0.0, 0.0, 0.0, 0.0, 1.6518364624846797E9, 0.0, 2022-05-06 12:27:42.484
46.0, -231.23240441037342, -93.42270089313388, -130.9114580489695, -164.58925714995712, 0.1600000075995922, 0.09600000455975533, 0.9600000455975533, 0.0, 0.0, 0.0, 0.0, 0.0, 1.6518364624846797E9, 0.0, 2022-05-06 12:27:42.484
47.0, -231.74103080434725, -128.03921488299966, -162.03116558026522, -174.87398202810436, 0.1600000075995922, 0.09600000455975533, 0.9600000455975533, 0.0, 0.0, 0.0, 0.0, 0.0, 1.6518364625006747E9, 0.0, 2022-05-06 12:27:42.500
47.0, -264.61101151490584, -196.9094725670293, -210.5040089059621, -190.25245064590126, 0.1600000075995922, 0.09600000455975533, 0.9600000455975533, 0.0, 0.0, 0.0, 0.0, 0.0, 1.6518364625006747E9, 0.0, 2022-05-06 12:27:42.500
48.0, -262.1426775441505, -169.91113478690386, -196.18393197562546, -200.6119735231623, 0.1600000075995922, 0.09600000455975533, 0.9600000455975533, 0.0, 0.0, 0.0, 0.0, 0.0, 1.651836462501624E9, 0.0, 2022-05-06 12:27:42.501
48.0, -237.279822638724, -87.45756046380848, -124.9089186200872, -160.03031910397112, 0.1600000075995922, 0.09600000455975533, 0.9600000455975533, 0.0, 0.0, 0.0, 0.0, 0.0, 1.651836462501624E9, 0.0, 2022-05-06 12:27:42.501
49.0, -239.18343171617016, -127.11171969398856, -169.06217749696225, -182.39866073895246, 0.1600000075995922, 0.09600000455975533, 0.9600000455975533, 0.0, 0.0, 0.0, 0.0, 0.0, 1.6518364625147147E9, 0.0, 2022-05-06 12:27:42.514
49.0, -274.5853246967308, -201.34873381443322, -223.64975725021213, -200.6493725227192, 0.1600000075995922, 0.09600000455975533, 0.9600000455975533, 0.0, 0.0, 0.0, 0.0, 0.0, 1.6518364625147147E9, 0.0, 2022-05-06 12:27:42.514
50.0, -273.38481681095436, -165.31479774136096, -186.19091929402202, -188.40120016783476, 0.1600000075995922, 0.09600000455975533, 0.9920000471174717, 0.0, 0.0, 0.0, 0.0, 0.0, 1.651836462530686E9, 0.0, 2022-05-06 12:27:42.530
50.0, -235.21913776313886, -96.54551735613495, -126.27024220395833, -155.25072696059942, 0.1600000075995922, 0.09600000455975533, 0.9920000471174717, 0.0, 0.0, 0.0, 0.0, 0.0, 1.651836462530686E9, 0.0, 2022-05-06 12:27:42.530
51.0, -233.84285457944497, -123.26336263958365, -158.38102322351187, -163.90111555811018, 0.1600000075995922, 0.09600000455975533, 0.9920000471174717, 0.0, 0.0, 0.0, 0.0, 0.0, 1.651836462531627E9, 0.0, 2022-05-06 12:27:42.531
51.0, -270.7706267419271, -202.22387040406466, -220.54190038703382, -188.29274306911975, 0.1600000075995922, 0.09600000455975533, 0.9920000471174717, 0.0, 0.0, 0.0, 0.0, 0.0, 1.651836462531627E9, 0.0, 2022-05-06 12:27:42.531
52.0, -279.0806844434701, -167.4166215164587, -180.99245835561305, -181.02985735516995, 0.1600000075995922, 0.09600000455975533, 0.9920000471174717, 0.0, 0.0, 0.0, 0.0, 0.0, 1.6518364625446808E9, 0.0, 2022-05-06 12:27:42.544
52.0, -210.03091156156734, -75.69557510316372, -104.20109256543219, -115.36469393316656, 0.1600000075995922, 0.09600000455975533, 0.9920000471174717, 0.0, 0.0, 0.0, 0.0, 0.0, 1.6518364625446808E9, 0.0, 2022-05-06 12:27:42.544
53.0, -231.10898771183565, -125.75039611011744, -168.6358289020136, -183.80486312229186, 0.1600000075995922, 0.09600000455975533, 0.9920000471174717, 0.0, 0.0, 0.0, 0.0, 0.0, 1.6518364625606568E9, 0.0, 2022-05-06 12:27:42.560
53.0, -280.8197379228659, -199.86399353202432, -226.75387421343476, -215.79970724321902, 0.1600000075995922, 0.09600000455975533, 0.9920000471174717, 0.0, 0.0, 0.0, 0.0, 0.0, 1.6518364625606568E9, 0.0, 2022-05-06 12:27:42.560
54.0, -285.7863250640221, -174.14096163678914, -198.93649834301323, -201.44223131332546, 0.1600000075995922, 0.09600000455975533, 0.9920000471174717, 0.0, 0.0, 0.0, 0.0, 0.0, 1.6518364625616808E9, 0.0, 2022-05-06 12:27:42.561
54.0, -240.6158133991994, -99.02133112680167, -137.0972525756806, -171.7436857651919, 0.1600000075995922, 0.09600000455975533, 0.9920000471174717, 0.0, 0.0, 0.0, 0.0, 0.0, 1.6518364625616808E9, 0.0, 2022-05-06 12:27:42.561
55.0, -237.9866637303494, -133.63410521671176, -162.16580197867006, -174.6795072304085, 0.1600000075995922, 0.09600000455975533, 0.9920000471174717, 0.0, 0.0, 0.0, 0.0, 0.0, 1.6518364625746975E9, 0.0, 2022-05-06 12:27:42.574
55.0, -268.4144897698425, -204.45285077765584, -221.27118087839335, -196.69255836959928, 0.1600000075995922, 0.09600000455975533, 0.9920000471174717, 0.0, 0.0, 0.0, 0.0, 0.0, 1.6518364625746975E9, 0.0, 2022-05-06 12:27:42.574
56.0, -276.1560826781206, -168.50493240356445, -190.5366830425337, -205.00261607114226, 0.1600000075995922, 0.09600000455975533, 0.9920000471174717, 0.0, 0.0, 0.0, 0.0, 0.0, 1.6518364625907383E9, 0.0, 2022-05-06 12:27:42.590
56.0, -237.78470913274214, -98.01529803872108, -132.59067312907428, -169.95601358637214, 0.1600000075995922, 0.09600000455975533, 0.9920000471174717, 0.0, 0.0, 0.0, 0.0, 0.0, 1.6518364625907383E9, 0.0, 2022-05-06 12:27:42.590
57.0, -242.49698307691142, -136.9513964774087, -169.98219288606197, -179.376821574755, 0.1600000075995922, 0.09600000455975533, 0.9920000471174717, 0.0, 0.0, 0.0, 0.0, 0.0, 1.6518364625916548E9, 0.0, 2022-05-06 12:27:42.591
57.0, -280.94315462140366, -204.00406278297305, -225.93857602309436, -205.27188886795193, 0.1600000075995922, 0.09600000455975533, 0.9920000471174717, 0.0, 0.0, 0.0, 0.0, 0.0, 1.6518364625916548E9, 0.0, 2022-05-06 12:27:42.591
58.0, -267.67772947857156, -165.16894164308906, -182.58191583678126, -190.03553644847125, 0.1600000075995922, 0.09600000455975533, 0.9920000471174717, 0.0, 0.0, 0.0, 0.0, 0.0, 1.6518364626047745E9, 0.0, 2022-05-06 12:27:42.604
58.0, -238.69350482197478, -97.79838384129107, -124.28809522744268, -155.16470926161855, 0.1600000075995922, 0.09600000455975533, 0.9920000471174717, 0.0, 0.0, 0.0, 0.0, 0.0, 1.6518364626047745E9, 0.0, 2022-05-06 12:27:42.604
59.0, -227.78047675127164, -127.21269699279219, -162.8876026701182, -168.91258149873465, 0.1600000075995922, 0.09600000455975533, 0.9920000471174717, 0.0, 0.0, 0.0, 0.0, 0.0, 1.6518364626207943E9, 0.0, 2022-05-06 12:27:42.620
59.0, -283.8864558865316, -198.56624824739993, -216.3606922365725, -189.4259327556938, 0.1600000075995922, 0.09600000455975533, 0.9920000471174717, 0.0, 0.0, 0.0, 0.0, 0.0, 1.6518364626207943E9, 0.0, 2022-05-06 12:27:42.620
60.0, -273.702708307188, -169.42120789270848, -180.24447836447507, -183.610388324596, 0.1600000075995922, 0.09600000455975533, 1.008000047877431, 0.0, 0.0, 0.0, 0.0, 0.0, 1.6518364626217284E9, 0.0, 2022-05-06 12:27:42.621
60.0, -231.47923780744895, -87.89886865857989, -124.5424084244296, -155.6247169561684, 0.1600000075995922, 0.09600000455975533, 1.008000047877431, 0.0, 0.0, 0.0, 0.0, 0.0, 1.6518364626217284E9, 0.0, 2022-05-06 12:27:42.621
61.0, -226.9763982607983, -120.72023066971451, -142.52758731134236, -152.4832009933889, 0.1600000075995922, 0.11200000531971455, 1.008000047877431, 0.0, 0.0, 0.0, 0.0, 0.0, 1.6518364626346517E9, 0.0, 2022-05-06 12:27:42.634
61.0, -265.9910345985554, -188.83876846265048, -212.05232748761773, -181.52352414932102, 0.1600000075995922, 0.11200000531971455, 1.008000047877431, 0.0, 0.0, 0.0, 0.0, 0.0, 1.6518364626346517E9, 0.0, 2022-05-06 12:27:42.634
62.0, -268.3322119708173, -164.32746415305883, -178.90933408029377, -180.10984196607023, 0.144000006839633, 0.11200000531971455, 1.008000047877431, 0.0, 0.0, 0.0, 0.0, 0.0, 1.6518364626507697E9, 0.0, 2022-05-06 12:27:42.650
62.0, -239.0226160180755, -97.8619621405378, -131.5397612415254, -175.35268922243267, 0.144000006839633, 0.11200000531971455, 1.008000047877431, 0.0, 0.0, 0.0, 0.0, 0.0, 1.6518364626507697E9, 0.0, 2022-05-06 12:27:42.650
63.0, -237.04046904155985, -135.5414541941136, -164.20030755456537, -175.1170755252242, 0.144000006839633, 0.11200000531971455, 1.008000047877431, 0.0, 0.0, 0.0, 0.0, 0.0, 1.651836462665763E9, 0.0, 2022-05-06 12:27:42.665
63.0, -279.87728313403204, -207.59810664039105, -229.76449367776513, -205.69823746290058, 0.144000006839633, 0.11200000531971455, 1.008000047877431, 0.0, 0.0, 0.0, 0.0, 0.0, 1.651836462665763E9, 0.0, 2022-05-06 12:27:42.665
64.0, -280.35599032836035, -166.59010362625122, -189.04072306025773, -199.07113474141806, 0.144000006839633, 0.11200000531971455, 1.008000047877431, 0.0, 0.0, 0.0, 0.0, 0.0, 1.6518364626666195E9, 0.0, 2022-05-06 12:27:42.666
64.0, -241.5059095886536, -106.54226993769407, -138.15564426314086, -173.43038064520806, 0.144000006839633, 0.11200000531971455, 1.008000047877431, 0.0, 0.0, 0.0, 0.0, 0.0, 1.6518364626666195E9, 0.0, 2022-05-06 12:27:42.666
65.0, -236.85721394373104, -133.9893957125023, -160.32203130051494, -161.10741029120982, 0.144000006839633, 0.11200000531971455, 1.008000047877431, 0.0, 0.0, 0.0, 0.0, 0.0, 1.651836462680905E9, 0.0, 2022-05-06 12:27:42.680
65.0, -266.2902265950106, -191.3108423333615, -218.56349331047386, -193.02745641302317, 0.144000006839633, 0.11200000531971455, 1.008000047877431, 0.0, 0.0, 0.0, 0.0, 0.0, 1.651836462680905E9, 0.0, 2022-05-06 12:27:42.680
66.0, -272.42740242229775, -166.9266946222633, -186.7556441873312, -206.36393965501338, 0.144000006839633, 0.11200000531971455, 1.008000047877431, 0.0, 0.0, 0.0, 0.0, 0.0, 1.651836462681741E9, 0.0, 2022-05-06 12:27:42.681
66.0, -240.97858369490132, -94.61198907904327, -132.3550594318658, -168.05614440888166, 0.144000006839633, 0.11200000531971455, 1.008000047877431, 0.0, 0.0, 0.0, 0.0, 0.0, 1.651836462681741E9, 0.0, 2022-05-06 12:27:42.681
67.0, -236.14663295214996, -134.16143111046404, -166.65368192549795, -172.3757288577035, 0.144000006839633, 0.11200000531971455, 1.008000047877431, 0.0, 0.0, 0.0, 0.0, 0.0, 1.6518364626947937E9, 0.0, 2022-05-06 12:27:42.694
67.0, -292.13667518878356, -212.11964568682015, -231.69054215494543, -209.30350102018565, 0.144000006839633, 0.11200000531971455, 1.008000047877431, 0.0, 0.0, 0.0, 0.0, 0.0, 1.6518364626947937E9, 0.0, 2022-05-06 12:27:42.694
68.0, -280.3709499281831, -163.90485545806587, -187.529803478159, -193.22193121071905, 0.144000006839633, 0.11200000531971455, 1.008000047877431, 0.0, 0.0, 0.0, 0.0, 0.0, 1.6518364627106917E9, 0.0, 2022-05-06 12:27:42.710
68.0, -246.43883763020858, -104.69475935958326, -143.0661329049617, -176.02213131450117, 0.144000006839633, 0.11200000531971455, 1.008000047877431, 0.0, 0.0, 0.0, 0.0, 0.0, 1.6518364627106917E9, 0.0, 2022-05-06 12:27:42.710
69.0, -241.64428588701412, -139.56558654643595, -168.0823237085715, -167.99256610963494, 0.144000006839633, 0.11200000531971455, 1.008000047877431, 0.0, 0.0, 0.0, 0.0, 0.0, 1.6518364627116532E9, 0.0, 2022-05-06 12:27:42.711
69.0, -274.02433970337734, -198.5737280473113, -220.2127891909331, -194.39251989685, 0.144000006839633, 0.11200000531971455, 1.008000047877431, 0.0, 0.0, 0.0, 0.0, 0.0, 1.6518364627116532E9, 0.0, 2022-05-06 12:27:42.711
70.0, -272.2217079247348, -166.8556365231052, -184.1227546185255, -192.6422467175871, 0.144000006839633, 0.11200000531971455, 1.008000047877431, 0.0, 0.0, 0.0, 0.0, 0.0, 1.6518364627247574E9, 0.0, 2022-05-06 12:27:42.724
70.0, -242.59048057580367, -99.25320492405444, -137.26180817373097, -173.09004974924028, 0.144000006839633, 0.11200000531971455, 1.008000047877431, 0.0, 0.0, 0.0, 0.0, 0.0, 1.6518364627247574E9, 0.0, 2022-05-06 12:27:42.724
71.0, -227.8664944502525, -130.2831548564136, -170.4908192800358, -177.978098991327, 0.144000006839633, 0.11200000531971455, 1.008000047877431, 0.0, 0.0, 0.0, 0.0, 0.0, 1.651836462740746E9, 0.0, 2022-05-06 12:27:42.740
71.0, -265.76290070125833, -203.67495158687234, -218.18950331490487, -195.52196968346834, 0.144000006839633, 0.11200000531971455, 1.008000047877431, 0.0, 0.0, 0.0, 0.0, 0.0, 1.651836462740746E9, 0.0, 2022-05-06 12:27:42.740
72.0, -287.7123735412024, -165.53919173870236, -190.62270074151456, -186.81922248657793, 0.1600000075995922, 0.11200000531971455, 1.008000047877431, 0.0, 0.0, 0.0, 0.0, 0.0, 1.6518364627416751E9, 0.0, 2022-05-06 12:27:42.741
72.0, -245.432804542128, -102.46203908603638, -136.79432067926973, -168.0748439086601, 0.1600000075995922, 0.11200000531971455, 1.008000047877431, 0.0, 0.0, 0.0, 0.0, 0.0, 1.6518364627416751E9, 0.0, 2022-05-06 12:27:42.741
73.0, -228.00487074861303, -124.37785282637924, -156.85888394154608, -161.61229678522795, 0.1600000075995922, 0.11200000531971455, 1.008000047877431, 0.0, 0.0, 0.0, 0.0, 0.0, 1.6518364627716746E9, 0.0, 2022-05-06 12:27:42.771
73.0, -273.8223851057701, -201.51328941248357, -220.75133478455245, -201.95459760725498, 0.1600000075995922, 0.11200000531971455, 1.008000047877431, 0.0, 0.0, 0.0, 0.0, 0.0, 1.6518364627716746E9, 0.0, 2022-05-06 12:27:42.771
74.0, -263.245948031079, -155.0786915626377, -165.77480543591082, -167.47645991574973, 0.1600000075995922, 0.11200000531971455, 1.008000047877431, 0.0, 0.0, 0.0, 0.0, 0.0, 1.651836462772627E9, 0.0, 2022-05-06 12:27:42.772
74.0, -235.2789761624299, -92.6747209019959, -134.4681029068306, -168.44509400427341, 0.1600000075995922, 0.11200000531971455, 1.008000047877431, 0.0, 0.0, 0.0, 0.0, 0.0, 1.651836462772627E9, 0.0, 2022-05-06 12:27:42.772
75.0, -236.59916084678844, -135.30958039686084, -170.7526122769341, -182.17426674161106, 0.1600000075995922, 0.11200000531971455, 1.008000047877431, 0.0, 0.0, 0.0, 0.0, 0.0, 1.6518364627736197E9, 0.0, 2022-05-06 12:27:42.773
75.0, -264.24450131924823, -201.90223900787532, -222.32209276594222, -201.67410511057824, 0.1600000075995922, 0.11200000531971455, 1.008000047877431, 0.0, 0.0, 0.0, 0.0, 0.0, 1.6518364627736197E9, 0.0, 2022-05-06 12:27:42.773
76.0, -288.65856822999194, -166.3058712296188, -192.3841936206445, -201.0944206174463, 0.1600000075995922, 0.11200000531971455, 1.008000047877431, 0.0, 0.0, 0.0, 0.0, 0.0, 1.6518364627847545E9, 0.0, 2022-05-06 12:27:42.784
76.0, -241.93973798351362, -93.47879939246923, -131.0610540471971, -150.65438991505653, 0.1600000075995922, 0.11200000531971455, 1.008000047877431, 0.0, 0.0, 0.0, 0.0, 0.0, 1.6518364627847545E9, 0.0, 2022-05-06 12:27:42.784
77.0, -238.82066142046824, -138.2528816619888, -176.55693700816482, -173.5986761432141, 0.1600000075995922, 0.11200000531971455, 1.008000047877431, 0.0, 0.0, 0.0, 0.0, 0.0, 1.651836462800747E9, 0.0, 2022-05-06 12:27:42.800
77.0, -278.90490914555266, -200.93734481930733, -220.49702158756554, -203.75722938589752, 0.1600000075995922, 0.11200000531971455, 1.008000047877431, 0.0, 0.0, 0.0, 0.0, 0.0, 1.651836462800747E9, 0.0, 2022-05-06 12:27:42.800
78.0, -262.6700034379028, -151.64546340331435, -175.3751286221668, -179.78073076996952, 0.1600000075995922, 0.11200000531971455, 1.008000047877431, 0.0, 0.0, 0.0, 0.0, 0.0, 1.6518364628016777E9, 0.0, 2022-05-06 12:27:42.801
78.0, -235.2827160623856, -99.73191211838275, -134.29606750886887, -168.71810670103878, 0.1600000075995922, 0.11200000531971455, 1.008000047877431, 0.0, 0.0, 0.0, 0.0, 0.0, 1.6518364628016777E9, 0.0, 2022-05-06 12:27:42.801
79.0, -240.82898769667372, -135.765848191455, -171.4931124681607, -173.24712554737926, 0.1600000075995922, 0.11200000531971455, 1.008000047877431, 0.0, 0.0, 0.0, 0.0, 0.0, 1.651836462814737E9, 0.0, 2022-05-06 12:27:42.814
79.0, -273.7887260061689, -200.3875795258209, -216.9889954291284, -189.70642525237054, 0.1600000075995922, 0.11200000531971455, 1.008000047877431, 0.0, 0.0, 0.0, 0.0, 0.0, 1.651836462814737E9, 0.0, 2022-05-06 12:27:42.814
80.0, -274.293612500187, -160.16869540233165, -185.80944949854165, -191.69605202879757, 0.1600000075995922, 0.11200000531971455, 1.008000047877431, 0.0, 0.0, 0.0, 0.0, 0.0, 1.6518364628306463E9, 0.0, 2022-05-06 12:27:42.830
80.0, -223.6778064998798, -81.8177913306281, -114.32874164544046, -142.8828778071329, 0.1600000075995922, 0.11200000531971455, 1.008000047877431, 0.0, 0.0, 0.0, 0.0, 0.0, 1.6518364628306463E9, 0.0, 2022-05-06 12:27:42.830
81.0, -240.7579295975156, -131.55472084134817, -165.22130024246871, -175.61448221933097, 0.1600000075995922, 0.11200000531971455, 1.008000047877431, 0.0, 0.0, 0.0, 0.0, 0.0, 1.6518364628318837E9, 0.0, 2022-05-06 12:27:42.831
81.0, -275.1575293899514, -204.64358567539603, -224.13594424445182, -206.58833365235478, 0.1600000075995922, 0.11200000531971455, 1.008000047877431, 0.0, 0.0, 0.0, 0.0, 0.0, 1.6518364628318837E9, 0.0, 2022-05-06 12:27:42.831
82.0, -272.9622081159614, -162.49117327481508, -185.9777449965477, -197.3919196613133, 0.1600000075995922, 0.11200000531971455, 1.008000047877431, 0.0, 0.0, 0.0, 0.0, 0.0, 1.6518364628447058E9, 0.0, 2022-05-06 12:27:42.844
82.0, -233.04625588888302, -93.53863779176027, -129.56135416496545, -157.60312403272837, 0.1600000075995922, 0.11200000531971455, 1.008000047877431, 0.0, 0.0, 0.0, 0.0, 0.0, 1.6518364628447058E9, 0.0, 2022-05-06 12:27:42.844
83.0, -238.12504002870992, -133.51442841812968, -168.0075257094577, -158.9233087170869, 0.1600000075995922, 0.11200000531971455, 1.008000047877431, 0.0, 0.0, 0.0, 0.0, 0.0, 1.6518364628607068E9, 0.0, 2022-05-06 12:27:42.860
83.0, -275.1126505904831, -196.64019977021962, -218.61211200989783, -190.51798354275525, 0.1600000075995922, 0.11200000531971455, 1.008000047877431, 0.0, 0.0, 0.0, 0.0, 0.0, 1.6518364628607068E9, 0.0, 2022-05-06 12:27:42.860
84.0, -271.9561750278808, -159.93682160507888, -181.18319325335324, -196.5018234718591, 0.1600000075995922, 0.11200000531971455, 1.008000047877431, 0.0, 0.0, 0.0, 0.0, 0.0, 1.6518364628616138E9, 0.0, 2022-05-06 12:27:42.861
84.0, -228.07592884777114, -96.61283555533737, -127.07058079447597, -162.69312787242234, 0.1600000075995922, 0.11200000531971455, 1.008000047877431, 0.0, 0.0, 0.0, 0.0, 0.0, 1.6518364628616138E9, 0.0, 2022-05-06 12:27:42.861
85.0, -207.57005739072338, -108.80116951093078, -143.87769119534642, -133.03946112375706, 0.1600000075995922, 0.11200000531971455, 1.008000047877431, 0.0, 0.0, 0.0, 0.0, 0.0, 1.6518364628746736E9, 0.0, 2022-05-06 12:27:42.874
85.0, -274.1814155015163, -203.244863091968, -225.32149253040552, -203.97414358332753, 0.1600000075995922, 0.11200000531971455, 1.008000047877431, 0.0, 0.0, 0.0, 0.0, 0.0, 1.6518364628746736E9, 0.0, 2022-05-06 12:27:42.874
86.0, -277.01999956788495, -163.7814387595281, -186.4601920908317, -204.0975602818653, 0.1600000075995922, 0.11200000531971455, 1.008000047877431, 0.0, 0.0, 0.0, 0.0, 0.0, 1.6518364628906984E9, 0.0, 2022-05-06 12:27:42.890
86.0, -239.84539400832728, -93.4900190923363, -131.49862234201282, -167.65971501357853, 0.1600000075995922, 0.11200000531971455, 1.008000047877431, 0.0, 0.0, 0.0, 0.0, 0.0, 1.6518364628906984E9, 0.0, 2022-05-06 12:27:42.890
87.0, -227.9786914489232, -127.08180049434304, -159.36087701190263, -162.4836934749037, 0.1600000075995922, 0.11200000531971455, 1.008000047877431, 0.0, 0.0, 0.0, 0.0, 0.0, 1.6518364628917532E9, 0.0, 2022-05-06 12:27:42.891
87.0, -272.6330969198607, -203.56275458820164, -223.8105729483068, -195.5705883828923, 0.1600000075995922, 0.11200000531971455, 1.008000047877431, 0.0, 0.0, 0.0, 0.0, 0.0, 1.6518364628917532E9, 0.0, 2022-05-06 12:27:42.891
88.0, -272.2965059238486, -164.5929970499128, -187.50362417846918, -192.21963802259415, 0.1600000075995922, 0.11200000531971455, 1.008000047877431, 0.0, 0.0, 0.0, 0.0, 0.0, 1.6518364629048383E9, 0.0, 2022-05-06 12:27:42.904
88.0, -233.2369907866232, -100.3789148107171, -132.69913022778928, -164.15916865505278, 0.1600000075995922, 0.11200000531971455, 1.008000047877431, 0.0, 0.0, 0.0, 0.0, 0.0, 1.6518364629048383E9, 0.0, 2022-05-06 12:27:42.904
89.0, -224.72871838742867, -130.9488570485264, -160.5576449977234, -159.27485931292176, 0.1600000075995922, 0.11200000531971455, 1.008000047877431, 0.0, 0.0, 0.0, 0.0, 0.0, 1.6518364629207232E9, 0.0, 2022-05-06 12:27:42.920
89.0, -279.16670214245096, -200.70173112209886, -216.5102882348001, -184.05917631927878, 0.1600000075995922, 0.11200000531971455, 1.008000047877431, 0.0, 0.0, 0.0, 0.0, 0.0, 1.6518364629207232E9, 0.0, 2022-05-06 12:27:42.920
90.0, -283.39278909238055, -167.80557111185044, -189.24641755782068, -199.2805691389367, 0.1600000075995922, 0.11200000531971455, 1.008000047877431, 0.0, 0.0, 0.0, 0.0, 0.0, 1.6518364629217076E9, 0.0, 2022-05-06 12:27:42.921
90.0, -236.92453214293346, -89.60426303837448, -128.25238918047398, -163.20923406630754, 0.1600000075995922, 0.11200000531971455, 1.008000047877431, 0.0, 0.0, 0.0, 0.0, 0.0, 1.6518364629217076E9, 0.0, 2022-05-06 12:27:42.921
91.0, -228.18812584644184, -130.92641764879227, -157.65548263210803, -153.7024083789438, 0.1600000075995922, 0.11200000531971455, 1.008000047877431, 0.0, 0.0, 0.0, 0.0, 0.0, 1.6518364629347332E9, 0.0, 2022-05-06 12:27:42.934
91.0, -265.6731431023218, -194.80764879193157, -218.82902620732784, -187.6420004768297, 0.1600000075995922, 0.11200000531971455, 1.008000047877431, 0.0, 0.0, 0.0, 0.0, 0.0, 1.6518364629347332E9, 0.0, 2022-05-06 12:27:42.934
92.0, -272.05341242672876, -156.87010364141315, -183.2700574286282, -185.67481310013682, 0.1600000075995922, 0.11200000531971455, 1.008000047877431, 0.0, 0.0, 0.0, 0.0, 0.0, 1.6518364629506867E9, 0.0, 2022-05-06 12:27:42.950
92.0, -235.29393576225266, -99.90768741630018, -140.9231702303514, -185.7944898987189, 0.1600000075995922, 0.11200000531971455, 1.008000047877431, 0.0, 0.0, 0.0, 0.0, 0.0, 1.6518364629506867E9, 0.0, 2022-05-06 12:27:42.950
93.0, -235.76890305662528, -138.46605595946312, -168.77420520037413, -178.5316041847691, 0.1600000075995922, 0.11200000531971455, 1.008000047877431, 0.0, 0.0, 0.0, 0.0, 0.0, 1.651836462951612E9, 0.0, 2022-05-06 12:27:42.951
93.0, -261.78364714840427, -203.4318580897525, -214.45708315912634, -193.88763340283185, 0.1600000075995922, 0.11200000531971455, 1.008000047877431, 0.0, 0.0, 0.0, 0.0, 0.0, 1.651836462951612E9, 0.0, 2022-05-06 12:27:42.951
94.0, -270.3293185471557, -159.91812210530043, -181.80027674604207, -181.4524660501629, 0.1600000075995922, 0.11200000531971455, 1.008000047877431, 0.0, 0.0, 0.0, 0.0, 0.0, 1.6518364629648695E9, 0.0, 2022-05-06 12:27:42.964
94.0, -238.2110577276908, -96.91950735170394, -135.99772198870778, -178.5615233844146, 0.1600000075995922, 0.11200000531971455, 1.008000047877431, 0.0, 0.0, 0.0, 0.0, 0.0, 1.6518364629648695E9, 0.0, 2022-05-06 12:27:42.964
95.0, -243.09162716986611, -138.9185838541016, -173.60989584308118, -177.4582528974861, 0.1600000075995922, 0.11200000531971455, 1.008000047877431, 0.0, 0.0, 0.0, 0.0, 0.0, 1.6518364629806604E9, 0.0, 2022-05-06 12:27:42.980
95.0, -272.5620388207026, -200.99344331864268, -226.9969677105546, -202.762415997684, 0.1600000075995922, 0.11200000531971455, 1.008000047877431, 0.0, 0.0, 0.0, 0.0, 0.0, 1.6518364629806604E9, 0.0, 2022-05-06 12:27:42.980
96.0, -269.46914155734703, -156.2978989481926, -183.81982272211462, -196.2063713753596, 0.1600000075995922, 0.11200000531971455, 1.008000047877431, 0.0, 0.0, 0.0, 0.0, 0.0, 1.6518364629816878E9, 0.0, 2022-05-06 12:27:42.981
96.0, -232.8667406910099, -98.41172743402421, -131.72301633935422, -161.54123868606985, 0.1600000075995922, 0.11200000531971455, 1.008000047877431, 0.0, 0.0, 0.0, 0.0, 0.0, 1.6518364629816878E9, 0.0, 2022-05-06 12:27:42.981
97.0, -232.78820279194042, -139.71144264470786, -172.98159265052527, -174.97869922686368, 0.1600000075995922, 0.11200000531971455, 1.008000047877431, 0.0, 0.0, 0.0, 0.0, 0.0, 1.6518364629947033E9, 0.0, 2022-05-06 12:27:42.994
97.0, -265.3365521063097, -198.02770265378058, -212.64323168061674, -184.4256865149364, 0.1600000075995922, 0.11200000531971455, 1.008000047877431, 0.0, 0.0, 0.0, 0.0, 0.0, 1.6518364629947033E9, 0.0, 2022-05-06 12:27:42.994
98.0, -259.700522873085, -149.8839705241844, -171.08920327294618, -176.80751030519605, 0.1600000075995922, 0.11200000531971455, 1.008000047877431, 0.0, 0.0, 0.0, 0.0, 0.0, 1.6518364630106835E9, 0.0, 2022-05-06 12:27:43.010
98.0, -229.33253523288295, -86.02517878077924, -129.74460926279426, -150.9947208110243, 0.1600000075995922, 0.11200000531971455, 1.008000047877431, 0.0, 0.0, 0.0, 0.0, 0.0, 1.6518364630106835E9, 0.0, 2022-05-06 12:27:43.010
99.0, -236.07183495303616, -140.2125892387703, -173.3368831463158, -170.88724867533892, 0.1600000075995922, 0.11200000531971455, 1.008000047877431, 0.0, 0.0, 0.0, 0.0, 0.0, 1.651836463011606E9, 0.0, 2022-05-06 12:27:43.011
99.0, -260.0670330687426, -194.9048861907795, -213.062100475654, -183.51689082570374, 0.1600000075995922, 0.11200000531971455, 1.008000047877431, 0.0, 0.0, 0.0, 0.0, 0.0, 1.651836463011606E9, 0.0, 2022-05-06 12:27:43.011
100.0, -254.44596343534067, -142.20221601519734, -167.0463714208454, -167.3380836173892, 0.1600000075995922, 0.11200000531971455, 1.008000047877431, 0.0, 0.0, 0.0, 0.0, 0.0, 1.6518364630257435E9, 0.0, 2022-05-06 12:27:43.025
100.0, -215.1171755013056, -82.87618301808834, -124.48630992509425, -157.50588663388044, 0.1600000075995922, 0.11200000531971455, 1.008000047877431, 0.0, 0.0, 0.0, 0.0, 0.0, 1.6518364630257435E9, 0.0, 2022-05-06 12:27:43.025
0.0, -225.2747437809594, -132.46538648055866, -156.8383144917898, -157.32263153605163, 0.1600000075995922, 0.11200000531971455, 1.008000047877431, 0.0, 0.0, 0.0, 0.0, 0.0, 1.6518364630266683E9, 0.0, 2022-05-06 12:27:43.026
1.0, -256.2111962144263, -189.42032290576026, -205.5579912145622, -171.25749877095222, 0.1600000075995922, 0.09600000455975533, 1.008000047877431, 0.0, 0.0, 0.0, 0.0, 0.0, 1.6518364630397458E9, 0.0, 2022-05-06 12:27:43.039
1.0, -259.27043437818065, -153.0161367370747, -177.93135024188086, -189.78870305139571, 0.1600000075995922, 0.09600000455975533, 1.008000047877431, 0.0, 0.0, 0.0, 0.0, 0.0, 1.6518364630397458E9, 0.0, 2022-05-06 12:27:43.039
2.0, -240.56345479981974, -98.16676398692653, -145.24462462915108, -183.62160802446306, 0.1600000075995922, 0.09600000455975533, 1.008000047877431, 0.0, 0.0, 0.0, 0.0, 0.0, 1.6518364630557032E9, 0.0, 2022-05-06 12:27:43.055
2.0, -242.6503189750947, -150.33836836880073, -182.8081797841005, -195.91465917881578, 0.1600000075995922, 0.09600000455975533, 1.008000047877431, 0.0, 0.0, 0.0, 0.0, 0.0, 1.6518364630557032E9, 0.0, 2022-05-06 12:27:43.055
3.0, -271.2642935360782, -206.13019590778276, -230.55174261843786, -209.44187731854618, 0.1600000075995922, 0.09600000455975533, 1.008000047877431, 0.0, 0.0, 0.0, 0.0, 0.0, 1.6518364630566492E9, 0.0, 2022-05-06 12:27:43.056
3.0, -279.2901188409887, -163.5813541118987, -189.38666380615905, -195.7201843811199, 0.1600000075995922, 0.09600000455975533, 1.008000047877431, 0.0, 0.0, 0.0, 0.0, 0.0, 1.6518364630566492E9, 0.0, 2022-05-06 12:27:43.056
4.0, -232.67226589331403, -97.9161906898953, -136.58301633177325, -169.1594148958102, 0.1600000075995922, 0.09600000455975533, 1.008000047877431, 0.0, 0.0, 0.0, 0.0, 0.0, 1.6518364630696485E9, 0.0, 2022-05-06 12:27:43.069
4.0, -231.1276872116141, -135.24413214763626, -170.27203513262793, -177.35727559868246, 0.1600000075995922, 0.09600000455975533, 1.008000047877431, 0.0, 0.0, 0.0, 0.0, 0.0, 1.6518364630696485E9, 0.0, 2022-05-06 12:27:43.069
5.0, -267.9245628756471, -203.02233904460445, -217.31997657520697, -199.45634443685412, 0.1600000075995922, 0.09600000455975533, 1.008000047877431, 0.0, 0.0, 0.0, 0.0, 0.0, 1.6518364630856798E9, 0.0, 2022-05-06 12:27:43.085
5.0, -266.09575179731473, -161.84604053245857, -183.0737126809545, -194.4673178959638, 0.1600000075995922, 0.09600000455975533, 1.008000047877431, 0.0, 0.0, 0.0, 0.0, 0.0, 1.6518364630856798E9, 0.0, 2022-05-06 12:27:43.085
6.0, -219.3806614507921, -93.01692174794152, -130.0456712092273, -160.80447839479893, 0.1600000075995922, 0.09600000455975533, 1.008000047877431, 0.0, 0.0, 0.0, 0.0, 0.0, 1.6518364630866697E9, 0.0, 2022-05-06 12:27:43.086
6.0, -235.36125396145508, -138.66988050704822, -161.07188124163076, -166.73221982456744, 0.1600000075995922, 0.09600000455975533, 1.008000047877431, 0.0, 0.0, 0.0, 0.0, 0.0, 1.6518364630866697E9, 0.0, 2022-05-06 12:27:43.086
7.0, -273.3810769109987, -204.5257788267918, -224.81473608640954, -202.44452450145036, 0.1600000075995922, 0.09600000455975533, 1.008000047877431, 0.0, 0.0, 0.0, 0.0, 0.0, 1.6518364630997162E9, 0.0, 2022-05-06 12:27:43.099
7.0, -257.41170410020277, -146.2693572170101, -165.23438989231363, -175.9772525150329, 0.1600000075995922, 0.09600000455975533, 1.008000047877431, 0.0, 0.0, 0.0, 0.0, 0.0, 1.6518364630997162E9, 0.0, 2022-05-06 12:27:43.099
8.0, -217.20403967658058, -85.97843003133312, -121.98244690475985, -148.72834143787622, 0.1600000075995922, 0.09600000455975533, 1.008000047877431, 0.0, 0.0, 0.0, 0.0, 0.0, 1.6518364631156523E9, 0.0, 2022-05-06 12:27:43.115
8.0, -222.28282381640747, -131.65008829021826, -162.89695242000744, -159.93682160507888, 0.1600000075995922, 0.09600000455975533, 1.008000047877431, 0.0, 0.0, 0.0, 0.0, 0.0, 1.6518364631156523E9, 0.0, 2022-05-06 12:27:43.115
9.0, -267.9245628756471, -188.47038831701502, -212.09907623706385, -191.37442063260823, 0.1600000075995922, 0.09600000455975533, 1.008000047877431, 0.0, 0.0, 0.0, 0.0, 0.0, 1.6518364631168544E9, 0.0, 2022-05-06 12:27:43.116
9.0, -256.05412041628733, -149.99429757287726, -166.3600997789763, -178.46428598556668, 0.1600000075995922, 0.09600000455975533, 1.008000047877431, 0.0, 0.0, 0.0, 0.0, 0.0, 1.6518364631168544E9, 0.0, 2022-05-06 12:27:43.116
10.0, -217.1180219775997, -81.64014608273283, -116.44739497033879, -152.6701959911734, 0.1600000075995922, 0.09600000455975533, 1.008000047877431, 0.0, 0.0, 0.0, 0.0, 0.0, 1.651836463129686E9, 0.0, 2022-05-06 12:27:43.129
10.0, -226.17979957023636, -130.73381280107424, -162.30978812696412, -155.65837605576962, 0.1600000075995922, 0.09600000455975533, 1.008000047877431, 0.0, 0.0, 0.0, 0.0, 0.0, 1.651836463129686E9, 0.0, 2022-05-06 12:27:43.129
11.0, -262.08283914485946, -192.2177680726163, -206.65004200162366, -174.57479003164917, 0.1600000075995922, 0.11200000531971455, 1.008000047877431, 0.0, 0.0, 0.0, 0.0, 0.0, 1.6518364631616938E9, 0.0, 2022-05-06 12:27:43.161
11.0, -272.38626352278516, -152.34295474505052, -177.38532484835014, -197.65745255816728, 0.1600000075995922, 0.11200000531971455, 1.008000047877431, 0.0, 0.0, 0.0, 0.0, 0.0, 1.6518364631616938E9, 0.0, 2022-05-06 12:27:43.161
12.0, -229.77384342765436, -88.97034999588504, -129.58940341463313, -168.8228238997981, 0.1600000075995922, 0.11200000531971455, 1.008000047877431, 0.0, 0.0, 0.0, 0.0, 0.0, 1.6518364631626103E9, 0.0, 2022-05-06 12:27:43.162
12.0, -241.93973798351362, -145.6821929239668, -179.53576732287183, -192.37297392077744, 0.1600000075995922, 0.11200000531971455, 1.008000047877431, 0.0, 0.0, 0.0, 0.0, 0.0, 1.6518364631626103E9, 0.0, 2022-05-06 12:27:43.162
13.0, -267.105524785351, -195.924008928705, -219.68733324715868, -204.79318167362362, 0.1600000075995922, 0.11200000531971455, 1.008000047877431, 0.0, 0.0, 0.0, 0.0, 0.0, 1.6518364631636071E9, 0.0, 2022-05-06 12:27:43.163
13.0, -268.4855478690006, -160.1294264527969, -179.44600972393528, -192.6497265174985, 0.1600000075995922, 0.11200000531971455, 1.008000047877431, 0.0, 0.0, 0.0, 0.0, 0.0, 1.6518364631636071E9, 0.0, 2022-05-06 12:27:43.163
14.0, -231.62883380567655, -94.14263163460419, -131.14520179620013, -160.9278950933367, 0.1600000075995922, 0.11200000531971455, 1.008000047877431, 0.0, 0.0, 0.0, 0.0, 0.0, 1.6518364631646657E9, 0.0, 2022-05-06 12:27:43.164
14.0, -227.65706005273387, -139.44403979787603, -162.48182352492586, -166.3021313296631, 0.1600000075995922, 0.11200000531971455, 1.008000047877431, 0.0, 0.0, 0.0, 0.0, 0.0, 1.6518364631646657E9, 0.0, 2022-05-06 12:27:43.164
15.0, -263.8892108234577, -200.99531326862052, -222.85876840958372, -197.62005355861038, 0.1600000075995922, 0.11200000531971455, 1.008000047877431, 0.0, 0.0, 0.0, 0.0, 0.0, 1.651836463174654E9, 0.0, 2022-05-06 12:27:43.174
15.0, -271.2979526356794, -160.89984584366903, -189.05007281014696, -199.63211973477155, 0.1600000075995922, 0.11200000531971455, 1.008000047877431, 0.0, 0.0, 0.0, 0.0, 0.0, 1.651836463174654E9, 0.0, 2022-05-06 12:27:43.174
16.0, -237.29852213850245, -99.19523647474125, -135.29649074701592, -174.28681773506105, 0.1600000075995922, 0.11200000531971455, 1.008000047877431, 0.0, 0.0, 0.0, 0.0, 0.0, 1.6518364631897285E9, 0.0, 2022-05-06 12:27:43.189
16.0, -234.77782956836745, -150.83951496286318, -176.9215772538446, -178.6438011834398, 0.1600000075995922, 0.11200000531971455, 1.008000047877431, 0.0, 0.0, 0.0, 0.0, 0.0, 1.6518364631897285E9, 0.0, 2022-05-06 12:27:43.189
17.0, -271.9561750278808, -212.54038443183526, -232.04022280080244, -203.47299698926508, 0.1600000075995922, 0.11200000531971455, 1.008000047877431, 0.0, 0.0, 0.0, 0.0, 0.0, 1.6518364632057853E9, 0.0, 2022-05-06 12:27:43.205
17.0, -264.97004191065207, -161.0943206413649, -185.57196585135534, -190.89571343827993, 0.1600000075995922, 0.11200000531971455, 1.008000047877431, 0.0, 0.0, 0.0, 0.0, 0.0, 1.6518364632057853E9, 0.0, 2022-05-06 12:27:43.205
18.0, -223.06446290714666, -88.25602910434827, -127.12480934383348, -158.65403592027724, 0.1600000075995922, 0.11200000531971455, 1.008000047877431, 0.0, 0.0, 0.0, 0.0, 0.0, 1.6518364632067163E9, 0.0, 2022-05-06 12:27:43.206
18.0, -233.79049598006532, -135.0459174499847, -165.63829908752814, -162.9997996687889, 0.1600000075995922, 0.11200000531971455, 1.008000047877431, 0.0, 0.0, 0.0, 0.0, 0.0, 1.6518364632067163E9, 0.0, 2022-05-06 12:27:43.206
19.0, -257.4416232998483, -192.48704086942598, -209.6756210657768, -179.750811570324, 0.1600000075995922, 0.11200000531971455, 1.008000047877431, 0.0, 0.0, 0.0, 0.0, 0.0, 1.6518364632197905E9, 0.0, 2022-05-06 12:27:43.219
19.0, -251.42038437118754, -132.81693707639351, -152.7917427397333, -160.36691009998322, 0.1600000075995922, 0.11200000531971455, 1.008000047877431, 0.0, 0.0, 0.0, 0.0, 0.0, 1.6518364632197905E9, 0.0, 2022-05-06 12:27:43.219
20.0, -214.64968800684437, -80.77996909292415, -116.65308946790174, -153.20126178488135, 0.1600000075995922, 0.11200000531971455, 1.008000047877431, 0.0, 0.0, 0.0, 0.0, 0.0, 1.6518364632356803E9, 0.0, 2022-05-06 12:27:43.235
20.0, -240.982323594857, -136.47829913301393, -169.44925714237615, -162.38271617610008, 0.1600000075995922, 0.11200000531971455, 1.008000047877431, 0.0, 0.0, 0.0, 0.0, 0.0, 1.6518364632356803E9, 0.0, 2022-05-06 12:27:43.235
21.0, -264.4726352165453, -197.2965522124432, -216.88240828039125, -204.01528248284012, 0.1600000075995922, 0.11200000531971455, 1.008000047877431, 0.0, 0.0, 0.0, 0.0, 0.0, 1.651836463236622E9, 0.0, 2022-05-06 12:27:43.236
21.0, -266.6978756901808, -157.728410681244, -181.09904550435022, -199.70691773388535, 0.1600000075995922, 0.11200000531971455, 1.008000047877431, 0.0, 0.0, 0.0, 0.0, 0.0, 1.651836463236622E9, 0.0, 2022-05-06 12:27:43.236
22.0, -215.0124583025463, -86.24770282814279, -120.59120412124321, -154.77201976627111, 0.1600000075995922, 0.11200000531971455, 1.008000047877431, 0.0, 0.0, 0.0, 0.0, 0.0, 1.6518364632496755E9, 0.0, 2022-05-06 12:27:43.249
22.0, -232.81438209163025, -131.90440148720518, -164.16477850498632, -164.6715349489823, 0.1600000075995922, 0.11200000531971455, 1.008000047877431, 0.0, 0.0, 0.0, 0.0, 0.0, 1.6518364632496755E9, 0.0, 2022-05-06 12:27:43.249
23.0, -258.3578987889923, -192.113050873857, -214.58236980764195, -194.60195429436862, 0.1600000075995922, 0.11200000531971455, 1.008000047877431, 0.0, 0.0, 0.0, 0.0, 0.0, 1.651836463281689E9, 0.0, 2022-05-06 12:27:43.281
23.0, -256.08403961593285, -145.98512482037768, -173.75388199137524, -187.4250862793997, 0.1600000075995922, 0.11200000531971455, 1.008000047877431, 0.0, 0.0, 0.0, 0.0, 0.0, 1.651836463281689E9, 0.0, 2022-05-06 12:27:43.281
24.0, -230.3909269203432, -86.29258162761107, -126.38056925265118, -168.7068870011717, 0.1600000075995922, 0.11200000531971455, 1.008000047877431, 0.0, 0.0, 0.0, 0.0, 0.0, 1.651836463282742E9, 0.0, 2022-05-06 12:27:43.282
24.0, -221.87517472123727, -137.70124641852453, -163.5402152123861, -170.83862997591496, 0.1600000075995922, 0.11200000531971455, 1.008000047877431, 0.0, 0.0, 0.0, 0.0, 0.0, 1.651836463282742E9, 0.0, 2022-05-06 12:27:43.282
25.0, -268.1826159725897, -198.42226209910586, -217.5331508726813, -201.84614050853997, 0.1600000075995922, 0.11200000531971455, 1.008000047877431, 0.0, 0.0, 0.0, 0.0, 0.0, 1.651836463283654E9, 0.0, 2022-05-06 12:27:43.283
25.0, -260.3176063657738, -141.57578277261928, -159.018676165957, -170.36740258149803, 0.1600000075995922, 0.11200000531971455, 1.008000047877431, 0.0, 0.0, 0.0, 0.0, 0.0, 1.651836463283654E9, 0.0, 2022-05-06 12:27:43.283
26.0, -222.3052632161416, -78.64448621822521, -116.90366276493296, -141.11390512809157, 0.1600000075995922, 0.11200000531971455, 1.008000047877431, 0.0, 0.0, 0.0, 0.0, 0.0, 1.6518364632847433E9, 0.0, 2022-05-06 12:27:43.284
26.0, -236.688918445725, -141.14943417767063, -172.14572501042858, -172.24483235925436, 0.1600000075995922, 0.11200000531971455, 1.008000047877431, 0.0, 0.0, 0.0, 0.0, 0.0, 1.6518364632847433E9, 0.0, 2022-05-06 12:27:43.284
27.0, -262.8382989359088, -193.8558442532085, -220.7120658350177, -199.26560953911394, 0.1600000075995922, 0.11200000531971455, 1.008000047877431, 0.0, 0.0, 0.0, 0.0, 0.0, 1.6518364632947223E9, 0.0, 2022-05-06 12:27:43.294
27.0, -253.75782184349373, -147.9784914967604, -174.1727507864125, -190.04301624838263, 0.1600000075995922, 0.11200000531971455, 1.008000047877431, 0.0, 0.0, 0.0, 0.0, 0.0, 1.6518364632947223E9, 0.0, 2022-05-06 12:27:43.294
28.0, -214.3093571108766, -83.44277786137536, -116.07714487472549, -150.27292011957616, 0.1600000075995922, 0.11200000531971455, 1.008000047877431, 0.0, 0.0, 0.0, 0.0, 0.0, 1.6518364633097181E9, 0.0, 2022-05-06 12:27:43.309
28.0, -228.84260833868757, -138.29589051147923, -164.542508400511, -159.93682160507888, 0.1600000075995922, 0.11200000531971455, 1.008000047877431, 0.0, 0.0, 0.0, 0.0, 0.0, 1.6518364633097181E9, 0.0, 2022-05-06 12:27:43.309
29.0, -260.3250861656852, -198.39982269937173, -215.42384729767218, -190.33098854497075, 0.1600000075995922, 0.11200000531971455, 1.008000047877431, 0.0, 0.0, 0.0, 0.0, 0.0, 1.6518364633256912E9, 0.0, 2022-05-06 12:27:43.325
29.0, -258.6570907854475, -147.3875873037614, -169.34453994361684, -184.51918401382864, 0.1600000075995922, 0.11200000531971455, 1.008000047877431, 0.0, 0.0, 0.0, 0.0, 0.0, 1.6518364633256912E9, 0.0, 2022-05-06 12:27:43.325
30.0, -234.3514809734188, -91.22550966916606, -123.35499018849805, -147.09026525728405, 0.1600000075995922, 0.11200000531971455, 1.008000047877431, 0.0, 0.0, 0.0, 0.0, 0.0, 1.6518364633266609E9, 0.0, 2022-05-06 12:27:43.326
30.0, -229.59806812973693, -146.8266023104079, -178.33151953713968, -184.33218901604414, 0.1600000075995922, 0.11200000531971455, 1.008000047877431, 0.0, 0.0, 0.0, 0.0, 0.0, 1.6518364633266609E9, 0.0, 2022-05-06 12:27:43.326
31.0, -273.3436779114418, -203.31031134119257, -221.50866452557966, -203.74226978607476, 0.1600000075995922, 0.11200000531971455, 1.008000047877431, 0.0, 0.0, 0.0, 0.0, 0.0, 1.6518364633566947E9, 0.0, 2022-05-06 12:27:43.356
31.0, -262.30723314220086, -149.84096167469397, -168.7985145500861, -174.07738333754241, 0.1600000075995922, 0.11200000531971455, 1.008000047877431, 0.0, 0.0, 0.0, 0.0, 0.0, 1.6518364633566947E9, 0.0, 2022-05-06 12:27:43.356
32.0, -222.44737941445783, -92.4334973548539, -122.51725259842351, -156.25676004868, 0.1600000075995922, 0.11200000531971455, 1.008000047877431, 0.0, 0.0, 0.0, 0.0, 0.0, 1.6518364633576276E9, 0.0, 2022-05-06 12:27:43.357
32.0, -231.43435900798067, -139.47021909756586, -174.73747567972168, -181.51604434940964, 0.1600000075995922, 0.11200000531971455, 1.008000047877431, 0.0, 0.0, 0.0, 0.0, 0.0, 1.6518364633576276E9, 0.0, 2022-05-06 12:27:43.357
33.0, -264.4838549164124, -202.521192450542, -218.99919165531173, -201.12059991713613, 0.1600000075995922, 0.11200000531971455, 1.008000047877431, 0.0, 0.0, 0.0, 0.0, 0.0, 1.6518364633586235E9, 0.0, 2022-05-06 12:27:43.358
33.0, -269.035313162487, -156.6101805944927, -175.9192840657197, -187.41386657953262, 0.1600000075995922, 0.11200000531971455, 1.008000047877431, 0.0, 0.0, 0.0, 0.0, 0.0, 1.6518364633586235E9, 0.0, 2022-05-06 12:27:43.358
34.0, -227.11103465920314, -88.60757970018312, -122.96978049306199, -152.52807979285717, 0.1600000075995922, 0.11200000531971455, 1.008000047877431, 0.0, 0.0, 0.0, 0.0, 0.0, 1.6518364633867397E9, 0.0, 2022-05-06 12:27:43.386
34.0, -230.60410121781752, -137.81344341719523, -160.1705653523095, -165.7448862362653, 0.1600000075995922, 0.11200000531971455, 1.008000047877431, 0.0, 0.0, 0.0, 0.0, 0.0, 1.6518364633867397E9, 0.0, 2022-05-06 12:27:43.386
35.0, -267.26260058349, -200.40440907562152, -218.01933786692098, -198.01274305395782, 0.1600000075995922, 0.11200000531971455, 1.008000047877431, 0.0, 0.0, 0.0, 0.0, 0.0, 1.6518364633876553E9, 0.0, 2022-05-06 12:27:43.387
35.0, -265.0261404099874, -144.3470486397855, -173.2826545969583, -176.25026521179825, 0.1600000075995922, 0.11200000531971455, 1.008000047877431, 0.0, 0.0, 0.0, 0.0, 0.0, 1.6518364633876553E9, 0.0, 2022-05-06 12:27:43.387
36.0, -236.4981835479848, -96.75682170363143, -139.09622910199687, -172.72727945353836, 0.1600000075995922, 0.11200000531971455, 1.008000047877431, 0.0, 0.0, 0.0, 0.0, 0.0, 1.6518364633886197E9, 0.0, 2022-05-06 12:27:43.388
36.0, -227.2718503572978, -138.5988224078901, -163.67485161079094, -171.39961496926844, 0.1600000075995922, 0.11200000531971455, 1.008000047877431, 0.0, 0.0, 0.0, 0.0, 0.0, 1.6518364633886197E9, 0.0, 2022-05-06 12:27:43.388
37.0, -280.8085182229988, -206.66500160144642, -221.84525552159175, -198.84300084412098, 0.1600000075995922, 0.11200000531971455, 1.008000047877431, 0.0, 0.0, 0.0, 0.0, 0.0, 1.6518364633997712E9, 0.0, 2022-05-06 12:27:43.399
37.0, -256.08403961593285, -153.77533642807975, -172.74784890329465, -173.84176964033395, 0.1600000075995922, 0.11200000531971455, 1.008000047877431, 0.0, 0.0, 0.0, 0.0, 0.0, 1.6518364633997712E9, 0.0, 2022-05-06 12:27:43.399
38.0, -235.05084226513281, -91.07965357089415, -130.08681010873988, -158.17158882599324, 0.1600000075995922, 0.11200000531971455, 1.008000047877431, 0.0, 0.0, 0.0, 0.0, 0.0, 1.6518364634156792E9, 0.0, 2022-05-06 12:27:43.415
38.0, -248.64911850402132, -151.0900882598944, -181.7385683967732, -182.0845091426745, 0.1600000075995922, 0.11200000531971455, 1.008000047877431, 0.0, 0.0, 0.0, 0.0, 0.0, 1.6518364634156792E9, 0.0, 2022-05-06 12:27:43.415
39.0, -273.87474370514974, -200.20619437796995, -220.96263913204893, -198.63730634655803, 0.1600000075995922, 0.11200000531971455, 1.008000047877431, 0.0, 0.0, 0.0, 0.0, 0.0, 1.6518364634166088E9, 0.0, 2022-05-06 12:27:43.416
39.0, -274.3646705993451, -156.7934356923215, -179.67040372127667, -192.49265071935952, 0.1600000075995922, 0.11200000531971455, 1.008000047877431, 0.0, 0.0, 0.0, 0.0, 0.0, 1.6518364634166088E9, 0.0, 2022-05-06 12:27:43.416
40.0, -230.97435131343082, -88.02789520705119, -121.66455540852621, -150.91244301199913, 0.1600000075995922, 0.11200000531971455, 1.008000047877431, 0.0, 0.0, 0.0, 0.0, 0.0, 1.6518364634296656E9, 0.0, 2022-05-06 12:27:43.429
40.0, -242.07437438191846, -156.871973591391, -181.85450529539958, -182.33882233966142, 0.1600000075995922, 0.11200000531971455, 1.008000047877431, 0.0, 0.0, 0.0, 0.0, 0.0, 1.6518364634296656E9, 0.0, 2022-05-06 12:27:43.429
41.0, -270.0712654502131, -212.06915703741834, -228.25544404564425, -207.08948024641722, 0.1600000075995922, 0.11200000531971455, 1.008000047877431, 0.0, 0.0, 0.0, 0.0, 0.0, 1.6518364634456763E9, 0.0, 2022-05-06 12:27:43.445
41.0, -277.87269675778225, -159.15331256436184, -184.00120786996558, -193.9474718021229, 0.1600000075995922, 0.11200000531971455, 1.008000047877431, 0.0, 0.0, 0.0, 0.0, 0.0, 1.6518364634456763E9, 0.0, 2022-05-06 12:27:43.445
42.0, -235.06206196499988, -93.46944964258, -128.77784512424842, -164.51445915084332, 0.1600000075995922, 0.11200000531971455, 1.008000047877431, 0.0, 0.0, 0.0, 0.0, 0.0, 1.6518364634466197E9, 0.0, 2022-05-06 12:27:43.446
42.0, -250.90801807725802, -155.25259691057727, -182.3967907889746, -181.77035754639655, 0.1600000075995922, 0.11200000531971455, 1.008000047877431, 0.0, 0.0, 0.0, 0.0, 0.0, 1.6518364634466197E9, 0.0, 2022-05-06 12:27:43.446
43.0, -276.814305070322, -202.1883413544856, -223.37113470351323, -190.6488800412044, 0.1600000075995922, 0.11200000531971455, 1.008000047877431, 0.0, 0.0, 0.0, 0.0, 0.0, 1.6518364634598153E9, 0.0, 2022-05-06 12:27:43.459
43.0, -267.9245628756471, -148.53947649011388, -174.14657148672268, -194.70667149312794, 0.1600000075995922, 0.11200000531971455, 1.008000047877431, 0.0, 0.0, 0.0, 0.0, 0.0, 1.6518364634598153E9, 0.0, 2022-05-06 12:27:43.459
44.0, -228.68927244050428, -91.0983530706726, -127.83165043545887, -161.7394533837214, 0.1600000075995922, 0.11200000531971455, 1.008000047877431, 0.0, 0.0, 0.0, 0.0, 0.0, 1.651836463475728E9, 0.0, 2022-05-06 12:27:43.475
44.0, -234.14578647585586, -145.2371448292397, -169.83072693785653, -162.50239297468215, 0.1600000075995922, 0.11200000531971455, 1.008000047877431, 0.0, 0.0, 0.0, 0.0, 0.0, 1.651836463475728E9, 0.0, 2022-05-06 12:27:43.475
45.0, -275.6399764842354, -190.48993429308757, -213.9017080157064, -193.77169650420547, 0.1600000075995922, 0.11200000531971455, 1.008000047877431, 0.0, 0.0, 0.0, 0.0, 0.0, 1.651836463476682E9, 0.0, 2022-05-06 12:27:43.476
45.0, -260.6616771616973, -138.73345880629495, -171.19205052172765, -175.33024982269853, 0.1600000075995922, 0.11200000531971455, 1.008000047877431, 0.0, 0.0, 0.0, 0.0, 0.0, 1.651836463476682E9, 0.0, 2022-05-06 12:27:43.476
46.0, -236.96941094240174, -91.96974976034835, -140.46503248577937, -180.54367036093026, 0.1600000075995922, 0.11200000531971455, 1.008000047877431, 0.0, 0.0, 0.0, 0.0, 0.0, 1.651836463489677E9, 0.0, 2022-05-06 12:27:43.489
46.0, -246.96242362400517, -147.4249863033183, -176.9552363534458, -173.32192354649305, 0.1600000075995922, 0.11200000531971455, 1.008000047877431, 0.0, 0.0, 0.0, 0.0, 0.0, 1.651836463489677E9, 0.0, 2022-05-06 12:27:43.489
47.0, -279.94834123319015, -206.30971110565588, -229.0146437366493, -197.67615205794573, 0.1600000075995922, 0.11200000531971455, 1.008000047877431, 0.0, 0.0, 0.0, 0.0, 0.0, 1.651836463505646E9, 0.0, 2022-05-06 12:27:43.505
47.0, -276.65722927218303, -155.04690241301432, -176.56254685809836, -192.19345872290432, 0.1600000075995922, 0.11200000531971455, 1.008000047877431, 0.0, 0.0, 0.0, 0.0, 0.0, 1.651836463505646E9, 0.0, 2022-05-06 12:27:43.505
48.0, -226.72582496376708, -89.23588289273903, -125.95422065770254, -161.19342799019068, 0.1600000075995922, 0.11200000531971455, 1.008000047877431, 0.0, 0.0, 0.0, 0.0, 0.0, 1.6518364635067284E9, 0.0, 2022-05-06 12:27:43.506
48.0, -250.5452477815561, -156.82335489196703, -181.9517426942475, -187.05857608374208, 0.1600000075995922, 0.11200000531971455, 1.008000047877431, 0.0, 0.0, 0.0, 0.0, 0.0, 1.6518364635067284E9, 0.0, 2022-05-06 12:27:43.506
49.0, -275.5165597856976, -200.1837549782358, -217.35737557476386, -193.2780297100544, 0.1600000075995922, 0.11200000531971455, 1.008000047877431, 0.0, 0.0, 0.0, 0.0, 0.0, 1.651836463536652E9, 0.0, 2022-05-06 12:27:43.536
49.0, -267.27756018331274, -144.72851843526587, -166.37879927875474, -172.17003436014056, 0.1600000075995922, 0.11200000531971455, 1.008000047877431, 0.0, 0.0, 0.0, 0.0, 0.0, 1.651836463536652E9, 0.0, 2022-05-06 12:27:43.536
50.0, -222.06216971902177, -83.3156212628819, -118.38840304734185, -145.11559808067977, 0.1600000075995922, 0.11200000531971455, 1.008000047877431, 0.0, 0.0, 0.0, 0.0, 0.0, 1.6518364635375907E9, 0.0, 2022-05-06 12:27:43.537
50.0, -221.37402812717482, -140.95121948001906, -167.74760266253725, -161.14106939081103, 0.1600000075995922, 0.11200000531971455, 1.008000047877431, 0.0, 0.0, 0.0, 0.0, 0.0, 1.6518364635375907E9, 0.0, 2022-05-06 12:27:43.537
51.0, -276.0775447790511, -203.08591734385118, -225.532796877902, -203.5440550884232, 0.1600000075995922, 0.11200000531971455, 1.008000047877431, 0.0, 0.0, 0.0, 0.0, 0.0, 1.6518364635386033E9, 0.0, 2022-05-06 12:27:43.538
51.0, -279.3088183407672, -151.09756805980578, -174.44202358322218, -191.84938792698085, 0.1600000075995922, 0.11200000531971455, 1.008000047877431, 0.0, 0.0, 0.0, 0.0, 0.0, 1.6518364635386033E9, 0.0, 2022-05-06 12:27:43.538
52.0, -248.29008810827509, -103.32034612586722, -139.36924179876223, -171.24253917112947, 0.1600000075995922, 0.11200000531971455, 1.008000047877431, 0.0, 0.0, 0.0, 0.0, 0.0, 1.6518364635497248E9, 0.0, 2022-05-06 12:27:43.549
52.0, -238.34569412609562, -145.09502863092348, -169.5390147413127, -161.7057942841202, 0.1600000075995922, 0.11200000531971455, 1.008000047877431, 0.0, 0.0, 0.0, 0.0, 0.0, 1.6518364635497248E9, 0.0, 2022-05-06 12:27:43.549
53.0, -276.09998417878523, -198.17542870203033, -219.9790454437025, -190.92563263792545, 0.1600000075995922, 0.11200000531971455, 1.008000047877431, 0.0, 0.0, 0.0, 0.0, 0.0, 1.6518364635656888E9, 0.0, 2022-05-06 12:27:43.565
53.0, -273.3623774112202, -149.3846938800998, -177.52370114671066, -201.81622130889446, 0.1600000075995922, 0.11200000531971455, 1.008000047877431, 0.0, 0.0, 0.0, 0.0, 0.0, 1.6518364635656888E9, 0.0, 2022-05-06 12:27:43.565
54.0, -246.82030742568895, -98.39489788422361, -145.88788742152974, -187.5709423776716, 0.1600000075995922, 0.11200000531971455, 1.008000047877431, 0.0, 0.0, 0.0, 0.0, 0.0, 1.6518364635666008E9, 0.0, 2022-05-06 12:27:43.566
54.0, -244.9540973477997, -154.08200822444633, -178.16322403913364, -179.2347053764388, 0.1600000075995922, 0.11200000531971455, 1.008000047877431, 0.0, 0.0, 0.0, 0.0, 0.0, 1.6518364635666008E9, 0.0, 2022-05-06 12:27:43.566
55.0, -278.9385682451539, -208.32925708172843, -225.92548637324944, -204.1349592814222, 0.1600000075995922, 0.11200000531971455, 1.008000047877431, 0.0, 0.0, 0.0, 0.0, 0.0, 1.6518364635797184E9, 0.0, 2022-05-06 12:27:43.579
55.0, -271.1483566374518, -154.95340491412207, -178.3651786367409, -189.7587838517502, 0.1600000075995922, 0.11200000531971455, 1.008000047877431, 0.0, 0.0, 0.0, 0.0, 0.0, 1.6518364635797184E9, 0.0, 2022-05-06 12:27:43.579
56.0, -233.7979757799767, -88.66367819951847, -122.02732570422813, -151.98205439932644, 0.1600000075995922, 0.11200000531971455, 1.008000047877431, 0.0, 0.0, 0.0, 0.0, 0.0, 1.6518364635956585E9, 0.0, 2022-05-06 12:27:43.595
56.0, -239.16099231643602, -142.98572505591437, -167.04824137082323, -154.23347417265177, 0.1600000075995922, 0.11200000531971455, 1.008000047877431, 0.0, 0.0, 0.0, 0.0, 0.0, 1.6518364635956585E9, 0.0, 2022-05-06 12:27:43.595
57.0, -271.09225813811645, -197.74908010708168, -217.88844136847183, -200.9523044191301, 0.1600000075995922, 0.11200000531971455, 1.008000047877431, 0.0, 0.0, 0.0, 0.0, 0.0, 1.651836463596597E9, 0.0, 2022-05-06 12:27:43.596
57.0, -255.37719852430746, -139.8292494933121, -169.22860304499045, -181.54596354905516, 0.1600000075995922, 0.11200000531971455, 1.008000047877431, 0.0, 0.0, 0.0, 0.0, 0.0, 1.651836463596597E9, 0.0, 2022-05-06 12:27:43.596
58.0, -218.87577495677397, -86.90218532038853, -125.61014986177906, -159.8134049065411, 0.1600000075995922, 0.11200000531971455, 1.008000047877431, 0.0, 0.0, 0.0, 0.0, 0.0, 1.65183646360967E9, 0.0, 2022-05-06 12:27:43.609
58.0, -244.09018045803532, -145.4615388265811, -171.15839142212644, -167.5624776147306, 0.1600000075995922, 0.11200000531971455, 1.008000047877431, 0.0, 0.0, 0.0, 0.0, 0.0, 1.65183646360967E9, 0.0, 2022-05-06 12:27:43.609
59.0, -283.9687336855568, -202.08736405568197, -219.0515502546914, -193.40518630854785, 0.1600000075995922, 0.11200000531971455, 1.008000047877431, 0.0, 0.0, 0.0, 0.0, 0.0, 1.6518364636256697E9, 0.0, 2022-05-06 12:27:43.625
59.0, -273.5194532093592, -149.97185817314312, -177.6171986456029, -186.81174268666655, 0.1600000075995922, 0.11200000531971455, 1.008000047877431, 0.0, 0.0, 0.0, 0.0, 0.0, 1.6518364636256697E9, 0.0, 2022-05-06 12:27:43.625
60.0, -230.98557101329789, -84.95369744347408, -126.47780665149912, -172.06531716138124, 0.1600000075995922, 0.11200000531971455, 1.0240000486373901, 0.0, 0.0, 0.0, 0.0, 0.0, 1.6518364636266432E9, 0.0, 2022-05-06 12:27:43.626
60.0, -255.73996882000938, -158.42029217304662, -184.2143821674399, -190.7535972399637, 0.1600000075995922, 0.11200000531971455, 1.0240000486373901, 0.0, 0.0, 0.0, 0.0, 0.0, 1.6518364636266432E9, 0.0, 2022-05-06 12:27:43.626
61.0, -287.54033814324066, -216.8225698811002, -229.8710808265023, -209.26236212067306, 0.1600000075995922, 0.11200000531971455, 1.0240000486373901, 0.0, 0.0, 0.0, 0.0, 0.0, 1.6518364636396437E9, 0.0, 2022-05-06 12:27:43.639
61.0, -264.85036511207, -151.2434241580777, -174.40462458366528, -187.4624852789566, 0.1600000075995922, 0.11200000531971455, 1.0240000486373901, 0.0, 0.0, 0.0, 0.0, 0.0, 1.6518364636396437E9, 0.0, 2022-05-06 12:27:43.639
62.0, -238.21853752760217, -99.70760276867077, -142.22652536490932, -176.62051530741155, 0.1600000075995922, 0.11200000531971455, 1.0240000486373901, 0.0, 0.0, 0.0, 0.0, 0.0, 1.6518364636556754E9, 0.0, 2022-05-06 12:27:43.655
62.0, -260.34752556541935, -157.25344338687137, -194.00544025143608, -191.95410512574017, 0.1600000075995922, 0.11200000531971455, 1.0240000486373901, 0.0, 0.0, 0.0, 0.0, 0.0, 1.6518364636556754E9, 0.0, 2022-05-06 12:27:43.655
63.0, -278.527179250028, -202.2257403540425, -216.33264298690483, -201.206617616117, 0.1600000075995922, 0.11200000531971455, 1.0240000486373901, 0.0, 0.0, 0.0, 0.0, 0.0, 1.651836463656645E9, 0.0, 2022-05-06 12:27:43.656
63.0, -258.59725238615647, -140.457552685868, -166.10952648194507, -179.64983427152038, 0.1600000075995922, 0.11200000531971455, 1.0240000486373901, 0.0, 0.0, 0.0, 0.0, 0.0, 1.651836463656645E9, 0.0, 2022-05-06 12:27:43.656
64.0, -235.46971106017008, -90.70566357532516, -132.98149267444387, -160.1462560025975, 0.1600000075995922, 0.11200000531971455, 1.0240000486373901, 0.0, 0.0, 0.0, 0.0, 0.0, 1.651836463669678E9, 0.0, 2022-05-06 12:27:43.669
64.0, -249.83092689001933, -151.4266792559065, -179.78260071994737, -173.3069639466703, 0.1600000075995922, 0.11200000531971455, 1.0240000486373901, 0.0, 0.0, 0.0, 0.0, 0.0, 1.651836463669678E9, 0.0, 2022-05-06 12:27:43.669
65.0, -274.2674332004972, -198.77007279498503, -217.11054217768833, -196.80849526822567, 0.1600000075995922, 0.11200000531971455, 1.0240000486373901, 0.0, 0.0, 0.0, 0.0, 0.0, 1.6518364636857624E9, 0.0, 2022-05-06 12:27:43.685
65.0, -261.0693262568675, -140.48747188551351, -166.12822598172352, -176.87482850439847, 0.1600000075995922, 0.11200000531971455, 1.0240000486373901, 0.0, 0.0, 0.0, 0.0, 0.0, 1.6518364636857624E9, 0.0, 2022-05-06 12:27:43.685
66.0, -231.99908390128985, -91.91739116096869, -131.4518735925667, -159.3309578122571, 0.1600000075995922, 0.11200000531971455, 1.0240000486373901, 0.0, 0.0, 0.0, 0.0, 0.0, 1.6518364636866755E9, 0.0, 2022-05-06 12:27:43.686
66.0, -243.1327660693787, -158.4651709725149, -184.58089236309752, -187.6420004768297, 0.1600000075995922, 0.11200000531971455, 1.0240000486373901, 0.0, 0.0, 0.0, 0.0, 0.0, 1.6518364636866755E9, 0.0, 2022-05-06 12:27:43.686
67.0, -272.31520542362705, -202.92136174580082, -219.0814694543369, -197.80330865643919, 0.1600000075995922, 0.11200000531971455, 1.0240000486373901, 0.0, 0.0, 0.0, 0.0, 0.0, 1.6518364636996677E9, 0.0, 2022-05-06 12:27:43.699
67.0, -259.2891338779591, -142.35742186335847, -168.5404614531435, -169.86999588739127, 0.1600000075995922, 0.11200000531971455, 1.0240000486373901, 0.0, 0.0, 0.0, 0.0, 0.0, 1.6518364636996677E9, 0.0, 2022-05-06 12:27:43.699
68.0, -221.17207352956757, -84.68068474670872, -126.67976124910638, -167.7457327125594, 0.1600000075995922, 0.11200000531971455, 1.0240000486373901, 0.0, 0.0, 0.0, 0.0, 0.0, 1.6518364637317233E9, 0.0, 2022-05-06 12:27:43.731
68.0, -228.15072684688494, -149.6128277773969, -177.50500164693221, -174.79918402899057, 0.1600000075995922, 0.11200000531971455, 1.0240000486373901, 0.0, 0.0, 0.0, 0.0, 0.0, 1.6518364637317233E9, 0.0, 2022-05-06 12:27:43.731
69.0, -271.46998803364113, -199.39089618762955, -214.28691771114245, -176.07822981383651, 0.1600000075995922, 0.11200000531971455, 1.0240000486373901, 0.0, 0.0, 0.0, 0.0, 0.0, 1.6518364637326798E9, 0.0, 2022-05-06 12:27:43.732
69.0, -258.42147708823904, -147.68677930021659, -183.18590967962518, -200.79148872103542, 0.1600000075995922, 0.11200000531971455, 1.0240000486373901, 0.0, 0.0, 0.0, 0.0, 0.0, 1.6518364637326798E9, 0.0, 2022-05-06 12:27:43.732
70.0, -250.23109618527815, -100.10777206392959, -136.18284703651443, -176.69905320648104, 0.1600000075995922, 0.11200000531971455, 1.0240000486373901, 0.0, 0.0, 0.0, 0.0, 0.0, 1.6518364637336652E9, 0.0, 2022-05-06 12:27:43.733
70.0, -254.56564023392275, -161.18407824030146, -185.7701805490069, -181.40384735073894, 0.1600000075995922, 0.11200000531971455, 1.0240000486373901, 0.0, 0.0, 0.0, 0.0, 0.0, 1.6518364637336652E9, 0.0, 2022-05-06 12:27:43.733
71.0, -284.750372776296, -207.13248909590766, -231.9429854019545, -213.05836057569832, 0.1600000075995922, 0.11200000531971455, 1.0240000486373901, 0.0, 0.0, 0.0, 0.0, 0.0, 1.651836463734672E9, 0.0, 2022-05-06 12:27:43.734
71.0, -269.1063712616451, -144.05533644324169, -173.82867999048904, -190.86205433867872, 0.1600000075995922, 0.11200000531971455, 1.0240000486373901, 0.0, 0.0, 0.0, 0.0, 0.0, 1.651836463734672E9, 0.0, 2022-05-06 12:27:43.734
72.0, -248.25642900867388, -101.38307794881985, -129.56696401489899, -178.07533639017493, 0.1600000075995922, 0.11200000531971455, 1.0240000486373901, 0.0, 0.0, 0.0, 0.0, 0.0, 1.65183646374468E9, 0.0, 2022-05-06 12:27:43.744
72.0, -244.7297033504583, -157.51149648381397, -183.09989198064432, -186.56116938963532, 0.1600000075995922, 0.11200000531971455, 1.0240000486373901, 0.0, 0.0, 0.0, 0.0, 0.0, 1.65183646374468E9, 0.0, 2022-05-06 12:27:43.744
73.0, -272.4535817219876, -205.34481691708788, -220.0538434428163, -199.97245063073933, 0.1600000075995922, 0.11200000531971455, 1.0240000486373901, 0.0, 0.0, 0.0, 0.0, 0.0, 1.6518364637597275E9, 0.0, 2022-05-06 12:27:43.759
73.0, -271.7878795298748, -136.4521198333241, -164.07128100609407, -175.62944181915373, 0.1600000075995922, 0.11200000531971455, 1.0240000486373901, 0.0, 0.0, 0.0, 0.0, 0.0, 1.6518364637597275E9, 0.0, 2022-05-06 12:27:43.759
74.0, -232.74706389242783, -96.46510950708762, -132.1175757846795, -159.87698320578784, 0.1600000075995922, 0.11200000531971455, 1.0240000486373901, 0.0, 0.0, 0.0, 0.0, 0.0, 1.6518364637756896E9, 0.0, 2022-05-06 12:27:43.775
74.0, -249.42327779484913, -156.22871079901233, -176.8766984543763, -169.21177349518985, 0.1600000075995922, 0.11200000531971455, 1.0240000486373901, 0.0, 0.0, 0.0, 0.0, 0.0, 1.6518364637756896E9, 0.0, 2022-05-06 12:27:43.775
75.0, -276.0364058795385, -202.45761415129527, -212.1963136359118, -202.9531508954242, 0.1600000075995922, 0.11200000531971455, 1.0240000486373901, 0.0, 0.0, 0.0, 0.0, 0.0, 1.6518364637766013E9, 0.0, 2022-05-06 12:27:43.776
75.0, -260.3587452652864, -136.20902633620426, -163.7683491096832, -181.91621364466846, 0.1600000075995922, 0.11200000531971455, 1.0240000486373901, 0.0, 0.0, 0.0, 0.0, 0.0, 1.6518364637766013E9, 0.0, 2022-05-06 12:27:43.776
76.0, -228.39382034400478, -87.06674091843888, -119.60761043289676, -153.6986684789881, 0.1600000075995922, 0.11200000531971455, 1.0240000486373901, 0.0, 0.0, 0.0, 0.0, 0.0, 1.6518364637897532E9, 0.0, 2022-05-06 12:27:43.789
76.0, -237.93430513096973, -152.39905324438587, -177.2132894503884, -173.84176964033395, 0.1600000075995922, 0.11200000531971455, 1.0240000486373901, 0.0, 0.0, 0.0, 0.0, 0.0, 1.6518364637897532E9, 0.0, 2022-05-06 12:27:43.789
77.0, -264.0051477220841, -199.7387068835087, -217.6004690718837, -197.36200046166778, 0.1600000075995922, 0.11200000531971455, 1.0240000486373901, 0.0, 0.0, 0.0, 0.0, 0.0, 1.651836463805664E9, 0.0, 2022-05-06 12:27:43.805
77.0, -256.5141281108372, -133.7855711649172, -160.3538204501383, -168.003785809502, 0.1600000075995922, 0.11200000531971455, 1.0240000486373901, 0.0, 0.0, 0.0, 0.0, 0.0, 1.651836463805664E9, 0.0, 2022-05-06 12:27:43.805
78.0, -239.12359331687912, -94.07905333535746, -138.4567062095739, -168.21322020702064, 0.1600000075995922, 0.11200000531971455, 1.0240000486373901, 0.0, 0.0, 0.0, 0.0, 0.0, 1.6518364638066883E9, 0.0, 2022-05-06 12:27:43.806
78.0, -246.64079222781584, -156.8308346918784, -185.23163495538756, -183.84600202180445, 0.1600000075995922, 0.11200000531971455, 1.0240000486373901, 0.0, 0.0, 0.0, 0.0, 0.0, 1.6518364638066883E9, 0.0, 2022-05-06 12:27:43.806
79.0, -270.2246013483964, -202.9699804452248, -222.62689461233094, -196.38214667327702, 0.1600000075995922, 0.11200000531971455, 1.0240000486373901, 0.0, 0.0, 0.0, 0.0, 0.0, 1.6518364638197057E9, 0.0, 2022-05-06 12:27:43.819
79.0, -260.8935509589501, -144.06281624315307, -172.56085390551016, -181.3103498518467, 0.1600000075995922, 0.11200000531971455, 1.0240000486373901, 0.0, 0.0, 0.0, 0.0, 0.0, 1.6518364638197057E9, 0.0, 2022-05-06 12:27:43.819
80.0, -233.1621927875094, -97.03731420030817, -133.18344727205113, -169.27535179443657, 0.1600000075995922, 0.11200000531971455, 1.008000047877431, 0.0, 0.0, 0.0, 0.0, 0.0, 1.6518364638357177E9, 0.0, 2022-05-06 12:27:43.835
80.0, -240.70931089809164, -150.15511327097192, -179.401130924467, -188.5021774666384, 0.1600000075995922, 0.11200000531971455, 1.008000047877431, 0.0, 0.0, 0.0, 0.0, 0.0, 1.6518364638357177E9, 0.0, 2022-05-06 12:27:43.835
81.0, -262.6999226375483, -200.4866868746467, -218.81967645743862, -200.9485645191744, 0.1600000075995922, 0.09600000455975533, 1.008000047877431, 0.0, 0.0, 0.0, 0.0, 0.0, 1.651836463836609E9, 0.0, 2022-05-06 12:27:43.836
81.0, -270.61355094378814, -141.72537877084687, -169.55771424109116, -184.93057300895452, 0.1600000075995922, 0.09600000455975533, 1.008000047877431, 0.0, 0.0, 0.0, 0.0, 0.0, 1.651836463836609E9, 0.0, 2022-05-06 12:27:43.836
82.0, -230.9444321137853, -91.36388596752658, -127.31554424157366, -157.9247554289177, 0.1600000075995922, 0.09600000455975533, 1.008000047877431, 0.0, 0.0, 0.0, 0.0, 0.0, 1.6518364638497045E9, 0.0, 2022-05-06 12:27:43.849
82.0, -237.23120393930003, -159.77039605705068, -184.2143821674399, -182.83996893372387, 0.1600000075995922, 0.09600000455975533, 1.008000047877431, 0.0, 0.0, 0.0, 0.0, 0.0, 1.6518364638497045E9, 0.0, 2022-05-06 12:27:43.849
83.0, -273.79994570603594, -198.69153489591554, -215.3453093986027, -189.74382425192744, 0.1600000075995922, 0.09600000455975533, 1.008000047877431, 0.0, 0.0, 0.0, 0.0, 0.0, 1.6518364638657095E9, 0.0, 2022-05-06 12:27:43.865
83.0, -253.6531046447344, -132.18489398388192, -156.25862999865785, -164.79495164752007, 0.1600000075995922, 0.09600000455975533, 1.008000047877431, 0.0, 0.0, 0.0, 0.0, 0.0, 1.6518364638657095E9, 0.0, 2022-05-06 12:27:43.865
84.0, -231.26980340993032, -87.45195061387494, -125.5241321627982, -164.39104245230556, 0.1600000075995922, 0.09600000455975533, 1.008000047877431, 0.0, 0.0, 0.0, 0.0, 0.0, 1.6518364638666642E9, 0.0, 2022-05-06 12:27:43.866
84.0, -248.43968410650268, -157.85182737978175, -182.56508628698066, -180.51001126132905, 0.1600000075995922, 0.09600000455975533, 1.008000047877431, 0.0, 0.0, 0.0, 0.0, 0.0, 1.6518364638666642E9, 0.0, 2022-05-06 12:27:43.866
85.0, -271.7018618308939, -200.7073409720324, -219.88554794481024, -193.89511320274323, 0.1600000075995922, 0.09600000455975533, 1.008000047877431, 0.0, 0.0, 0.0, 0.0, 0.0, 1.6518364638797264E9, 0.0, 2022-05-06 12:27:43.879
85.0, -260.23158866679296, -137.4132741219364, -169.67739103967324, -182.48093853797764, 0.1600000075995922, 0.09600000455975533, 1.008000047877431, 0.0, 0.0, 0.0, 0.0, 0.0, 1.6518364638797264E9, 0.0, 2022-05-06 12:27:43.879
86.0, -214.51879150839522, -86.11306642973796, -127.70449383696541, -165.01560574490577, 0.1600000075995922, 0.09600000455975533, 1.008000047877431, 0.0, 0.0, 0.0, 0.0, 0.0, 1.6518364638956876E9, 0.0, 2022-05-06 12:27:43.895
86.0, -239.41904541337863, -160.21170425182208, -185.94969574688002, -186.36295469198376, 0.1600000075995922, 0.09600000455975533, 1.008000047877431, 0.0, 0.0, 0.0, 0.0, 0.0, 1.6518364638956876E9, 0.0, 2022-05-06 12:27:43.895
87.0, -278.90490914555266, -202.47257375111803, -222.87372800940648, -194.56081539485604, 0.1600000075995922, 0.09600000455975533, 1.008000047877431, 0.0, 0.0, 0.0, 0.0, 0.0, 1.6518364638966897E9, 0.0, 2022-05-06 12:27:43.896
87.0, -264.801746412646, -139.0887493020855, -174.15031138667837, -185.79822979867458, 0.1600000075995922, 0.09600000455975533, 1.008000047877431, 0.0, 0.0, 0.0, 0.0, 0.0, 1.6518364638966897E9, 0.0, 2022-05-06 12:27:43.896
88.0, -234.00741017749533, -98.40611758409068, -135.79389744112268, -176.90848760399967, 0.1600000075995922, 0.09600000455975533, 1.008000047877431, 0.0, 0.0, 0.0, 0.0, 0.0, 1.6518364639096603E9, 0.0, 2022-05-06 12:27:43.909
88.0, -239.38164641382173, -151.41171965608373, -180.55676001077518, -180.64838755968958, 0.1600000075995922, 0.09600000455975533, 1.008000047877431, 0.0, 0.0, 0.0, 0.0, 0.0, 1.6518364639096603E9, 0.0, 2022-05-06 12:27:43.909
89.0, -264.91020351136103, -205.73002661252394, -223.63666760036722, -199.4638242367655, 0.1600000075995922, 0.09600000455975533, 1.008000047877431, 0.0, 0.0, 0.0, 0.0, 0.0, 1.6518364639257357E9, 0.0, 2022-05-06 12:27:43.925
89.0, -261.0356671572663, -142.9408462564461, -166.25538258021697, -175.29659072309732, 0.1600000075995922, 0.09600000455975533, 1.008000047877431, 0.0, 0.0, 0.0, 0.0, 0.0, 1.6518364639257357E9, 0.0, 2022-05-06 12:27:43.925
90.0, -223.120561406482, -76.65485944179818, -117.32627145992592, -149.64461692702025, 0.1600000075995922, 0.09600000455975533, 1.008000047877431, 0.0, 0.0, 0.0, 0.0, 0.0, 1.6518364639266646E9, 0.0, 2022-05-06 12:27:43.926
90.0, -236.66273914603516, -149.88210057420656, -178.97104242956266, -170.18414748366922, 0.1600000075995922, 0.09600000455975533, 1.008000047877431, 0.0, 0.0, 0.0, 0.0, 0.0, 1.6518364639266646E9, 0.0, 2022-05-06 12:27:43.926
91.0, -285.44973406801, -219.59009584831074, -235.724024257157, -215.96800274122506, 0.1600000075995922, 0.11200000531971455, 1.008000047877431, 0.0, 0.0, 0.0, 0.0, 0.0, 1.651836463939726E9, 0.0, 2022-05-06 12:27:43.939
91.0, -273.545632509049, -163.7309501101263, -191.35385118285194, -205.25692926812917, 0.1600000075995922, 0.11200000531971455, 1.008000047877431, 0.0, 0.0, 0.0, 0.0, 0.0, 1.651836463939726E9, 0.0, 2022-05-06 12:27:43.939
92.0, -208.83414357574657, -68.87960743391886, -113.17872240906581, -147.42685625329614, 0.1600000075995922, 0.11200000531971455, 1.008000047877431, 0.0, 0.0, 0.0, 0.0, 0.0, 1.6518364639557483E9, 0.0, 2022-05-06 12:27:43.955
92.0, -237.95300463074818, -149.7512040757574, -175.82204666687176, -174.39153493382037, 0.1600000075995922, 0.11200000531971455, 1.008000047877431, 0.0, 0.0, 0.0, 0.0, 0.0, 1.6518364639557483E9, 0.0, 2022-05-06 12:27:43.955
93.0, -271.57470523240045, -213.5613771197386, -232.26835669809952, -209.1352055221796, 0.1600000075995922, 0.11200000531971455, 1.008000047877431, 0.0, 0.0, 0.0, 0.0, 0.0, 1.6518364639568117E9, 0.0, 2022-05-06 12:27:43.956
93.0, -266.75771408947185, -148.1243475950323, -173.52200819412246, -186.56490928959101, 0.1600000075995922, 0.11200000531971455, 1.008000047877431, 0.0, 0.0, 0.0, 0.0, 0.0, 1.6518364639568117E9, 0.0, 2022-05-06 12:27:43.956
94.0, -228.8313886388205, -78.03862242540345, -121.41772201145068, -152.16156959719956, 0.1600000075995922, 0.11200000531971455, 1.008000047877431, 0.0, 0.0, 0.0, 0.0, 0.0, 1.6518364639697025E9, 0.0, 2022-05-06 12:27:43.969
94.0, -219.99774494348094, -137.09538262570277, -168.98176964791492, -162.93622136954218, 0.1600000075995922, 0.11200000531971455, 1.008000047877431, 0.0, 0.0, 0.0, 0.0, 0.0, 1.6518364639697025E9, 0.0, 2022-05-06 12:27:43.969
95.0, -285.5320118670352, -216.03345099044964, -229.06326243607327, -212.94616357702762, 0.1600000075995922, 0.11200000531971455, 1.008000047877431, 0.0, 0.0, 0.0, 0.0, 0.0, 1.6518364639856985E9, 0.0, 2022-05-06 12:27:43.985
95.0, -272.8574909172021, -148.7526507875882, -173.660384492483, -190.8695341385901, 0.1600000075995922, 0.11200000531971455, 1.008000047877431, 0.0, 0.0, 0.0, 0.0, 0.0, 1.6518364639856985E9, 0.0, 2022-05-06 12:27:43.985
96.0, -215.5323043963872, -75.94801835017279, -120.56876472150907, -158.77371271885931, 0.1600000075995922, 0.11200000531971455, 1.008000047877431, 0.0, 0.0, 0.0, 0.0, 0.0, 1.6518364639866652E9, 0.0, 2022-05-06 12:27:43.986
96.0, -233.30430898582563, -150.274790069554, -174.2101497859694, -171.0779835730791, 0.1600000075995922, 0.11200000531971455, 1.008000047877431, 0.0, 0.0, 0.0, 0.0, 0.0, 1.6518364639866652E9, 0.0, 2022-05-06 12:27:43.986
97.0, -281.69487451249734, -220.70832593506202, -233.9101727786474, -208.25632903259248, 0.1600000075995922, 0.11200000531971455, 1.008000047877431, 0.0, 0.0, 0.0, 0.0, 0.0, 1.6518364639996583E9, 0.0, 2022-05-06 12:27:43.999
97.0, -263.02155403373763, -139.07378970226273, -165.0997534939088, -182.8287492338568, 0.1600000075995922, 0.11200000531971455, 1.008000047877431, 0.0, 0.0, 0.0, 0.0, 0.0, 1.6518364639996583E9, 0.0, 2022-05-06 12:27:43.999
98.0, -221.84899542154744, -83.14358586492017, -126.66854154923931, -163.42988816369325, 0.1600000075995922, 0.11200000531971455, 1.008000047877431, 0.0, 0.0, 0.0, 0.0, 0.0, 1.6518364640157328E9, 0.0, 2022-05-06 12:27:44.015
98.0, -236.34110774984583, -152.00262384908274, -174.53926098207012, -178.62884158361703, 0.1600000075995922, 0.11200000531971455, 1.008000047877431, 0.0, 0.0, 0.0, 0.0, 0.0, 1.6518364640157328E9, 0.0, 2022-05-06 12:27:44.015
99.0, -271.1109576378949, -203.94609433365986, -209.70180036546662, -170.01211208570749, 0.1600000075995922, 0.11200000531971455, 1.008000047877431, 0.0, 0.0, 0.0, 0.0, 0.0, 1.6518364640166984E9, 0.0, 2022-05-06 12:27:44.016
99.0, -230.60410121781752, -127.05749114463106, -152.33173504518345, -154.2559135723859, 0.1600000075995922, 0.11200000531971455, 1.008000047877431, 0.0, 0.0, 0.0, 0.0, 0.0, 1.6518364640166984E9, 0.0, 2022-05-06 12:27:44.016
100.0, -213.51275842031464, -69.35457472829148, -117.35993055952713, -158.6278566205874, 0.1600000075995922, 0.11200000531971455, 1.008000047877431, 0.0, 0.0, 0.0, 0.0, 0.0, 1.651836464030668E9, 0.0, 2022-05-06 12:27:44.030
100.0, -231.43435900798067, -138.72597900638357, -165.97489008354023, -177.13288160134107, 0.1600000075995922, 0.11200000531971455, 1.008000047877431, 0.0, 0.0, 0.0, 0.0, 0.0, 1.651836464030668E9, 0.0, 2022-05-06 12:27:44.030
0.0, -291.7514654933475, -215.03489770228043, -228.82203888893127, -208.44519398035482, 0.1600000075995922, 0.11200000531971455, 1.008000047877431, 0.0, 0.0, 0.0, 0.0, 0.0, 1.6518364640316253E9, 0.0, 2022-05-06 12:27:44.031
1.0, -278.261646353174, -150.3495880686678, -176.08944951370358, -196.41767572285607, 0.1600000075995922, 0.09600000455975533, 1.008000047877431, 0.0, 0.0, 0.0, 0.0, 0.0, 1.6518364640447028E9, 0.0, 2022-05-06 12:27:44.044
1.0, -228.44991884334013, -92.88228534953669, -133.26759502105415, -170.64976502815261, 0.1600000075995922, 0.09600000455975533, 1.008000047877431, 0.0, 0.0, 0.0, 0.0, 0.0, 1.6518364640447028E9, 0.0, 2022-05-06 12:27:44.044
2.0, -241.47599038900807, -167.34743336727843, -189.10056145954877, -190.11594429751858, 0.1600000075995922, 0.09600000455975533, 1.008000047877431, 0.0, 0.0, 0.0, 0.0, 0.0, 1.6518364640607147E9, 0.0, 2022-05-06 12:27:44.060
2.0, -279.8585836342536, -229.19041903456673, -235.1162905143574, -214.33179651061073, 0.1600000075995922, 0.09600000455975533, 1.008000047877431, 0.0, 0.0, 0.0, 0.0, 0.0, 1.6518364640607147E9, 0.0, 2022-05-06 12:27:44.060
3.0, -263.1711500319652, -149.55672927806154, -181.96109244413674, -190.56847219215706, 0.1600000075995922, 0.09600000455975533, 1.008000047877431, 0.0, 0.0, 0.0, 0.0, 0.0, 1.6518364640616171E9, 0.0, 2022-05-06 12:27:44.061
3.0, -221.62460142420605, -75.0541822607629, -123.69719103444368, -154.82624831562862, 0.1600000075995922, 0.09600000455975533, 1.008000047877431, 0.0, 0.0, 0.0, 0.0, 0.0, 1.6518364640616171E9, 0.0, 2022-05-06 12:27:44.061
4.0, -232.5338895949535, -145.18852612981573, -172.35702935792506, -171.67449761601165, 0.1600000075995922, 0.09600000455975533, 1.008000047877431, 0.0, 0.0, 0.0, 0.0, 0.0, 1.651836464074656E9, 0.0, 2022-05-06 12:27:44.074
4.0, -269.192388960626, -210.60685615474358, -220.78873378410935, -196.8926430172287, 0.1600000075995922, 0.09600000455975533, 1.008000047877431, 0.0, 0.0, 0.0, 0.0, 0.0, 1.651836464074656E9, 0.0, 2022-05-06 12:27:44.074
5.0, -263.48904152819887, -146.47879161452875, -168.39273540489376, -187.5129739283584, 0.1600000075995922, 0.09600000455975533, 1.008000047877431, 0.0, 0.0, 0.0, 0.0, 0.0, 1.651836464090656E9, 0.0, 2022-05-06 12:27:44.090
5.0, -218.4232470621355, -78.89505951525643, -126.24032300431281, -161.5019697365351, 0.1600000075995922, 0.09600000455975533, 1.008000047877431, 0.0, 0.0, 0.0, 0.0, 0.0, 1.651836464090656E9, 0.0, 2022-05-06 12:27:44.090
6.0, -233.85033437935635, -150.14389357110485, -179.27584427595139, -173.5481874938123, 0.1600000075995922, 0.09600000455975533, 1.008000047877431, 0.0, 0.0, 0.0, 0.0, 0.0, 1.6518364640916317E9, 0.0, 2022-05-06 12:27:44.091
6.0, -276.7769060707651, -213.23974572354928, -221.49931477569044, -199.94440138107166, 0.1600000075995922, 0.09600000455975533, 1.008000047877431, 0.0, 0.0, 0.0, 0.0, 0.0, 1.6518364640916317E9, 0.0, 2022-05-06 12:27:44.091
7.0, -269.61125775566325, -145.70837222365662, -177.6452478952706, -187.98794122273102, 0.1600000075995922, 0.09600000455975533, 1.008000047877431, 0.0, 0.0, 0.0, 0.0, 0.0, 1.6518364641217492E9, 0.0, 2022-05-06 12:27:44.121
7.0, -205.65148871345446, -65.35288177570328, -100.25923801213503, -132.8206769763492, 0.1600000075995922, 0.09600000455975533, 1.008000047877431, 0.0, 0.0, 0.0, 0.0, 0.0, 1.6518364641217492E9, 0.0, 2022-05-06 12:27:44.121
8.0, -231.58395500620827, -146.25439761718735, -171.90824136324227, -161.26635603932664, 0.1600000075995922, 0.09600000455975533, 1.008000047877431, 0.0, 0.0, 0.0, 0.0, 0.0, 1.6518364641226656E9, 0.0, 2022-05-06 12:27:44.122
8.0, -275.8942896812223, -215.50986499665305, -230.07864527404308, -209.18569417158142, 0.1600000075995922, 0.09600000455975533, 1.008000047877431, 0.0, 0.0, 0.0, 0.0, 0.0, 1.6518364641226656E9, 0.0, 2022-05-06 12:27:44.122
9.0, -258.0736663923599, -139.14110790146515, -163.49720636289567, -190.45627519348636, 0.1600000075995922, 0.09600000455975533, 1.008000047877431, 0.0, 0.0, 0.0, 0.0, 0.0, 1.651836464123608E9, 0.0, 2022-05-06 12:27:44.123
9.0, -223.92837979691103, -77.41405913280323, -116.96537111420184, -155.67146570561454, 0.1600000075995922, 0.09600000455975533, 1.008000047877431, 0.0, 0.0, 0.0, 0.0, 0.0, 1.651836464123608E9, 0.0, 2022-05-06 12:27:44.123
10.0, -228.7939896392636, -148.69655228825286, -174.72812592983246, -173.6229854929261, 0.1600000075995922, 0.09600000455975533, 1.008000047877431, 0.0, 0.0, 0.0, 0.0, 0.0, 1.6518364641347094E9, 0.0, 2022-05-06 12:27:44.134
10.0, -282.2595994058065, -215.35278919851407, -225.37759102974087, -209.5634240671061, 0.1600000075995922, 0.09600000455975533, 1.008000047877431, 0.0, 0.0, 0.0, 0.0, 0.0, 1.6518364641347094E9, 0.0, 2022-05-06 12:27:44.134
11.0, -258.5935124862008, -138.9316735039465, -160.64366269670427, -181.14766420377418, 0.1600000075995922, 0.11200000531971455, 1.008000047877431, 0.0, 0.0, 0.0, 0.0, 0.0, 1.6518364641506755E9, 0.0, 2022-05-06 12:27:44.150
11.0, -217.37233517458662, -72.18567899474874, -117.20846461132169, -148.1617465945892, 0.1600000075995922, 0.11200000531971455, 1.008000047877431, 0.0, 0.0, 0.0, 0.0, 0.0, 1.6518364641506755E9, 0.0, 2022-05-06 12:27:44.150
12.0, -227.69445905229077, -148.81622908683494, -171.2687184708193, -177.6620774450712, 0.1600000075995922, 0.11200000531971455, 1.008000047877431, 0.0, 0.0, 0.0, 0.0, 0.0, 1.651836464151626E9, 0.0, 2022-05-06 12:27:44.151
12.0, -269.5888183559291, -213.5277180201374, -222.70730246137828, -199.2973986887373, 0.1600000075995922, 0.11200000531971455, 1.008000047877431, 0.0, 0.0, 0.0, 0.0, 0.0, 1.651836464151626E9, 0.0, 2022-05-06 12:27:44.151
13.0, -259.6668637734838, -139.69835299486294, -161.45896088704467, -175.79586736718193, 0.1600000075995922, 0.11200000531971455, 1.008000047877431, 0.0, 0.0, 0.0, 0.0, 0.0, 1.6518364641647353E9, 0.0, 2022-05-06 12:27:44.164
13.0, -206.6014233021997, -70.80939581105486, -112.88514026254416, -145.65601362427697, 0.1600000075995922, 0.11200000531971455, 1.008000047877431, 0.0, 0.0, 0.0, 0.0, 0.0, 1.6518364641647353E9, 0.0, 2022-05-06 12:27:44.164
14.0, -236.58046134701, -154.19046532316133, -180.74562495853752, -182.6997226853855, 0.1600000075995922, 0.11200000531971455, 1.008000047877431, 0.0, 0.0, 0.0, 0.0, 0.0, 1.6518364641807272E9, 0.0, 2022-05-06 12:27:44.180
14.0, -283.91263518622145, -218.0455171666108, -228.08901849761605, -212.14021513657644, 0.1600000075995922, 0.11200000531971455, 1.008000047877431, 0.0, 0.0, 0.0, 0.0, 0.0, 1.6518364641807272E9, 0.0, 2022-05-06 12:27:44.180
15.0, -261.3722581532784, -142.41352036269382, -170.84610977582633, -184.4799150642939, 0.1600000075995922, 0.11200000531971455, 1.008000047877431, 0.0, 0.0, 0.0, 0.0, 0.0, 1.6518364641816237E9, 0.0, 2022-05-06 12:27:44.181
15.0, -214.16724091256037, -74.84474786324427, -116.0902345245704, -151.24716405803338, 0.1600000075995922, 0.11200000531971455, 1.008000047877431, 0.0, 0.0, 0.0, 0.0, 0.0, 1.6518364641816237E9, 0.0, 2022-05-06 12:27:44.181
16.0, -240.41011890163645, -157.73215058119968, -177.47695239726454, -171.75677541503683, 0.1600000075995922, 0.11200000531971455, 1.008000047877431, 0.0, 0.0, 0.0, 0.0, 0.0, 1.65183646419465E9, 0.0, 2022-05-06 12:27:44.194
16.0, -271.929995728191, -210.58067685505375, -217.72575572039932, -191.17807588493451, 0.1600000075995922, 0.11200000531971455, 1.008000047877431, 0.0, 0.0, 0.0, 0.0, 0.0, 1.65183646419465E9, 0.0, 2022-05-06 12:27:44.194
17.0, -241.70786418626085, -130.5954365027137, -159.61519020888954, -166.82758727343753, 0.1600000075995922, 0.11200000531971455, 1.008000047877431, 0.0, 0.0, 0.0, 0.0, 0.0, 1.6518364642106907E9, 0.0, 2022-05-06 12:27:44.210
17.0, -212.8994148275815, -74.81482866359875, -117.99384360201657, -158.89899936737493, 0.1600000075995922, 0.11200000531971455, 1.008000047877431, 0.0, 0.0, 0.0, 0.0, 0.0, 1.6518364642106907E9, 0.0, 2022-05-06 12:27:44.210
18.0, -247.15315852174535, -156.70741799334064, -172.5963829550892, -167.1005999702029, 0.1600000075995922, 0.11200000531971455, 1.008000047877431, 0.0, 0.0, 0.0, 0.0, 0.0, 1.6518364642116249E9, 0.0, 2022-05-06 12:27:44.211
18.0, -282.95522079756483, -213.72219281783327, -224.39399734139442, -205.25879921810701, 0.1600000075995922, 0.11200000531971455, 1.008000047877431, 0.0, 0.0, 0.0, 0.0, 0.0, 1.6518364642116249E9, 0.0, 2022-05-06 12:27:44.211
19.0, -268.57530546793714, -140.84276238130406, -175.8201767168939, -203.0410385443829, 0.1600000075995922, 0.11200000531971455, 1.008000047877431, 0.0, 0.0, 0.0, 0.0, 0.0, 1.6518364642247012E9, 0.0, 2022-05-06 12:27:44.224
19.0, -231.74103080434725, -84.44507104950026, -128.63385897595435, -161.37855303799734, 0.1600000075995922, 0.11200000531971455, 1.008000047877431, 0.0, 0.0, 0.0, 0.0, 0.0, 1.6518364642247012E9, 0.0, 2022-05-06 12:27:44.224
20.0, -240.15580570464954, -161.55432833591476, -188.21420517005026, -183.31306627811864, 0.1600000075995922, 0.11200000531971455, 1.008000047877431, 0.0, 0.0, 0.0, 0.0, 0.0, 1.6518364642407289E9, 0.0, 2022-05-06 12:27:44.240
20.0, -278.8263712464832, -217.76128476997837, -221.82094617187977, -210.61433595465496, 0.1600000075995922, 0.11200000531971455, 1.008000047877431, 0.0, 0.0, 0.0, 0.0, 0.0, 1.6518364642407289E9, 0.0, 2022-05-06 12:27:44.240
21.0, -262.3221927420236, -128.98727952176705, -162.06856457982212, -182.3668715893291, 0.1600000075995922, 0.11200000531971455, 1.008000047877431, 0.0, 0.0, 0.0, 0.0, 0.0, 1.65183646424168E9, 0.0, 2022-05-06 12:27:44.241
21.0, -221.9050939208828, -85.63435923540965, -126.19170430488884, -163.84688700875267, 0.1600000075995922, 0.11200000531971455, 1.008000047877431, 0.0, 0.0, 0.0, 0.0, 0.0, 1.65183646424168E9, 0.0, 2022-05-06 12:27:44.241
22.0, -246.70811042701825, -165.81033448548988, -188.69291236437857, -183.3280258779414, 0.1600000075995922, 0.11200000531971455, 1.008000047877431, 0.0, 0.0, 0.0, 0.0, 0.0, 1.6518364642547052E9, 0.0, 2022-05-06 12:27:44.254
22.0, -282.9664404974319, -220.73076533479616, -226.85859141219407, -204.54447832657024, 0.1600000075995922, 0.11200000531971455, 1.008000047877431, 0.0, 0.0, 0.0, 0.0, 0.0, 1.6518364642547052E9, 0.0, 2022-05-06 12:27:44.254
23.0, -269.23352786013857, -139.31314329942688, -175.80147721711546, -190.291719595436, 0.1600000075995922, 0.11200000531971455, 1.008000047877431, 0.0, 0.0, 0.0, 0.0, 0.0, 1.651836464270706E9, 0.0, 2022-05-06 12:27:44.270
23.0, -226.00776417227462, -82.68357817037031, -127.45953038986772, -162.70247762231156, 0.1600000075995922, 0.11200000531971455, 1.008000047877431, 0.0, 0.0, 0.0, 0.0, 0.0, 1.651836464270706E9, 0.0, 2022-05-06 12:27:44.270
24.0, -243.95554405963048, -156.92807209072635, -179.83308936934918, -176.8093802551739, 0.1600000075995922, 0.11200000531971455, 1.008000047877431, 0.0, 0.0, 0.0, 0.0, 0.0, 1.6518364642716029E9, 0.0, 2022-05-06 12:27:44.271
24.0, -295.1510345530696, -225.51035747816786, -238.7402535714209, -212.70120012992993, 0.1600000075995922, 0.11200000531971455, 1.008000047877431, 0.0, 0.0, 0.0, 0.0, 0.0, 1.6518364642716029E9, 0.0, 2022-05-06 12:27:44.271
25.0, -271.5934047321789, -150.6450401651673, -177.6751670949161, -201.3693032641895, 0.1600000075995922, 0.11200000531971455, 1.008000047877431, 0.0, 0.0, 0.0, 0.0, 0.0, 1.6518364642847104E9, 0.0, 2022-05-06 12:27:44.284
25.0, -218.03055756678805, -79.69913800572976, -118.08734110090882, -155.33861460955814, 0.1600000075995922, 0.11200000531971455, 1.008000047877431, 0.0, 0.0, 0.0, 0.0, 0.0, 1.6518364642847104E9, 0.0, 2022-05-06 12:27:44.284
26.0, -236.905832643155, -158.62972657056525, -181.62450144812465, -174.0231547881849, 0.1600000075995922, 0.11200000531971455, 1.008000047877431, 0.0, 0.0, 0.0, 0.0, 0.0, 1.6518364643007212E9, 0.0, 2022-05-06 12:27:44.300
26.0, -294.06272366596386, -227.8627545502968, -233.8522043293342, -208.9313809745945, 0.1600000075995922, 0.11200000531971455, 1.008000047877431, 0.0, 0.0, 0.0, 0.0, 0.0, 1.6518364643007212E9, 0.0, 2022-05-06 12:27:44.300
27.0, -273.485794109758, -147.21929180575535, -179.1636472772807, -196.40271612303331, 0.1600000075995922, 0.11200000531971455, 1.008000047877431, 0.0, 0.0, 0.0, 0.0, 0.0, 1.651836464301676E9, 0.0, 2022-05-06 12:27:44.301
27.0, -219.83692924538627, -77.84040772775188, -121.61780665908009, -150.4655249672942, 0.1600000075995922, 0.11200000531971455, 1.008000047877431, 0.0, 0.0, 0.0, 0.0, 0.0, 1.651836464301676E9, 0.0, 2022-05-06 12:27:44.301
28.0, -252.72560945572332, -163.30460151517764, -185.16992660611868, -178.1407846393995, 0.1600000075995922, 0.11200000531971455, 1.008000047877431, 0.0, 0.0, 0.0, 0.0, 0.0, 1.651836464331736E9, 0.0, 2022-05-06 12:27:44.331
28.0, -294.1263019652106, -224.78481688676402, -240.40076915174723, -219.02537095500156, 0.1600000075995922, 0.11200000531971455, 1.008000047877431, 0.0, 0.0, 0.0, 0.0, 0.0, 1.651836464331736E9, 0.0, 2022-05-06 12:27:44.331
29.0, -269.89923005225137, -136.20154653629288, -164.0768908560276, -181.22620210284367, 0.1600000075995922, 0.11200000531971455, 1.008000047877431, 0.0, 0.0, 0.0, 0.0, 0.0, 1.6518364643326547E9, 0.0, 2022-05-06 12:27:44.332
29.0, -221.74801812274382, -77.78056932846084, -121.71130415797234, -151.07886856002733, 0.1600000075995922, 0.11200000531971455, 1.008000047877431, 0.0, 0.0, 0.0, 0.0, 0.0, 1.6518364643326547E9, 0.0, 2022-05-06 12:27:44.332
30.0, -245.5076025412418, -163.77582890959457, -186.17595969419926, -189.20714860828593, 0.1600000075995922, 0.11200000531971455, 1.008000047877431, 0.0, 0.0, 0.0, 0.0, 0.0, 1.6518364643336725E9, 0.0, 2022-05-06 12:27:44.333
30.0, -290.4537202087231, -219.91172724450007, -230.71068836655468, -206.43312780419365, 0.1600000075995922, 0.11200000531971455, 1.008000047877431, 0.0, 0.0, 0.0, 0.0, 0.0, 1.6518364643336725E9, 0.0, 2022-05-06 12:27:44.333
31.0, -268.1115578734316, -140.1994995889254, -169.26039219461381, -186.98938793456182, 0.1600000075995922, 0.11200000531971455, 1.008000047877431, 0.0, 0.0, 0.0, 0.0, 0.0, 1.6518364643447087E9, 0.0, 2022-05-06 12:27:44.344
31.0, -218.23999196430668, -76.07517494866624, -121.14657926466316, -148.10564809525385, 0.1600000075995922, 0.11200000531971455, 1.008000047877431, 0.0, 0.0, 0.0, 0.0, 0.0, 1.6518364643447087E9, 0.0, 2022-05-06 12:27:44.344
32.0, -249.38213889533654, -167.4633702659048, -192.85168111510575, -182.89045758312568, 0.1600000075995922, 0.11200000531971455, 1.008000047877431, 0.0, 0.0, 0.0, 0.0, 0.0, 1.6518364643607235E9, 0.0, 2022-05-06 12:27:44.360
32.0, -292.0843165894039, -222.46607891423628, -228.5527660921216, -207.30826439382508, 0.1600000075995922, 0.11200000531971455, 1.008000047877431, 0.0, 0.0, 0.0, 0.0, 0.0, 1.6518364643607235E9, 0.0, 2022-05-06 12:27:44.360
33.0, -263.7657941249199, -132.58132337918505, -160.49406669847667, -166.25912248017266, 0.1600000075995922, 0.11200000531971455, 1.008000047877431, 0.0, 0.0, 0.0, 0.0, 0.0, 1.6518364643615997E9, 0.0, 2022-05-06 12:27:44.361
33.0, -223.35991500364617, -87.33227381529287, -123.34190053865314, -155.85472080344334, 0.1600000075995922, 0.11200000531971455, 1.008000047877431, 0.0, 0.0, 0.0, 0.0, 0.0, 1.6518364643615997E9, 0.0, 2022-05-06 12:27:44.361
34.0, -246.19200423313305, -158.0201228777878, -184.0554364193231, -184.79032676061615, 0.1600000075995922, 0.11200000531971455, 1.008000047877431, 0.0, 0.0, 0.0, 0.0, 0.0, 1.651836464374716E9, 0.0, 2022-05-06 12:27:44.374
34.0, -303.4311730549671, -227.48502465477213, -240.17637515440583, -220.81678303377703, 0.1600000075995922, 0.11200000531971455, 1.008000047877431, 0.0, 0.0, 0.0, 0.0, 0.0, 1.651836464374716E9, 0.0, 2022-05-06 12:27:44.374
35.0, -276.35803727572784, -145.4203999270685, -178.06411669030786, -195.90530942892656, 0.1600000075995922, 0.11200000531971455, 1.008000047877431, 0.0, 0.0, 0.0, 0.0, 0.0, 1.6518364643907113E9, 0.0, 2022-05-06 12:27:44.390
35.0, -221.51240442553535, -80.649072594475, -130.1709578577429, -160.63431294681504, 0.1600000075995922, 0.11200000531971455, 1.008000047877431, 0.0, 0.0, 0.0, 0.0, 0.0, 1.6518364643907113E9, 0.0, 2022-05-06 12:27:44.390
36.0, -267.93952247546986, -175.41813747165725, -194.9796841898933, -191.5932047800161, 0.1600000075995922, 0.11200000531971455, 1.008000047877431, 0.0, 0.0, 0.0, 0.0, 0.0, 1.6518364643916607E9, 0.0, 2022-05-06 12:27:44.391
36.0, -282.5887106019072, -210.12814896041527, -218.52609431091696, -194.02413975121453, 0.1600000075995922, 0.11200000531971455, 1.008000047877431, 0.0, 0.0, 0.0, 0.0, 0.0, 1.6518364643916607E9, 0.0, 2022-05-06 12:27:44.391
37.0, -282.86920309858397, -144.1263945423998, -185.69725249987096, -196.90760261705145, 0.1600000075995922, 0.11200000531971455, 1.008000047877431, 0.0, 0.0, 0.0, 0.0, 0.0, 1.6518364644047384E9, 0.0, 2022-05-06 12:27:44.404
37.0, -232.1262404997833, -83.82424765685573, -128.93305097240955, -156.29228909825906, 0.1600000075995922, 0.11200000531971455, 1.008000047877431, 0.0, 0.0, 0.0, 0.0, 0.0, 1.6518364644047384E9, 0.0, 2022-05-06 12:27:44.404
38.0, -249.4344974947162, -167.75508246244863, -187.33532868046314, -181.23742180271074, 0.1600000075995922, 0.11200000531971455, 1.008000047877431, 0.0, 0.0, 0.0, 0.0, 0.0, 1.6518364644207618E9, 0.0, 2022-05-06 12:27:44.420
38.0, -295.640961447265, -213.194866924081, -229.26334708370268, -212.24867223529145, 0.1600000075995922, 0.11200000531971455, 1.008000047877431, 0.0, 0.0, 0.0, 0.0, 0.0, 1.6518364644207618E9, 0.0, 2022-05-06 12:27:44.420
39.0, -269.4018233581446, -135.33014984661713, -175.75659841764718, -183.8067330722697, 0.1600000075995922, 0.11200000531971455, 1.008000047877431, 0.0, 0.0, 0.0, 0.0, 0.0, 1.6518364644217448E9, 0.0, 2022-05-06 12:27:44.421
39.0, -230.00945712486282, -84.40019225003198, -131.7342360392213, -164.650965499226, 0.1600000075995922, 0.11200000531971455, 1.008000047877431, 0.0, 0.0, 0.0, 0.0, 0.0, 1.6518364644217448E9, 0.0, 2022-05-06 12:27:44.421
40.0, -248.3536664075218, -161.59920713538304, -185.8992070974782, -170.96017672447488, 0.1600000075995922, 0.11200000531971455, 1.0240000486373901, 0.0, 0.0, 0.0, 0.0, 0.0, 1.6518364644347415E9, 0.0, 2022-05-06 12:27:44.434
40.0, -296.6357748354785, -227.2381912576966, -237.5958441849798, -208.58357027871534, 0.1600000075995922, 0.11200000531971455, 1.0240000486373901, 0.0, 0.0, 0.0, 0.0, 0.0, 1.6518364644347415E9, 0.0, 2022-05-06 12:27:44.434
41.0, -263.728395125363, -135.36754884617403, -161.97506708092988, -183.49258147599176, 0.1600000075995922, 0.11200000531971455, 1.0240000486373901, 0.0, 0.0, 0.0, 0.0, 0.0, 1.6518364644507003E9, 0.0, 2022-05-06 12:27:44.450
41.0, -212.5665637315251, -77.07746813679114, -123.84304713271558, -154.9795842138119, 0.1600000075995922, 0.11200000531971455, 1.0240000486373901, 0.0, 0.0, 0.0, 0.0, 0.0, 1.6518364644507003E9, 0.0, 2022-05-06 12:27:44.450
42.0, -261.0020080576651, -168.15525175770745, -188.74901086371392, -183.60851837461814, 0.1600000075995922, 0.11200000531971455, 1.0240000486373901, 0.0, 0.0, 0.0, 0.0, 0.0, 1.6518364644517307E9, 0.0, 2022-05-06 12:27:44.451
42.0, -291.58690989529714, -218.91317395633087, -229.43538248166442, -205.71506701270118, 0.1600000075995922, 0.11200000531971455, 1.0240000486373901, 0.0, 0.0, 0.0, 0.0, 0.0, 1.6518364644517307E9, 0.0, 2022-05-06 12:27:44.451
43.0, -271.4737279335968, -137.80222371732816, -172.54402435570955, -191.12197738559917, 0.1600000075995922, 0.11200000531971455, 1.0240000486373901, 0.0, 0.0, 0.0, 0.0, 0.0, 1.6518364644646647E9, 0.0, 2022-05-06 12:27:44.464
43.0, -226.22093846974894, -81.33721418632194, -132.6505115283653, -167.92711786041036, 0.1600000075995922, 0.11200000531971455, 1.0240000486373901, 0.0, 0.0, 0.0, 0.0, 0.0, 1.6518364644646647E9, 0.0, 2022-05-06 12:27:44.464
44.0, -253.1407383508049, -161.65904553467408, -190.51798354275525, -185.97587504656985, 0.1600000075995922, 0.11200000531971455, 1.0240000486373901, 0.0, 0.0, 0.0, 0.0, 0.0, 1.6518364644967303E9, 0.0, 2022-05-06 12:27:44.496
44.0, -279.21158094191924, -218.3110500634648, -225.48978802841157, -202.43143485160545, 0.1600000075995922, 0.11200000531971455, 1.0240000486373901, 0.0, 0.0, 0.0, 0.0, 0.0, 1.6518364644967303E9, 0.0, 2022-05-06 12:27:44.496
45.0, -253.39131164783612, -121.99740650458261, -156.91872234083712, -171.74181581521407, 0.1600000075995922, 0.11200000531971455, 1.0240000486373901, 0.0, 0.0, 0.0, 0.0, 0.0, 1.651836464497676E9, 0.0, 2022-05-06 12:27:44.497
45.0, -236.8759134435095, -87.02560201892629, -129.4641167661175, -167.37361266696826, 0.1600000075995922, 0.11200000531971455, 1.0240000486373901, 0.0, 0.0, 0.0, 0.0, 0.0, 1.651836464497676E9, 0.0, 2022-05-06 12:27:44.497
46.0, -248.49204270588234, -163.82818750897422, -187.31662918068469, -180.90831060661003, 0.1600000075995922, 0.11200000531971455, 1.0240000486373901, 0.0, 0.0, 0.0, 0.0, 0.0, 1.6518364644986365E9, 0.0, 2022-05-06 12:27:44.498
46.0, -291.8711422919296, -223.55438980134204, -228.57146559190005, -203.91991503397003, 0.1600000075995922, 0.11200000531971455, 1.0240000486373901, 0.0, 0.0, 0.0, 0.0, 0.0, 1.6518364644986365E9, 0.0, 2022-05-06 12:27:44.498
47.0, -261.3722581532784, -127.83165043545887, -160.7446399955079, -179.2477950262837, 0.1600000075995922, 0.11200000531971455, 1.0240000486373901, 0.0, 0.0, 0.0, 0.0, 0.0, 1.6518364644996784E9, 0.0, 2022-05-06 12:27:44.499
47.0, -217.26013817591593, -72.17445929488167, -112.77294326387346, -144.81453613424674, 0.1600000075995922, 0.11200000531971455, 1.0240000486373901, 0.0, 0.0, 0.0, 0.0, 0.0, 1.6518364644996784E9, 0.0, 2022-05-06 12:27:44.499
48.0, -243.82464756118134, -159.0972140650265, -178.80087698157877, -179.1804768270813, 0.1600000075995922, 0.11200000531971455, 1.0240000486373901, 0.0, 0.0, 0.0, 0.0, 0.0, 1.6518364645096402E9, 0.0, 2022-05-06 12:27:44.509
48.0, -291.407394697424, -224.8633547858335, -233.80358562991023, -205.3373371171765, 0.1600000075995922, 0.11200000531971455, 1.0240000486373901, 0.0, 0.0, 0.0, 0.0, 0.0, 1.6518364645096402E9, 0.0, 2022-05-06 12:27:44.509
49.0, -265.8563982001506, -139.29818369960412, -166.62002282589674, -173.68656379217282, 0.1600000075995922, 0.11200000531971455, 1.0240000486373901, 0.0, 0.0, 0.0, 0.0, 0.0, 1.6518364645246954E9, 0.0, 2022-05-06 12:27:44.524
49.0, -223.50951100187376, -81.71494408184662, -125.57088091224432, -142.32376276375726, 0.1600000075995922, 0.11200000531971455, 1.0240000486373901, 0.0, 0.0, 0.0, 0.0, 0.0, 1.6518364645246954E9, 0.0, 2022-05-06 12:27:44.524
50.0, -260.8037933600135, -172.9498035009019, -195.09936098847538, -193.97178115183488, 0.1600000075995922, 0.11200000531971455, 1.0240000486373901, 0.0, 0.0, 0.0, 0.0, 0.0, 1.6518364645406618E9, 0.0, 2022-05-06 12:27:44.540
50.0, -288.3855555332266, -218.9393532560207, -229.91782957594842, -211.61662914277986, 0.1600000075995922, 0.11200000531971455, 1.0240000486373901, 0.0, 0.0, 0.0, 0.0, 0.0, 1.6518364645406618E9, 0.0, 2022-05-06 12:27:44.540
51.0, -271.84023812925443, -140.50243148533627, -177.95191969163716, -194.49162724567577, 0.1600000075995922, 0.11200000531971455, 1.0240000486373901, 0.0, 0.0, 0.0, 0.0, 0.0, 1.651836464541612E9, 0.0, 2022-05-06 12:27:44.541
51.0, -229.04456293629482, -84.80410144524649, -127.021962095052, -160.17804515222088, 0.1600000075995922, 0.11200000531971455, 1.0240000486373901, 0.0, 0.0, 0.0, 0.0, 0.0, 1.651836464541612E9, 0.0, 2022-05-06 12:27:44.541
52.0, -252.3628391600214, -168.36842605518177, -195.88847987912595, -188.4404691173695, 0.1600000075995922, 0.11200000531971455, 1.0240000486373901, 0.0, 0.0, 0.0, 0.0, 0.0, 1.6518364645547552E9, 0.0, 2022-05-06 12:27:44.554
52.0, -287.330903745722, -212.74233902944252, -224.16960334405303, -197.9248554049991, 0.1600000075995922, 0.11200000531971455, 1.0240000486373901, 0.0, 0.0, 0.0, 0.0, 0.0, 1.6518364645547552E9, 0.0, 2022-05-06 12:27:44.554
53.0, -255.93070371774957, -125.46803366346285, -163.53086546249688, -175.94172346545383, 0.1600000075995922, 0.11200000531971455, 1.0240000486373901, 0.0, 0.0, 0.0, 0.0, 0.0, 1.6518364645706663E9, 0.0, 2022-05-06 12:27:44.570
53.0, -208.74064607685432, -73.2739898818545, -121.45699096098542, -145.73829142330214, 0.1600000075995922, 0.11200000531971455, 1.0240000486373901, 0.0, 0.0, 0.0, 0.0, 0.0, 1.6518364645706663E9, 0.0, 2022-05-06 12:27:44.570
54.0, -253.35391264827922, -172.20182350976393, -193.54356260690838, -188.56014591595158, 0.1600000075995922, 0.11200000531971455, 1.0240000486373901, 0.0, 0.0, 0.0, 0.0, 0.0, 1.651836464571788E9, 0.0, 2022-05-06 12:27:44.571
54.0, -311.77488985611126, -231.7933894037269, -241.4516810392961, -217.92958026798442, 0.1600000075995922, 0.11200000531971455, 1.0240000486373901, 0.0, 0.0, 0.0, 0.0, 0.0, 1.651836464571788E9, 0.0, 2022-05-06 12:27:44.571
55.0, -271.9673947277479, -133.62475546682253, -171.98677926231176, -194.2971524479799, 0.1600000075995922, 0.11200000531971455, 1.0240000486373901, 0.0, 0.0, 0.0, 0.0, 0.0, 1.651836464584643E9, 0.0, 2022-05-06 12:27:44.584
55.0, -218.32974956324324, -84.40393214998767, -131.27422834467143, -162.3509270264767, 0.1600000075995922, 0.11200000531971455, 1.0240000486373901, 0.0, 0.0, 0.0, 0.0, 0.0, 1.651836464584643E9, 0.0, 2022-05-06 12:27:44.584
56.0, -248.48456290597096, -167.63166576391086, -185.9814848965034, -178.44371653581038, 0.1600000075995922, 0.11200000531971455, 1.0240000486373901, 0.0, 0.0, 0.0, 0.0, 0.0, 1.6518364646007311E9, 0.0, 2022-05-06 12:27:44.600
56.0, -281.4854401149787, -211.32865684619173, -220.79995348397642, -190.68814899073914, 0.1600000075995922, 0.11200000531971455, 1.0240000486373901, 0.0, 0.0, 0.0, 0.0, 0.0, 1.6518364646007311E9, 0.0, 2022-05-06 12:27:44.600
57.0, -258.97498228168115, -135.70413984218612, -174.0437242379412, -195.02643293933943, 0.1600000075995922, 0.11200000531971455, 1.0240000486373901, 0.0, 0.0, 0.0, 0.0, 0.0, 1.651836464601667E9, 0.0, 2022-05-06 12:27:44.601
57.0, -231.1688261111267, -81.13899948867038, -128.01677548326552, -162.89321252005175, 0.1600000075995922, 0.11200000531971455, 1.0240000486373901, 0.0, 0.0, 0.0, 0.0, 0.0, 1.651836464601667E9, 0.0, 2022-05-06 12:27:44.601
58.0, -255.82224661903456, -167.3175141676329, -193.00875691324472, -179.27771422592923, 0.1600000075995922, 0.11200000531971455, 1.0240000486373901, 0.0, 0.0, 0.0, 0.0, 0.0, 1.651836464614706E9, 0.0, 2022-05-06 12:27:44.614
58.0, -286.5343050551601, -219.10764875402674, -229.24838748387992, -206.98289309768006, 0.1600000075995922, 0.11200000531971455, 1.0240000486373901, 0.0, 0.0, 0.0, 0.0, 0.0, 1.651836464614706E9, 0.0, 2022-05-06 12:27:44.614
59.0, -256.9105575061403, -125.30721796536818, -157.3675103355199, -175.14886467484757, 0.1600000075995922, 0.11200000531971455, 1.0240000486373901, 0.0, 0.0, 0.0, 0.0, 0.0, 1.6518364646306624E9, 0.0, 2022-05-06 12:27:44.630
59.0, -222.55209661321715, -81.53168898401782, -117.91530570294708, -148.18418599432334, 0.1600000075995922, 0.11200000531971455, 1.0240000486373901, 0.0, 0.0, 0.0, 0.0, 0.0, 1.6518364646306624E9, 0.0, 2022-05-06 12:27:44.630
60.0, -253.0285413521342, -165.3578065908514, -188.1618465706706, -178.71298933262005, 0.1600000075995922, 0.11200000531971455, 1.0240000486373901, 0.0, 0.0, 0.0, 0.0, 0.0, 1.6518364646316652E9, 0.0, 2022-05-06 12:27:44.631
60.0, -284.9411076740362, -221.6769600235857, -230.34043827094138, -207.05769109679386, 0.1600000075995922, 0.11200000531971455, 1.0240000486373901, 0.0, 0.0, 0.0, 0.0, 0.0, 1.6518364646316652E9, 0.0, 2022-05-06 12:27:44.631
61.0, -254.81247363099828, -126.46284705167636, -159.93682160507888, -183.46640217630193, 0.1600000075995922, 0.11200000531971455, 1.0240000486373901, 0.0, 0.0, 0.0, 0.0, 0.0, 1.6518364646447093E9, 0.0, 2022-05-06 12:27:44.644
61.0, -228.0908884475939, -84.99109644303098, -131.59585974086076, -174.55422058189288, 0.1600000075995922, 0.11200000531971455, 1.0240000486373901, 0.0, 0.0, 0.0, 0.0, 0.0, 1.6518364646447093E9, 0.0, 2022-05-06 12:27:44.644
62.0, -254.33750633662567, -173.3985914955847, -193.4201459083706, -196.02498622750863, 0.1600000075995922, 0.11200000531971455, 1.0240000486373901, 0.0, 0.0, 0.0, 0.0, 0.0, 1.6518364646606526E9, 0.0, 2022-05-06 12:27:44.660
62.0, -289.94509381474927, -227.99365104874596, -237.99601348023862, -222.14818741800264, 0.1600000075995922, 0.11200000531971455, 1.0240000486373901, 0.0, 0.0, 0.0, 0.0, 0.0, 1.6518364646606526E9, 0.0, 2022-05-06 12:27:44.660
63.0, -251.3942050714977, -118.09669085079804, -152.57669849228114, -177.9949285411276, 0.1600000075995922, 0.11200000531971455, 1.0240000486373901, 0.0, 0.0, 0.0, 0.0, 0.0, 1.6518364646756742E9, 0.0, 2022-05-06 12:27:44.675
63.0, -217.5630700723268, -77.87406682735309, -122.64253924693912, -150.8694341625087, 0.1600000075995922, 0.11200000531971455, 1.0240000486373901, 0.0, 0.0, 0.0, 0.0, 0.0, 1.6518364646756742E9, 0.0, 2022-05-06 12:27:44.675
64.0, -253.81392034282908, -172.78898780280724, -196.10913397651166, -191.18929558480158, 0.1600000075995922, 0.11200000531971455, 1.0240000486373901, 0.0, 0.0, 0.0, 0.0, 0.0, 1.6518364646766107E9, 0.0, 2022-05-06 12:27:44.676
64.0, -297.2416386283003, -223.69276609970257, -237.06103849131614, -217.35363567480817, 0.1600000075995922, 0.11200000531971455, 1.0240000486373901, 0.0, 0.0, 0.0, 0.0, 0.0, 1.6518364646766107E9, 0.0, 2022-05-06 12:27:44.676
65.0, -249.33352019591257, -121.60097710927948, -156.98604054003954, -178.4025776362978, 0.1600000075995922, 0.11200000531971455, 1.0240000486373901, 0.0, 0.0, 0.0, 0.0, 0.0, 1.6518364646906652E9, 0.0, 2022-05-06 12:27:44.690
65.0, -219.59009584831074, -77.36544043337926, -126.70407059881836, -156.1688723997213, 0.1600000075995922, 0.11200000531971455, 1.0240000486373901, 0.0, 0.0, 0.0, 0.0, 0.0, 1.6518364646906652E9, 0.0, 2022-05-06 12:27:44.690
66.0, -254.1804305384867, -176.2147361622192, -196.56914167106152, -183.45892237639055, 0.1600000075995922, 0.11200000531971455, 1.0240000486373901, 0.0, 0.0, 0.0, 0.0, 0.0, 1.6518364646916003E9, 0.0, 2022-05-06 12:27:44.691
