%OpenBCI Raw EEG Data
%Number of channels = 4
%Sample Rate = 200 Hz
%Board = OpenBCI_GUI$BoardGanglionBLE
Sample Index, EXG Channel 0, EXG Channel 1, EXG Channel 2, EXG Channel 3, Accel Channel 0, Accel Channel 1, Accel Channel 2, Other, Other, Other, Other, Other, Timestamp, Other, Timestamp (Formatted)
0.0, -236.98250059224665, -92.19040385773405, -125.73356656031683, -164.63974579935893, 0.0, 0.0, 0.0, 0.0, 0.0, 0.0, 0.0, 0.0, 1.6518361206163452E9, 0.0, 2022-05-06 12:22:00.616
1.0, -205.49254296533763, -60.9734589275904, -104.73028840916231, -149.8634010744281, 0.0, 0.11200000531971455, 0.0, 0.0, 0.0, 0.0, 0.0, 0.0, 1.6518361206283467E9, 0.0, 2022-05-06 12:22:00.628
1.0, -235.108810714446, -158.2781759747304, -176.68596355663612, -169.583893540781, 0.0, 0.11200000531971455, 0.0, 0.0, 0.0, 0.0, 0.0, 0.0, 1.6518361206283467E9, 0.0, 2022-05-06 12:22:00.628
2.0, -275.4585913363844, -210.191727259662, -212.52168493205681, -188.46664841705933, 0.1600000075995922, 0.11200000531971455, 0.0, 0.0, 0.0, 0.0, 0.0, 0.0, 1.651836120661382E9, 0.0, 2022-05-06 12:22:00.661
2.0, -246.73989957664162, -110.15314334491268, -141.6431009718217, -166.6929508750327, 0.1600000075995922, 0.11200000531971455, 0.0, 0.0, 0.0, 0.0, 0.0, 0.0, 1.651836120661382E9, 0.0, 2022-05-06 12:22:00.661
3.0, -191.4940974311903, -36.211581320967525, -87.42203141422942, -133.1198689728044, 0.1600000075995922, 0.11200000531971455, 0.0, 0.0, 0.0, 0.0, 0.0, 0.0, 1.6518361206623523E9, 0.0, 2022-05-06 12:22:00.662
3.0, -228.02544019836932, -155.33861460955814, -176.45408975938335, -173.38737179571763, 0.1600000075995922, 0.11200000531971455, 0.0, 0.0, 0.0, 0.0, 0.0, 0.0, 1.6518361206623523E9, 0.0, 2022-05-06 12:22:00.662
4.0, -272.8743204670027, -206.83703699940816, -207.98892618576065, -187.95428212312981, 0.1600000075995922, 0.11200000531971455, 0.0, 0.0, 0.0, 0.0, 0.0, 0.0, 1.6518361206633365E9, 0.0, 2022-05-06 12:22:00.663
4.0, -236.34297769982368, -96.96999600110576, -119.34955733595416, -133.48263926850632, 0.1600000075995922, 0.11200000531971455, 0.0, 0.0, 0.0, 0.0, 0.0, 0.0, 1.6518361206633365E9, 0.0, 2022-05-06 12:22:00.663
5.0, -198.42039214912802, -43.078037639614195, -94.52784133004025, -139.14858770137653, 0.1600000075995922, 0.11200000531971455, 0.0, 0.0, 0.0, 0.0, 0.0, 0.0, 1.6518361206743753E9, 0.0, 2022-05-06 12:22:00.674
5.0, -237.90251598134637, -155.4956904076971, -178.94486312987283, -175.2461020736955, 0.1600000075995922, 0.11200000531971455, 0.0, 0.0, 0.0, 0.0, 0.0, 0.0, 1.6518361206743753E9, 0.0, 2022-05-06 12:22:00.674
6.0, -297.49408187530935, -225.0914886831306, -234.2729430743493, -217.7837241697125, 0.1600000075995922, 0.11200000531971455, 0.0, 0.0, 0.0, 0.0, 0.0, 0.0, 1.65183612067533E9, 0.0, 2022-05-06 12:22:00.675
6.0, -263.73026507534087, -126.69846074888483, -156.01179660158232, -191.26409358391538, 0.1600000075995922, 0.11200000531971455, 0.0, 0.0, 0.0, 0.0, 0.0, 0.0, 1.65183612067533E9, 0.0, 2022-05-06 12:22:00.675
7.0, -196.0904344767332, -63.03414380317554, -104.55451311124489, -153.30036913370714, 0.1600000075995922, 0.11200000531971455, 0.0, 0.0, 0.0, 0.0, 0.0, 0.0, 1.6518361207224026E9, 0.0, 2022-05-06 12:22:00.722
7.0, -246.7810384761542, -179.1056788279675, -197.37883001146838, -187.97672152286395, 0.1600000075995922, 0.11200000531971455, 0.0, 0.0, 0.0, 0.0, 0.0, 0.0, 1.6518361207224026E9, 0.0, 2022-05-06 12:22:00.722
8.0, -295.0369676044211, -227.26811045734212, -235.19295846344903, -206.79589809989557, 0.1600000075995922, 0.11200000531971455, 0.0, 0.0, 0.0, 0.0, 0.0, 0.0, 1.6518361207233407E9, 0.0, 2022-05-06 12:22:00.723
8.0, -238.05959177948534, -111.45088862953708, -138.14255461329594, -164.54998820042238, 0.1600000075995922, 0.11200000531971455, 0.0, 0.0, 0.0, 0.0, 0.0, 0.0, 1.6518361207233407E9, 0.0, 2022-05-06 12:22:00.723
9.0, -192.8329816153273, -41.840130754280835, -81.65510568255559, -111.49576742900535, 0.1600000075995922, 0.11200000531971455, 0.0, 0.0, 0.0, 0.0, 0.0, 0.0, 1.651836120724392E9, 0.0, 2022-05-06 12:22:00.724
9.0, -220.02205429319292, -147.91117329755798, -164.71828369842842, -161.39725253777578, 0.1600000075995922, 0.11200000531971455, 0.0, 0.0, 0.0, 0.0, 0.0, 0.0, 1.651836120724392E9, 0.0, 2022-05-06 12:22:00.724
10.0, -260.6074486123398, -199.17024209024385, -203.83763723494485, -173.5481874938123, 0.1600000075995922, 0.11200000531971455, 1.008000047877431, 0.0, 0.0, 0.0, 0.0, 0.0, 1.6518361207253315E9, 0.0, 2022-05-06 12:22:00.725
10.0, -237.65194268431515, -96.0275412122719, -130.02323180949315, -169.49787584180012, 0.1600000075995922, 0.11200000531971455, 1.008000047877431, 0.0, 0.0, 0.0, 0.0, 0.0, 1.6518361207253315E9, 0.0, 2022-05-06 12:22:00.725
11.0, -200.6493725227192, -40.86775676580146, -85.03971514245495, -130.72259310120717, 0.1600000075995922, 0.06400000303983688, 1.008000047877431, 0.0, 0.0, 0.0, 0.0, 0.0, 1.6518361207503848E9, 0.0, 2022-05-06 12:22:00.750
11.0, -234.67872221954167, -147.74661769950762, -174.22136948583648, -162.34344722656533, 0.1600000075995922, 0.06400000303983688, 1.008000047877431, 0.0, 0.0, 0.0, 0.0, 0.0, 1.6518361207503848E9, 0.0, 2022-05-06 12:22:00.750
12.0, -277.2462635152042, -203.13453604327515, -219.16748715331778, -214.9002613038756, 0.06400000303983688, 0.06400000303983688, 1.008000047877431, 0.0, 0.0, 0.0, 0.0, 0.0, 1.651836120781396E9, 0.0, 2022-05-06 12:22:00.781
12.0, -255.43142707366496, -115.34412448341027, -147.8662944980897, -182.9615156822838, 0.06400000303983688, 0.06400000303983688, 1.008000047877431, 0.0, 0.0, 0.0, 0.0, 0.0, 1.651836120781396E9, 0.0, 2022-05-06 12:22:00.781
13.0, -220.8448322834447, -84.14587905304506, -118.19018834969029, -162.26116942754015, 0.06400000303983688, 0.06400000303983688, 1.008000047877431, 0.0, 0.0, 0.0, 0.0, 0.0, 1.6518361207823696E9, 0.0, 2022-05-06 12:22:00.782
13.0, -240.87199654616416, -157.5750747830607, -184.15828366810456, -175.05162727599964, 0.06400000303983688, 0.06400000303983688, 1.008000047877431, 0.0, 0.0, 0.0, 0.0, 0.0, 1.6518361207823696E9, 0.0, 2022-05-06 12:22:00.782
14.0, -259.0142512312159, -182.20979579119012, -200.94669456919655, -176.76076155574992, 0.06400000303983688, 0.06400000303983688, 1.008000047877431, 0.0, 0.0, 0.0, 0.0, 0.0, 1.6518361207944567E9, 0.0, 2022-05-06 12:22:00.794
14.0, -230.02254677470773, -96.1359983109869, -124.29370507737622, -157.06270848913118, 0.06400000303983688, 0.06400000303983688, 1.008000047877431, 0.0, 0.0, 0.0, 0.0, 0.0, 1.6518361207944567E9, 0.0, 2022-05-06 12:22:00.794
15.0, -188.5021774666384, -53.99106571031734, -88.85815299721435, -121.09609061526135, 0.06400000303983688, 0.06400000303983688, 1.008000047877431, 0.0, 0.0, 0.0, 0.0, 0.0, 1.6518361208094428E9, 0.0, 2022-05-06 12:22:00.809
15.0, -244.65303540136665, -157.19734488753602, -183.60103857470676, -174.625278681051, 0.06400000303983688, 0.06400000303983688, 1.008000047877431, 0.0, 0.0, 0.0, 0.0, 0.0, 1.6518361208094428E9, 0.0, 2022-05-06 12:22:00.809
16.0, -271.8795070787892, -198.82617129432037, -215.3827083981596, -196.5186530216597, 0.06400000303983688, 0.06400000303983688, 1.008000047877431, 0.0, 0.0, 0.0, 0.0, 0.0, 1.6518361208103719E9, 0.0, 2022-05-06 12:22:00.810
16.0, -236.98624049220234, -101.58129264647141, -129.57818371476606, -160.06958805350587, 0.06400000303983688, 0.06400000303983688, 1.008000047877431, 0.0, 0.0, 0.0, 0.0, 0.0, 1.6518361208103719E9, 0.0, 2022-05-06 12:22:00.810
17.0, -210.30953410826623, -72.30535579333082, -106.74983438523486, -141.22049227682874, 0.06400000303983688, 0.06400000303983688, 1.008000047877431, 0.0, 0.0, 0.0, 0.0, 0.0, 1.6518361208264556E9, 0.0, 2022-05-06 12:22:00.826
17.0, -227.05680610984564, -147.88125409791246, -166.53213517693803, -153.93615212617442, 0.06400000303983688, 0.06400000303983688, 1.008000047877431, 0.0, 0.0, 0.0, 0.0, 0.0, 1.6518361208264556E9, 0.0, 2022-05-06 12:22:00.826
18.0, -239.69766796007752, -164.3592533026822, -183.09989198064432, -167.22401666874066, 0.06400000303983688, 0.06400000303983688, 1.008000047877431, 0.0, 0.0, 0.0, 0.0, 0.0, 1.6518361208273375E9, 0.0, 2022-05-06 12:22:00.827
18.0, -217.60607892181724, -95.46655621891841, -125.84950345894322, -152.9076796383597, 0.06400000303983688, 0.06400000303983688, 1.008000047877431, 0.0, 0.0, 0.0, 0.0, 0.0, 1.6518361208273375E9, 0.0, 2022-05-06 12:22:00.827
19.0, -222.5464867632836, -77.67211222974584, -113.31709870742634, -150.0129970726557, 0.06400000303983688, 0.06400000303983688, 1.008000047877431, 0.0, 0.0, 0.0, 0.0, 0.0, 1.6518361208283749E9, 0.0, 2022-05-06 12:22:00.828
19.0, -240.27361255325377, -147.07717560743913, -173.92965728929266, -164.9538973956369, 0.06400000303983688, 0.06400000303983688, 1.008000047877431, 0.0, 0.0, 0.0, 0.0, 0.0, 1.6518361208283749E9, 0.0, 2022-05-06 12:22:00.828
20.0, -269.88614040240645, -196.21572112524882, -216.55329708429053, -200.9990531685762, 0.06400000303983688, 0.06400000303983688, 0.5120000243186951, 0.0, 0.0, 0.0, 0.0, 0.0, 1.6518361208293347E9, 0.0, 2022-05-06 12:22:00.829
20.0, -246.03679838497192, -113.70978820277378, -144.750957835, -181.7684875964187, 0.06400000303983688, 0.06400000303983688, 0.5120000243186951, 0.0, 0.0, 0.0, 0.0, 0.0, 1.6518361208293347E9, 0.0, 2022-05-06 12:22:00.829
21.0, -222.12387806829065, -76.87925343913957, -112.34098481899127, -156.48676389595494, 0.06400000303983688, 0.0800000037997961, 0.5120000243186951, 0.0, 0.0, 0.0, 0.0, 0.0, 1.651836120855398E9, 0.0, 2022-05-06 12:22:00.855
21.0, -225.59450522717088, -151.59497475391254, -174.4382836832665, -164.0264022066258, 0.06400000303983688, 0.0800000037997961, 0.5120000243186951, 0.0, 0.0, 0.0, 0.0, 0.0, 1.651836120855398E9, 0.0, 2022-05-06 12:22:00.855
22.0, -260.5214309133589, -190.69562879065052, -206.0404383088462, -196.9225622168742, 0.11200000531971455, 0.0800000037997961, 0.5120000243186951, 0.0, 0.0, 0.0, 0.0, 0.0, 1.6518361208563626E9, 0.0, 2022-05-06 12:22:00.856
22.0, -236.38411659933627, -100.78095405595377, -124.742493072059, -151.17610595887527, 0.11200000531971455, 0.0800000037997961, 0.5120000243186951, 0.0, 0.0, 0.0, 0.0, 0.0, 1.6518361208563626E9, 0.0, 2022-05-06 12:22:00.856
23.0, -200.89994581975043, -71.05622920813039, -104.64427071018144, -145.92528642108664, 0.11200000531971455, 0.0800000037997961, 0.5120000243186951, 0.0, 0.0, 0.0, 0.0, 0.0, 1.651836120857334E9, 0.0, 2022-05-06 12:22:00.857
23.0, -237.4499880867079, -153.48362423153594, -171.19579042168334, -168.92193124862388, 0.11200000531971455, 0.0800000037997961, 0.5120000243186951, 0.0, 0.0, 0.0, 0.0, 0.0, 1.651836120857334E9, 0.0, 2022-05-06 12:22:00.857
24.0, -257.3761750506237, -175.61261226935312, -192.93956876406446, -169.98032293608412, 0.11200000531971455, 0.0800000037997961, 0.5120000243186951, 0.0, 0.0, 0.0, 0.0, 0.0, 1.6518361208583553E9, 0.0, 2022-05-06 12:22:00.858
24.0, -236.3728968994692, -102.34797213738784, -126.60122335003689, -144.8631548336707, 0.11200000531971455, 0.0800000037997961, 0.5120000243186951, 0.0, 0.0, 0.0, 0.0, 0.0, 1.6518361208583553E9, 0.0, 2022-05-06 12:22:00.858
25.0, -198.8766599437222, -58.93895335169509, -88.97034999588504, -119.90680242935196, 0.11200000531971455, 0.0800000037997961, 0.5120000243186951, 0.0, 0.0, 0.0, 0.0, 0.0, 1.651836120868404E9, 0.0, 2022-05-06 12:22:00.868
25.0, -231.7765598539263, -137.4581529214047, -167.2838550680317, -175.79586736718193, 0.11200000531971455, 0.0800000037997961, 0.5120000243186951, 0.0, 0.0, 0.0, 0.0, 0.0, 1.651836120868404E9, 0.0, 2022-05-06 12:22:00.868
26.0, -269.2690569097176, -191.65304317930713, -206.72484000073746, -192.02703317487612, 0.11200000531971455, 0.0800000037997961, 0.5120000243186951, 0.0, 0.0, 0.0, 0.0, 0.0, 1.6518361208844018E9, 0.0, 2022-05-06 12:22:00.884
26.0, -247.40186186879873, -121.49999981047586, -140.1994995889254, -164.49762960104272, 0.11200000531971455, 0.0800000037997961, 0.5120000243186951, 0.0, 0.0, 0.0, 0.0, 0.0, 1.6518361208844018E9, 0.0, 2022-05-06 12:22:00.884
27.0, -221.1103651802987, -79.99085020227358, -113.02538651088253, -154.30640222178772, 0.11200000531971455, 0.0800000037997961, 0.5120000243186951, 0.0, 0.0, 0.0, 0.0, 0.0, 1.651836120915418E9, 0.0, 2022-05-06 12:22:00.915
27.0, -248.54253135528415, -161.0195226422511, -185.3999304533936, -183.67209667386487, 0.11200000531971455, 0.0800000037997961, 0.5120000243186951, 0.0, 0.0, 0.0, 0.0, 0.0, 1.651836120915418E9, 0.0, 2022-05-06 12:22:00.915
28.0, -264.77369716297835, -201.61239676130936, -218.21381266461685, -199.43577498709783, 0.11200000531971455, 0.0800000037997961, 0.5120000243186951, 0.0, 0.0, 0.0, 0.0, 0.0, 1.6518361209164045E9, 0.0, 2022-05-06 12:22:00.916
28.0, -255.16963407676667, -125.32591746514663, -147.2342514055781, -170.94521712465212, 0.11200000531971455, 0.0800000037997961, 0.5120000243186951, 0.0, 0.0, 0.0, 0.0, 0.0, 1.6518361209164045E9, 0.0, 2022-05-06 12:22:00.916
29.0, -217.85291231889278, -75.51045005535707, -110.17558274464682, -149.2799766813405, 0.11200000531971455, 0.0800000037997961, 0.5120000243186951, 0.0, 0.0, 0.0, 0.0, 0.0, 1.6518361209173453E9, 0.0, 2022-05-06 12:22:00.917
29.0, -238.17552867811173, -151.17236605891958, -174.22136948583648, -176.1436780630611, 0.11200000531971455, 0.0800000037997961, 0.5120000243186951, 0.0, 0.0, 0.0, 0.0, 0.0, 1.6518361209173453E9, 0.0, 2022-05-06 12:22:00.917
30.0, -260.4503728142008, -182.22849529096857, -199.2599996891804, -188.19737562024966, 0.11200000531971455, 0.0800000037997961, 0.7680000364780426, 0.0, 0.0, 0.0, 0.0, 0.0, 1.6518361209454176E9, 0.0, 2022-05-06 12:22:00.945
30.0, -256.1120888656005, -126.22349345451221, -151.3818004564382, -172.3925584075041, 0.11200000531971455, 0.0800000037997961, 0.7680000364780426, 0.0, 0.0, 0.0, 0.0, 0.0, 1.6518361209454176E9, 0.0, 2022-05-06 12:22:00.945
31.0, -213.88861836586148, -81.2063176878728, -109.94370894739404, -147.9036934976466, 0.11200000531971455, 0.11200000531971455, 0.7680000364780426, 0.0, 0.0, 0.0, 0.0, 0.0, 1.6518361209463646E9, 0.0, 2022-05-06 12:22:00.946
31.0, -242.49137322697788, -155.69390510534868, -182.26589429052547, -179.27397432597354, 0.11200000531971455, 0.11200000531971455, 0.7680000364780426, 0.0, 0.0, 0.0, 0.0, 0.0, 1.6518361209463646E9, 0.0, 2022-05-06 12:22:00.946
32.0, -269.2316579101607, -192.00459377514198, -215.94369339151308, -194.27845294820145, 0.12800000607967377, 0.11200000531971455, 0.7680000364780426, 0.0, 0.0, 0.0, 0.0, 0.0, 1.6518361209473677E9, 0.0, 2022-05-06 12:22:00.947
32.0, -254.62734858319163, -123.078237591777, -147.55214290181175, -172.429957407061, 0.12800000607967377, 0.11200000531971455, 0.7680000364780426, 0.0, 0.0, 0.0, 0.0, 0.0, 1.6518361209473677E9, 0.0, 2022-05-06 12:22:00.947
33.0, -213.92227746546268, -74.1640860713087, -107.56139267561957, -146.81538261054084, 0.12800000607967377, 0.11200000531971455, 0.7680000364780426, 0.0, 0.0, 0.0, 0.0, 0.0, 1.6518361209483395E9, 0.0, 2022-05-06 12:22:00.948
33.0, -240.88321624603122, -160.1331663527526, -179.19543642690405, -171.82409361423925, 0.12800000607967377, 0.11200000531971455, 0.7680000364780426, 0.0, 0.0, 0.0, 0.0, 0.0, 1.6518361209483395E9, 0.0, 2022-05-06 12:22:00.948
34.0, -268.99230431299657, -190.1795225967653, -211.13044214854017, -193.6651093554683, 0.12800000607967377, 0.11200000531971455, 0.7680000364780426, 0.0, 0.0, 0.0, 0.0, 0.0, 1.6518361209754117E9, 0.0, 2022-05-06 12:22:00.975
34.0, -245.53939169086516, -107.83066547242925, -129.36874931724742, -148.128087494988, 0.12800000607967377, 0.11200000531971455, 0.7680000364780426, 0.0, 0.0, 0.0, 0.0, 0.0, 1.6518361209754117E9, 0.0, 2022-05-06 12:22:00.975
35.0, -213.3986914716661, -71.13102720724419, -97.99472858896479, -135.9360136394389, 0.12800000607967377, 0.11200000531971455, 0.7680000364780426, 0.0, 0.0, 0.0, 0.0, 0.0, 1.65183612097635E9, 0.0, 2022-05-06 12:22:00.976
35.0, -237.737960383296, -157.728410681244, -182.68476308556274, -185.6617234502919, 0.12800000607967377, 0.11200000531971455, 0.7680000364780426, 0.0, 0.0, 0.0, 0.0, 0.0, 1.65183612097635E9, 0.0, 2022-05-06 12:22:00.976
36.0, -261.4152670027688, -184.9960212581791, -205.99181960942224, -192.12427057372406, 0.12800000607967377, 0.11200000531971455, 0.7680000364780426, 0.0, 0.0, 0.0, 0.0, 0.0, 1.6518361209773445E9, 0.0, 2022-05-06 12:22:00.977
36.0, -253.96164639107883, -118.57539804512635, -138.06775661418214, -166.85002667317167, 0.12800000607967377, 0.11200000531971455, 0.7680000364780426, 0.0, 0.0, 0.0, 0.0, 0.0, 1.6518361209773445E9, 0.0, 2022-05-06 12:22:00.977
37.0, -229.09879148565233, -85.89989213226363, -117.4796073581092, -155.5742283067666, 0.12800000607967377, 0.11200000531971455, 0.7680000364780426, 0.0, 0.0, 0.0, 0.0, 0.0, 1.6518361209883866E9, 0.0, 2022-05-06 12:22:00.988
37.0, -231.91867605224252, -133.94264696305618, -166.33392047928646, -169.34827984357253, 0.12800000607967377, 0.11200000531971455, 0.7680000364780426, 0.0, 0.0, 0.0, 0.0, 0.0, 1.6518361209883866E9, 0.0, 2022-05-06 12:22:00.988
38.0, -261.5723428009078, -185.8823775476776, -206.50792580330744, -187.071665733587, 0.12800000607967377, 0.11200000531971455, 0.7680000364780426, 0.0, 0.0, 0.0, 0.0, 0.0, 1.6518361210044007E9, 0.0, 2022-05-06 12:22:01.004
38.0, -245.8236240874976, -108.85539806028828, -132.25969198299572, -154.56819521868601, 0.12800000607967377, 0.11200000531971455, 0.7680000364780426, 0.0, 0.0, 0.0, 0.0, 0.0, 1.6518361210044007E9, 0.0, 2022-05-06 12:22:01.004
39.0, -220.03701389301568, -72.67186598898843, -113.01790671097115, -152.92263923818246, 0.12800000607967377, 0.11200000531971455, 0.7680000364780426, 0.0, 0.0, 0.0, 0.0, 0.0, 1.6518361210053582E9, 0.0, 2022-05-06 12:22:01.005
39.0, -245.65906848944724, -153.10215443605557, -179.26275462610647, -173.9520966890268, 0.12800000607967377, 0.11200000531971455, 0.7680000364780426, 0.0, 0.0, 0.0, 0.0, 0.0, 1.6518361210053582E9, 0.0, 2022-05-06 12:22:01.005
40.0, -279.4004458896816, -200.482946974691, -221.57972262473777, -202.54737175023183, 0.12800000607967377, 0.11200000531971455, 0.8960000425577164, 0.0, 0.0, 0.0, 0.0, 0.0, 1.651836121035426E9, 0.0, 2022-05-06 12:22:01.035
40.0, -239.98190035670996, -111.53316642856225, -141.84131566947326, -174.0231547881849, 0.12800000607967377, 0.11200000531971455, 0.8960000425577164, 0.0, 0.0, 0.0, 0.0, 0.0, 1.651836121035426E9, 0.0, 2022-05-06 12:22:01.035
41.0, -218.4400766119361, -70.67849931260571, -103.15953042777255, -145.44657922675833, 0.12800000607967377, 0.11200000531971455, 0.8960000425577164, 0.0, 0.0, 0.0, 0.0, 0.0, 1.6518361210363553E9, 0.0, 2022-05-06 12:22:01.036
41.0, -244.32392420526594, -145.40918022720143, -172.53093470586464, -163.02784891845658, 0.12800000607967377, 0.11200000531971455, 0.8960000425577164, 0.0, 0.0, 0.0, 0.0, 0.0, 1.6518361210363553E9, 0.0, 2022-05-06 12:22:01.036
42.0, -275.0621619410813, -188.82567881280556, -217.31997657520697, -196.67572881979868, 0.144000006839633, 0.11200000531971455, 0.8960000425577164, 0.0, 0.0, 0.0, 0.0, 0.0, 1.6518361210654435E9, 0.0, 2022-05-06 12:22:01.065
42.0, -243.20943401847035, -118.38840304734185, -139.84794899309054, -162.17889162851498, 0.144000006839633, 0.11200000531971455, 0.8960000425577164, 0.0, 0.0, 0.0, 0.0, 0.0, 1.6518361210654435E9, 0.0, 2022-05-06 12:22:01.065
43.0, -216.15499773900956, -73.62928037764505, -104.44605601252988, -144.61258153663948, 0.144000006839633, 0.11200000531971455, 0.8960000425577164, 0.0, 0.0, 0.0, 0.0, 0.0, 1.6518361210663528E9, 0.0, 2022-05-06 12:22:01.066
43.0, -244.31644440535456, -147.72417829977348, -175.0329277762212, -176.4316503596492, 0.144000006839633, 0.11200000531971455, 0.8960000425577164, 0.0, 0.0, 0.0, 0.0, 0.0, 1.6518361210663528E9, 0.0, 2022-05-06 12:22:01.066
44.0, -272.04406267683953, -188.23477461980656, -211.92704083910212, -193.9605614519678, 0.144000006839633, 0.11200000531971455, 0.8960000425577164, 0.0, 0.0, 0.0, 0.0, 0.0, 1.6518361210673647E9, 0.0, 2022-05-06 12:22:01.067
44.0, -253.98408579081297, -126.08885705610737, -152.9450786379166, -175.6612309687771, 0.144000006839633, 0.11200000531971455, 0.8960000425577164, 0.0, 0.0, 0.0, 0.0, 0.0, 1.6518361210673647E9, 0.0, 2022-05-06 12:22:01.067
45.0, -221.76484767254442, -73.99953047325835, -103.77661392046139, -143.48313175002113, 0.144000006839633, 0.11200000531971455, 0.8960000425577164, 0.0, 0.0, 0.0, 0.0, 0.0, 1.651836121068363E9, 0.0, 2022-05-06 12:22:01.068
45.0, -237.93991498090327, -155.97065770206973, -175.63131176913157, -171.64457841636613, 0.144000006839633, 0.11200000531971455, 0.8960000425577164, 0.0, 0.0, 0.0, 0.0, 0.0, 1.651836121068363E9, 0.0, 2022-05-06 12:22:01.068
46.0, -282.6092800516635, -202.57355104992166, -226.4191531674005, -207.28956489404663, 0.144000006839633, 0.11200000531971455, 0.8960000425577164, 0.0, 0.0, 0.0, 0.0, 0.0, 1.6518361210954025E9, 0.0, 2022-05-06 12:22:01.095
46.0, -248.14610195998102, -113.11888400977477, -139.03639070270583, -165.20073079271242, 0.144000006839633, 0.11200000531971455, 0.8960000425577164, 0.0, 0.0, 0.0, 0.0, 0.0, 1.6518361210954025E9, 0.0, 2022-05-06 12:22:01.095
47.0, -226.95208891108632, -83.56619455991313, -118.24254694906995, -157.75085008097813, 0.144000006839633, 0.11200000531971455, 0.8960000425577164, 0.0, 0.0, 0.0, 0.0, 0.0, 1.6518361210963624E9, 0.0, 2022-05-06 12:22:01.096
47.0, -247.21486687101424, -155.63032680610195, -182.61744488636032, -178.49233523523435, 0.144000006839633, 0.11200000531971455, 0.8960000425577164, 0.0, 0.0, 0.0, 0.0, 0.0, 1.6518361210963624E9, 0.0, 2022-05-06 12:22:01.096
48.0, -260.7570446105674, -183.477621876169, -199.61903008492664, -173.42477079527453, 0.144000006839633, 0.11200000531971455, 0.8960000425577164, 0.0, 0.0, 0.0, 0.0, 0.0, 1.6518361210973616E9, 0.0, 2022-05-06 12:22:01.097
48.0, -256.6805536588654, -125.69242766080424, -151.19106555869803, -165.34658689098433, 0.144000006839633, 0.11200000531971455, 0.8960000425577164, 0.0, 0.0, 0.0, 0.0, 0.0, 1.6518361210973616E9, 0.0, 2022-05-06 12:22:01.097
49.0, -227.41957640554756, -82.03283557808027, -111.52568662865087, -153.19191203499213, 0.144000006839633, 0.11200000531971455, 0.8960000425577164, 0.0, 0.0, 0.0, 0.0, 0.0, 1.6518361211253977E9, 0.0, 2022-05-06 12:22:01.125
49.0, -227.98430129885674, -136.70643303031102, -163.67111171083525, -161.99563653068617, 0.144000006839633, 0.11200000531971455, 0.8960000425577164, 0.0, 0.0, 0.0, 0.0, 0.0, 1.6518361211253977E9, 0.0, 2022-05-06 12:22:01.125
50.0, -261.2357518048957, -187.31475923070684, -207.42046139249578, -194.91423594066873, 0.144000006839633, 0.11200000531971455, 0.944000044837594, 0.0, 0.0, 0.0, 0.0, 0.0, 1.6518361211263528E9, 0.0, 2022-05-06 12:22:01.126
50.0, -263.2066790815443, -130.6029163026251, -151.28456305759028, -177.08987275185063, 0.144000006839633, 0.11200000531971455, 0.944000044837594, 0.0, 0.0, 0.0, 0.0, 0.0, 1.6518361211263528E9, 0.0, 2022-05-06 12:22:01.126
51.0, -221.85834517143667, -84.14587905304506, -117.70026145549491, -159.35900706192479, 0.144000006839633, 0.11200000531971455, 0.944000044837594, 0.0, 0.0, 0.0, 0.0, 0.0, 1.6518361211274033E9, 0.0, 2022-05-06 12:22:01.127
51.0, -247.3756825691089, -148.03458999609575, -176.05392046412453, -170.5113887297921, 0.144000006839633, 0.11200000531971455, 0.944000044837594, 0.0, 0.0, 0.0, 0.0, 0.0, 1.6518361211274033E9, 0.0, 2022-05-06 12:22:01.127
52.0, -270.7500572921708, -189.9588684993796, -211.79988424060866, -180.6203383100219, 0.1600000075995922, 0.11200000531971455, 0.944000044837594, 0.0, 0.0, 0.0, 0.0, 0.0, 1.6518361211554E9, 0.0, 2022-05-06 12:22:01.155
52.0, -241.61249673739076, -120.95771431690082, -141.9722121679224, -160.53333564801142, 0.1600000075995922, 0.11200000531971455, 0.944000044837594, 0.0, 0.0, 0.0, 0.0, 0.0, 1.6518361211554E9, 0.0, 2022-05-06 12:22:01.155
53.0, -206.4686568537727, -72.64194678934291, -107.32577897841111, -151.85302785085514, 0.1600000075995922, 0.11200000531971455, 0.944000044837594, 0.0, 0.0, 0.0, 0.0, 0.0, 1.6518361211563346E9, 0.0, 2022-05-06 12:22:01.156
53.0, -246.39582878071815, -147.6830394002609, -172.2841013087891, -168.38338565500453, 0.1600000075995922, 0.11200000531971455, 0.944000044837594, 0.0, 0.0, 0.0, 0.0, 0.0, 1.6518361211563346E9, 0.0, 2022-05-06 12:22:01.156
54.0, -278.237337003462, -191.74654067819938, -217.43591347383335, -196.2194610252045, 0.1600000075995922, 0.11200000531971455, 0.944000044837594, 0.0, 0.0, 0.0, 0.0, 0.0, 1.6518361211573265E9, 0.0, 2022-05-06 12:22:01.157
54.0, -250.23670603521168, -121.57479780958965, -146.80416291067377, -166.61067307600752, 0.1600000075995922, 0.11200000531971455, 0.944000044837594, 0.0, 0.0, 0.0, 0.0, 0.0, 1.6518361211573265E9, 0.0, 2022-05-06 12:22:01.157
55.0, -214.48700235877186, -70.61492101335898, -97.78903409140185, -141.83757576951757, 0.1600000075995922, 0.11200000531971455, 0.944000044837594, 0.0, 0.0, 0.0, 0.0, 0.0, 1.6518361211684165E9, 0.0, 2022-05-06 12:22:01.168
55.0, -215.70994964428246, -121.5934973093681, -146.80790281062946, -137.57408982003108, 0.1600000075995922, 0.11200000531971455, 0.944000044837594, 0.0, 0.0, 0.0, 0.0, 0.0, 1.6518361211684165E9, 0.0, 2022-05-06 12:22:01.168
56.0, -273.48018425982445, -194.46544794598594, -223.4982913020067, -200.5240858742036, 0.1600000075995922, 0.11200000531971455, 0.944000044837594, 0.0, 0.0, 0.0, 0.0, 0.0, 1.6518361211844018E9, 0.0, 2022-05-06 12:22:01.184
56.0, -260.28581721615046, -140.68942648312077, -162.62019982328638, -197.1095572146587, 0.1600000075995922, 0.11200000531971455, 0.944000044837594, 0.0, 0.0, 0.0, 0.0, 0.0, 1.6518361211844018E9, 0.0, 2022-05-06 12:22:01.184
57.0, -236.2644398007542, -95.14866472268477, -127.10984974401072, -170.64976502815261, 0.1600000075995922, 0.11200000531971455, 0.944000044837594, 0.0, 0.0, 0.0, 0.0, 0.0, 1.651836121185337E9, 0.0, 2022-05-06 12:22:01.185
57.0, -245.79370488785207, -146.62090781284496, -174.7262559798546, -182.03776039322838, 0.1600000075995922, 0.11200000531971455, 0.944000044837594, 0.0, 0.0, 0.0, 0.0, 0.0, 1.651836121185337E9, 0.0, 2022-05-06 12:22:01.185
58.0, -264.3398687681183, -193.45941485790536, -212.61892233090475, -189.59983810363337, 0.1600000075995922, 0.11200000531971455, 0.944000044837594, 0.0, 0.0, 0.0, 0.0, 0.0, 1.6518361212153938E9, 0.0, 2022-05-06 12:22:01.215
58.0, -242.42779492773116, -119.00548654003069, -134.13712176075205, -154.3475411213003, 0.1600000075995922, 0.11200000531971455, 0.944000044837594, 0.0, 0.0, 0.0, 0.0, 0.0, 1.6518361212153938E9, 0.0, 2022-05-06 12:22:01.215
59.0, -217.729495620355, -77.64219303010032, -104.85744500765577, -140.2705576880835, 0.1600000075995922, 0.11200000531971455, 0.944000044837594, 0.0, 0.0, 0.0, 0.0, 0.0, 1.6518361212164524E9, 0.0, 2022-05-06 12:22:01.216
59.0, -228.9978141868487, -134.50363195640966, -167.7700420622714, -174.56170038180426, 0.1600000075995922, 0.11200000531971455, 0.944000044837594, 0.0, 0.0, 0.0, 0.0, 0.0, 1.6518361212164524E9, 0.0, 2022-05-06 12:22:01.216
60.0, -256.20932626444846, -177.46012284746394, -203.3402305408381, -183.86283157160506, 0.1600000075995922, 0.11200000531971455, 0.9920000471174717, 0.0, 0.0, 0.0, 0.0, 0.0, 1.6518361212173522E9, 0.0, 2022-05-06 12:22:01.217
60.0, -259.0105113312602, -129.21541341906413, -153.26297013415024, -174.26998818526044, 0.1600000075995922, 0.11200000531971455, 0.9920000471174717, 0.0, 0.0, 0.0, 0.0, 0.0, 1.6518361212173522E9, 0.0, 2022-05-06 12:22:01.217
61.0, -223.35430515371263, -81.16143888840452, -111.64910332718864, -156.26236989861354, 0.1600000075995922, 0.11200000531971455, 0.9920000471174717, 0.0, 0.0, 0.0, 0.0, 0.0, 1.6518361212283747E9, 0.0, 2022-05-06 12:22:01.228
61.0, -231.08841826207936, -136.83732952876016, -164.0226623066701, -170.49268923001364, 0.1600000075995922, 0.11200000531971455, 0.9920000471174717, 0.0, 0.0, 0.0, 0.0, 0.0, 1.6518361212283747E9, 0.0, 2022-05-06 12:22:01.228
62.0, -265.7236317517236, -188.2160751200281, -216.5271177846007, -191.69418207881972, 0.1600000075995922, 0.11200000531971455, 0.9920000471174717, 0.0, 0.0, 0.0, 0.0, 0.0, 1.651836121244394E9, 0.0, 2022-05-06 12:22:01.244
62.0, -261.62470140028745, -132.85059617599472, -152.12230064766482, -176.1361982631497, 0.1600000075995922, 0.11200000531971455, 0.9920000471174717, 0.0, 0.0, 0.0, 0.0, 0.0, 1.651836121244394E9, 0.0, 2022-05-06 12:22:01.244
63.0, -220.82613278366625, -77.48137733200565, -108.57490556361154, -149.63900707708672, 0.1600000075995922, 0.11200000531971455, 0.9920000471174717, 0.0, 0.0, 0.0, 0.0, 0.0, 1.6518361212453537E9, 0.0, 2022-05-06 12:22:01.245
63.0, -227.56917240377516, -130.13542880816385, -161.43465153733268, -150.63008056534454, 0.1600000075995922, 0.11200000531971455, 0.9920000471174717, 0.0, 0.0, 0.0, 0.0, 0.0, 1.6518361212453537E9, 0.0, 2022-05-06 12:22:01.245
64.0, -269.00352401286364, -184.3602382657118, -219.22358565265313, -203.65438213711604, 0.1600000075995922, 0.11200000531971455, 0.9920000471174717, 0.0, 0.0, 0.0, 0.0, 0.0, 1.6518361212583988E9, 0.0, 2022-05-06 12:22:01.258
64.0, -253.15008810069412, -128.4861329277046, -152.11108094779775, -175.26480157347396, 0.1600000075995922, 0.11200000531971455, 0.9920000471174717, 0.0, 0.0, 0.0, 0.0, 0.0, 1.6518361212583988E9, 0.0, 2022-05-06 12:22:01.258
65.0, -225.15319703239948, -80.34988059801981, -109.62207755120471, -160.73529024561867, 0.1600000075995922, 0.11200000531971455, 0.9920000471174717, 0.0, 0.0, 0.0, 0.0, 0.0, 1.6518361212904232E9, 0.0, 2022-05-06 12:22:01.290
65.0, -232.5170600451529, -139.65721409535035, -169.96162343630567, -172.0297881118022, 0.1600000075995922, 0.11200000531971455, 0.9920000471174717, 0.0, 0.0, 0.0, 0.0, 0.0, 1.6518361212904232E9, 0.0, 2022-05-06 12:22:01.290
66.0, -258.50562483724207, -180.26878771418706, -204.35748332878575, -182.74460148485377, 0.1600000075995922, 0.11200000531971455, 0.9920000471174717, 0.0, 0.0, 0.0, 0.0, 0.0, 1.6518361212913575E9, 0.0, 2022-05-06 12:22:01.291
66.0, -256.91616735607386, -136.971965927165, -158.9139589671977, -172.50101550621912, 0.1600000075995922, 0.11200000531971455, 0.9920000471174717, 0.0, 0.0, 0.0, 0.0, 0.0, 1.6518361212913575E9, 0.0, 2022-05-06 12:22:01.291
67.0, -225.18685613200068, -81.62892638286576, -110.54209294030443, -151.37806055648252, 0.1600000075995922, 0.11200000531971455, 0.9920000471174717, 0.0, 0.0, 0.0, 0.0, 0.0, 1.6518361212923439E9, 0.0, 2022-05-06 12:22:01.292
67.0, -230.46011506952345, -127.7830317360349, -155.12170041212812, -151.6473333532922, 0.1600000075995922, 0.11200000531971455, 0.9920000471174717, 0.0, 0.0, 0.0, 0.0, 0.0, 1.6518361212923439E9, 0.0, 2022-05-06 12:22:01.292
68.0, -257.32381645124406, -175.19748337427154, -196.64206972019747, -167.51946876524016, 0.1600000075995922, 0.11200000531971455, 0.9920000471174717, 0.0, 0.0, 0.0, 0.0, 0.0, 1.6518361213044007E9, 0.0, 2022-05-06 12:22:01.304
68.0, -235.45662141032517, -114.7008616910316, -130.25884550670162, -146.1235011187382, 0.1600000075995922, 0.11200000531971455, 0.9920000471174717, 0.0, 0.0, 0.0, 0.0, 0.0, 1.6518361213044007E9, 0.0, 2022-05-06 12:22:01.304
69.0, -209.79716781433672, -67.36120805190876, -99.60662546986714, -141.3439089753665, 0.1600000075995922, 0.11200000531971455, 0.9920000471174717, 0.0, 0.0, 0.0, 0.0, 0.0, 1.6518361213053598E9, 0.0, 2022-05-06 12:22:01.305
69.0, -225.34767183009535, -131.91188128711656, -163.60005361167714, -166.22546338057145, 0.1600000075995922, 0.11200000531971455, 0.9920000471174717, 0.0, 0.0, 0.0, 0.0, 0.0, 1.6518361213053598E9, 0.0, 2022-05-06 12:22:01.305
70.0, -257.65292764734477, -188.97527481103316, -211.48199274437502, -199.49935328634456, 0.1600000075995922, 0.11200000531971455, 1.008000047877431, 0.0, 0.0, 0.0, 0.0, 0.0, 1.6518361213183951E9, 0.0, 2022-05-06 12:22:01.318
70.0, -244.34636360500008, -125.29225836554542, -148.62923408905044, -172.89744490152225, 0.1600000075995922, 0.11200000531971455, 1.008000047877431, 0.0, 0.0, 0.0, 0.0, 0.0, 1.6518361213183951E9, 0.0, 2022-05-06 12:22:01.318
71.0, -232.07949175033718, -85.11077324161306, -115.37778358301148, -165.33910709107295, 0.1600000075995922, 0.11200000531971455, 1.008000047877431, 0.0, 0.0, 0.0, 0.0, 0.0, 1.6518361213354564E9, 0.0, 2022-05-06 12:22:01.335
71.0, -238.30642517656088, -142.59677546052262, -169.12014594627544, -177.5087415468879, 0.1600000075995922, 0.11200000531971455, 1.008000047877431, 0.0, 0.0, 0.0, 0.0, 0.0, 1.6518361213354564E9, 0.0, 2022-05-06 12:22:01.335
72.0, -267.2345513338223, -189.19592890841886, -211.07060374924913, -186.93328943522647, 0.1600000075995922, 0.11200000531971455, 1.008000047877431, 0.0, 0.0, 0.0, 0.0, 0.0, 1.6518361213653996E9, 0.0, 2022-05-06 12:22:01.365
72.0, -248.07130396086723, -137.09538262570277, -160.84748724428937, -178.67185043310747, 0.1600000075995922, 0.11200000531971455, 1.008000047877431, 0.0, 0.0, 0.0, 0.0, 0.0, 1.6518361213653996E9, 0.0, 2022-05-06 12:22:01.365
73.0, -201.59556721150875, -64.95271248044446, -102.40407063672319, -150.70113866450265, 0.1600000075995922, 0.11200000531971455, 1.008000047877431, 0.0, 0.0, 0.0, 0.0, 0.0, 1.6518361213663976E9, 0.0, 2022-05-06 12:22:01.366
73.0, -235.84557100571692, -132.3008308825083, -163.42053841380402, -170.66472462797537, 0.1600000075995922, 0.11200000531971455, 1.008000047877431, 0.0, 0.0, 0.0, 0.0, 0.0, 1.6518361213663976E9, 0.0, 2022-05-06 12:22:01.366
74.0, -267.1934124343097, -186.81735253660008, -212.7535587293096, -189.98504779906943, 0.1600000075995922, 0.11200000531971455, 1.008000047877431, 0.0, 0.0, 0.0, 0.0, 0.0, 1.6518361213673413E9, 0.0, 2022-05-06 12:22:01.367
74.0, -254.54133088421077, -139.68713329499587, -156.497983595822, -171.2444091211073, 0.1600000075995922, 0.11200000531971455, 1.008000047877431, 0.0, 0.0, 0.0, 0.0, 0.0, 1.6518361213673413E9, 0.0, 2022-05-06 12:22:01.367
75.0, -215.6987299444154, -72.66064628912136, -101.03526725294068, -141.70667927106842, 0.1600000075995922, 0.11200000531971455, 1.008000047877431, 0.0, 0.0, 0.0, 0.0, 0.0, 1.65183612136834E9, 0.0, 2022-05-06 12:22:01.368
75.0, -218.78040750790387, -119.03166583972052, -150.48422446707264, -150.73105786414817, 0.1600000075995922, 0.11200000531971455, 1.008000047877431, 0.0, 0.0, 0.0, 0.0, 0.0, 1.65183612136834E9, 0.0, 2022-05-06 12:22:01.368
76.0, -239.1927814660594, -164.16103860503063, -183.01761418161914, -154.81876851571724, 0.1600000075995922, 0.11200000531971455, 1.008000047877431, 0.0, 0.0, 0.0, 0.0, 0.0, 1.6518361213783855E9, 0.0, 2022-05-06 12:22:01.378
76.0, -242.73820662405342, -123.46344728721306, -145.66349342418835, -161.34489393839613, 0.1600000075995922, 0.11200000531971455, 1.008000047877431, 0.0, 0.0, 0.0, 0.0, 0.0, 1.6518361213783855E9, 0.0, 2022-05-06 12:22:01.378
77.0, -220.07441289257258, -83.3567601623945, -114.42036919435486, -157.96028447849676, 0.1600000075995922, 0.11200000531971455, 1.008000047877431, 0.0, 0.0, 0.0, 0.0, 0.0, 1.651836121410387E9, 0.0, 2022-05-06 12:22:01.410
77.0, -240.8944359458983, -138.0789763140492, -172.04474771162495, -174.71877617994323, 0.1600000075995922, 0.11200000531971455, 1.008000047877431, 0.0, 0.0, 0.0, 0.0, 0.0, 1.651836121410387E9, 0.0, 2022-05-06 12:22:01.410
78.0, -244.02099230885506, -162.9829701189883, -188.60502471541986, -155.2376373107545, 0.1600000075995922, 0.11200000531971455, 1.008000047877431, 0.0, 0.0, 0.0, 0.0, 0.0, 1.6518361214113789E9, 0.0, 2022-05-06 12:22:01.411
78.0, -245.2663789940998, -133.40784126939252, -152.2344976463355, -183.15225058002397, 0.1600000075995922, 0.11200000531971455, 1.008000047877431, 0.0, 0.0, 0.0, 0.0, 0.0, 1.6518361214113789E9, 0.0, 2022-05-06 12:22:01.411
79.0, -221.97802197001874, -79.44108490878716, -101.8804846429266, -150.60016136569902, 0.1600000075995922, 0.11200000531971455, 1.008000047877431, 0.0, 0.0, 0.0, 0.0, 0.0, 1.6518361214123387E9, 0.0, 2022-05-06 12:22:01.412
79.0, -229.2932662833482, -126.80691784759983, -151.35936105670407, -161.40473233768716, 0.1600000075995922, 0.11200000531971455, 1.008000047877431, 0.0, 0.0, 0.0, 0.0, 0.0, 1.6518361214123387E9, 0.0, 2022-05-06 12:22:01.412
80.0, -261.871534797363, -190.34033829485998, -215.46124629722908, -196.7093879193999, 0.1600000075995922, 0.11200000531971455, 1.008000047877431, 0.0, 0.0, 0.0, 0.0, 0.0, 1.6518361214244084E9, 0.0, 2022-05-06 12:22:01.424
80.0, -244.27156560588628, -131.2686184947379, -147.98971119662747, -168.70875695114955, 0.1600000075995922, 0.11200000531971455, 1.008000047877431, 0.0, 0.0, 0.0, 0.0, 0.0, 1.6518361214244084E9, 0.0, 2022-05-06 12:22:01.424
81.0, -219.16561720333993, -74.14538657153025, -99.98809526534751, -155.51065000751987, 0.1600000075995922, 0.11200000531971455, 1.008000047877431, 0.0, 0.0, 0.0, 0.0, 0.0, 1.6518361214253535E9, 0.0, 2022-05-06 12:22:01.425
81.0, -230.80044596549124, -141.15317407762632, -166.7228700746782, -172.41499780723825, 0.1600000075995922, 0.11200000531971455, 1.008000047877431, 0.0, 0.0, 0.0, 0.0, 0.0, 1.6518361214253535E9, 0.0, 2022-05-06 12:22:01.425
82.0, -260.06142321880907, -183.89649067120627, -207.57379729067907, -183.53746027546003, 0.1600000075995922, 0.11200000531971455, 1.008000047877431, 0.0, 0.0, 0.0, 0.0, 0.0, 1.65183612143839E9, 0.0, 2022-05-06 12:22:01.438
82.0, -252.81723700463772, -136.6054557315074, -157.2048246874474, -173.85111939022318, 0.1600000075995922, 0.11200000531971455, 1.008000047877431, 0.0, 0.0, 0.0, 0.0, 0.0, 1.65183612143839E9, 0.0, 2022-05-06 12:22:01.438
83.0, -213.60438596922904, -77.26072323461995, -106.04673319356516, -149.35477468045428, 0.1600000075995922, 0.11200000531971455, 1.008000047877431, 0.0, 0.0, 0.0, 0.0, 0.0, 1.6518361214703867E9, 0.0, 2022-05-06 12:22:01.470
83.0, -217.60233902186155, -119.08028453914449, -146.3516350160353, -148.06824909569696, 0.1600000075995922, 0.11200000531971455, 1.008000047877431, 0.0, 0.0, 0.0, 0.0, 0.0, 1.6518361214703867E9, 0.0, 2022-05-06 12:22:01.470
84.0, -255.9325736677274, -187.4419158292003, -212.0055787381716, -194.91797584062442, 0.1600000075995922, 0.11200000531971455, 1.008000047877431, 0.0, 0.0, 0.0, 0.0, 0.0, 1.651836121471326E9, 0.0, 2022-05-06 12:22:01.471
84.0, -257.92220044415444, -135.80511714098975, -155.6153672062792, -168.08793355850503, 0.1600000075995922, 0.11200000531971455, 1.008000047877431, 0.0, 0.0, 0.0, 0.0, 0.0, 1.651836121471326E9, 0.0, 2022-05-06 12:22:01.471
85.0, -215.64263144508004, -71.57981520192698, -93.49936884222552, -131.14894169615582, 0.1600000075995922, 0.11200000531971455, 1.008000047877431, 0.0, 0.0, 0.0, 0.0, 0.0, 1.6518361214723425E9, 0.0, 2022-05-06 12:22:01.472
85.0, -226.42102311737835, -122.96978049306199, -152.96003823773935, -160.71285084588453, 0.1600000075995922, 0.11200000531971455, 1.008000047877431, 0.0, 0.0, 0.0, 0.0, 0.0, 1.6518361214723425E9, 0.0, 2022-05-06 12:22:01.472
86.0, -259.941746420227, -182.4753286880441, -206.13393580773845, -191.09953798586503, 0.1600000075995922, 0.11200000531971455, 1.008000047877431, 0.0, 0.0, 0.0, 0.0, 0.0, 1.6518361214844077E9, 0.0, 2022-05-06 12:22:01.484
86.0, -259.6500342236832, -146.17585971811786, -161.40847223764285, -184.31909936619923, 0.1600000075995922, 0.11200000531971455, 1.008000047877431, 0.0, 0.0, 0.0, 0.0, 0.0, 1.6518361214844077E9, 0.0, 2022-05-06 12:22:01.484
87.0, -217.4714425234124, -68.56171593768522, -101.16990365134552, -145.52511712582782, 0.1600000075995922, 0.11200000531971455, 1.008000047877431, 0.0, 0.0, 0.0, 0.0, 0.0, 1.6518361214853585E9, 0.0, 2022-05-06 12:22:01.485
87.0, -221.18516317941248, -117.5918043567799, -148.28890319308266, -157.28710248647258, 0.1600000075995922, 0.11200000531971455, 1.008000047877431, 0.0, 0.0, 0.0, 0.0, 0.0, 1.6518361214853585E9, 0.0, 2022-05-06 12:22:01.485
88.0, -254.85548248048872, -180.23138871463016, -204.62301622563973, -179.70406282087788, 0.1600000075995922, 0.11200000531971455, 1.008000047877431, 0.0, 0.0, 0.0, 0.0, 0.0, 1.65183612149841E9, 0.0, 2022-05-06 12:22:01.498
88.0, -245.32247749343514, -134.17452076030895, -144.91551343305036, -150.51788356667385, 0.1600000075995922, 0.11200000531971455, 1.008000047877431, 0.0, 0.0, 0.0, 0.0, 0.0, 1.65183612149841E9, 0.0, 2022-05-06 12:22:01.498
89.0, -224.71562873758376, -89.03018839517608, -120.3742899238132, -164.4265715018846, 0.1600000075995922, 0.11200000531971455, 1.008000047877431, 0.0, 0.0, 0.0, 0.0, 0.0, 1.6518361215304465E9, 0.0, 2022-05-06 12:22:01.530
89.0, -234.54408582113683, -135.4498266451992, -165.00251609506086, -171.03123482363299, 0.1600000075995922, 0.11200000531971455, 1.008000047877431, 0.0, 0.0, 0.0, 0.0, 0.0, 1.6518361215304465E9, 0.0, 2022-05-06 12:22:01.530
90.0, -244.51839900296181, -171.55856071738526, -195.19472843734547, -174.83471307856962, 0.1600000075995922, 0.11200000531971455, 1.008000047877431, 0.0, 0.0, 0.0, 0.0, 0.0, 1.6518361215313535E9, 0.0, 2022-05-06 12:22:01.531
90.0, -234.87693691719323, -132.1587146841921, -151.04146956047043, -167.18287776922807, 0.1600000075995922, 0.11200000531971455, 1.008000047877431, 0.0, 0.0, 0.0, 0.0, 0.0, 1.6518361215313535E9, 0.0, 2022-05-06 12:22:01.531
91.0, -216.42053063586354, -72.94487868575379, -100.35460546100512, -147.78401669906452, 0.1600000075995922, 0.11200000531971455, 1.008000047877431, 0.0, 0.0, 0.0, 0.0, 0.0, 1.651836121532333E9, 0.0, 2022-05-06 12:22:01.532
91.0, -215.85954564251006, -118.53051924565807, -145.50267772609368, -152.28685624571517, 0.1600000075995922, 0.11200000531971455, 1.008000047877431, 0.0, 0.0, 0.0, 0.0, 0.0, 1.651836121532333E9, 0.0, 2022-05-06 12:22:01.532
92.0, -252.53674450796098, -177.49752184702083, -201.5936972615309, -175.1713040745817, 0.1600000075995922, 0.11200000531971455, 1.008000047877431, 0.0, 0.0, 0.0, 0.0, 0.0, 1.6518361215443835E9, 0.0, 2022-05-06 12:22:01.544
92.0, -256.3738818624988, -144.6761598358862, -166.2815618799068, -172.59077310515568, 0.1600000075995922, 0.11200000531971455, 1.008000047877431, 0.0, 0.0, 0.0, 0.0, 0.0, 1.6518361215443835E9, 0.0, 2022-05-06 12:22:01.544
93.0, -213.79886076692492, -68.67765283631161, -103.22684862697497, -153.4200459322892, 0.1600000075995922, 0.11200000531971455, 1.008000047877431, 0.0, 0.0, 0.0, 0.0, 0.0, 1.6518361215453799E9, 0.0, 2022-05-06 12:22:01.545
93.0, -231.514766857028, -128.0373449330218, -157.29084238642827, -168.1028931583278, 0.1600000075995922, 0.11200000531971455, 1.008000047877431, 0.0, 0.0, 0.0, 0.0, 0.0, 1.6518361215453799E9, 0.0, 2022-05-06 12:22:01.545
94.0, -271.3073023855686, -200.36327017610893, -217.0806229780428, -196.3316580238752, 0.1600000075995922, 0.11200000531971455, 1.008000047877431, 0.0, 0.0, 0.0, 0.0, 0.0, 1.6518361215584197E9, 0.0, 2022-05-06 12:22:01.558
94.0, -248.06756406091154, -145.8617081218399, -160.6530124465935, -169.74844913883135, 0.1600000075995922, 0.11200000531971455, 1.008000047877431, 0.0, 0.0, 0.0, 0.0, 0.0, 1.6518361215584197E9, 0.0, 2022-05-06 12:22:01.558
95.0, -228.18999579641968, -93.25253544514999, -121.04373201588169, -161.44213133724406, 0.1600000075995922, 0.11200000531971455, 1.008000047877431, 0.0, 0.0, 0.0, 0.0, 0.0, 1.6518361215914085E9, 0.0, 2022-05-06 12:22:01.591
95.0, -228.16381649672985, -126.03649845672771, -159.88633295567706, -169.19868384534493, 0.1600000075995922, 0.11200000531971455, 1.008000047877431, 0.0, 0.0, 0.0, 0.0, 0.0, 1.6518361215914085E9, 0.0, 2022-05-06 12:22:01.591
96.0, -248.677167753689, -182.46410898817703, -203.96105393348262, -183.1410308801569, 0.1600000075995922, 0.11200000531971455, 1.008000047877431, 0.0, 0.0, 0.0, 0.0, 0.0, 1.6518361215923345E9, 0.0, 2022-05-06 12:22:01.592
96.0, -249.8926352392882, -145.07258923118934, -159.62827985873446, -173.67160419235006, 0.1600000075995922, 0.11200000531971455, 1.008000047877431, 0.0, 0.0, 0.0, 0.0, 0.0, 1.6518361215923345E9, 0.0, 2022-05-06 12:22:01.592
97.0, -209.8457865137607, -61.64664091961458, -91.6555981640704, -130.98438609810546, 0.1600000075995922, 0.11200000531971455, 1.008000047877431, 0.0, 0.0, 0.0, 0.0, 0.0, 1.6518361215933373E9, 0.0, 2022-05-06 12:22:01.593
97.0, -212.77412817906588, -104.28524031443521, -142.29384356411174, -154.47469771979377, 0.1600000075995922, 0.11200000531971455, 1.008000047877431, 0.0, 0.0, 0.0, 0.0, 0.0, 1.6518361215933373E9, 0.0, 2022-05-06 12:22:01.593
98.0, -255.8615155685693, -180.8110732077621, -199.86212358204648, -175.63131176913157, 0.1600000075995922, 0.11200000531971455, 1.008000047877431, 0.0, 0.0, 0.0, 0.0, 0.0, 1.6518361215943635E9, 0.0, 2022-05-06 12:22:01.594
98.0, -258.07179644238204, -146.87896090978757, -165.62707938766107, -180.96440910594538, 0.1600000075995922, 0.11200000531971455, 1.008000047877431, 0.0, 0.0, 0.0, 0.0, 0.0, 1.6518361215943635E9, 0.0, 2022-05-06 12:22:01.594
99.0, -217.6584375211969, -78.52480941964313, -109.40890325373039, -149.58664847770706, 0.1600000075995922, 0.11200000531971455, 1.008000047877431, 0.0, 0.0, 0.0, 0.0, 0.0, 1.6518361216204588E9, 0.0, 2022-05-06 12:22:01.620
99.0, -211.52874149382114, -112.71123491460457, -146.92383970925584, -160.71285084588453, 0.1600000075995922, 0.11200000531971455, 1.008000047877431, 0.0, 0.0, 0.0, 0.0, 0.0, 1.6518361216204588E9, 0.0, 2022-05-06 12:22:01.620
100.0, -252.53300460800529, -179.85739871906117, -203.01859914464876, -181.20750260306522, 0.1600000075995922, 0.11200000531971455, 1.0240000486373901, 0.0, 0.0, 0.0, 0.0, 0.0, 1.651836121621351E9, 0.0, 2022-05-06 12:22:01.621
100.0, -248.33309695776552, -135.99959193868563, -149.8260020748712, -166.74530947441235, 0.1600000075995922, 0.11200000531971455, 1.0240000486373901, 0.0, 0.0, 0.0, 0.0, 0.0, 1.651836121621351E9, 0.0, 2022-05-06 12:22:01.621
0.0, -210.70035365363583, -77.40096948295832, -109.22377820592374, -145.6242244746536, 0.1600000075995922, 0.11200000531971455, 1.0240000486373901, 0.0, 0.0, 0.0, 0.0, 0.0, 1.6518361216223462E9, 0.0, 2022-05-06 12:22:01.622
1.0, -224.2724505928345, -111.00771048478782, -147.30717945471406, -160.57260459754616, 0.1600000075995922, 0.11200000531971455, 1.0240000486373901, 0.0, 0.0, 0.0, 0.0, 0.0, 1.651836121650414E9, 0.0, 2022-05-06 12:22:01.650
1.0, -254.56190033396706, -176.48213900905102, -202.7661558976397, -182.50337793771178, 0.1600000075995922, 0.11200000531971455, 1.0240000486373901, 0.0, 0.0, 0.0, 0.0, 0.0, 1.651836121650414E9, 0.0, 2022-05-06 12:22:01.650
2.0, -257.37430510064587, -148.15239684469998, -160.60626369714737, -176.29140411131084, 0.1600000075995922, 0.11200000531971455, 1.0240000486373901, 0.0, 0.0, 0.0, 0.0, 0.0, 1.6518361216513507E9, 0.0, 2022-05-06 12:22:01.651
2.0, -224.95311238477007, -84.30482480116189, -109.54914950206876, -156.51107324566692, 0.1600000075995922, 0.11200000531971455, 1.0240000486373901, 0.0, 0.0, 0.0, 0.0, 0.0, 1.6518361216513507E9, 0.0, 2022-05-06 12:22:01.651
3.0, -205.61408971389756, -99.65711411926895, -136.22959578596056, -139.7301421444863, 0.1600000075995922, 0.11200000531971455, 1.0240000486373901, 0.0, 0.0, 0.0, 0.0, 0.0, 1.651836121652348E9, 0.0, 2022-05-06 12:22:01.652
3.0, -250.3619926837273, -173.8978681396693, -202.23883000388741, -180.46513246186078, 0.1600000075995922, 0.11200000531971455, 1.0240000486373901, 0.0, 0.0, 0.0, 0.0, 0.0, 1.651836121652348E9, 0.0, 2022-05-06 12:22:01.652
4.0, -269.2971061593853, -153.27979968395084, -169.97845298610628, -189.41471305582672, 0.1600000075995922, 0.11200000531971455, 1.0240000486373901, 0.0, 0.0, 0.0, 0.0, 0.0, 1.6518361216803896E9, 0.0, 2022-05-06 12:22:01.680
4.0, -222.7203921112232, -76.65672939177603, -103.46807217411697, -152.16904939711094, 0.1600000075995922, 0.11200000531971455, 1.0240000486373901, 0.0, 0.0, 0.0, 0.0, 0.0, 1.6518361216803896E9, 0.0, 2022-05-06 12:22:01.680
5.0, -218.0455171666108, -110.9067331859842, -145.17169658001512, -157.3338512359187, 0.1600000075995922, 0.11200000531971455, 1.0240000486373901, 0.0, 0.0, 0.0, 0.0, 0.0, 1.651836121681338E9, 0.0, 2022-05-06 12:22:01.681
5.0, -255.81850671907887, -184.92309320904315, -205.68327786307782, -182.06206974294037, 0.1600000075995922, 0.11200000531971455, 1.0240000486373901, 0.0, 0.0, 0.0, 0.0, 0.0, 1.651836121681338E9, 0.0, 2022-05-06 12:22:01.681
6.0, -239.59482071129605, -129.7633087625727, -146.7312348615378, -161.6309962850064, 0.1600000075995922, 0.11200000531971455, 1.0240000486373901, 0.0, 0.0, 0.0, 0.0, 0.0, 1.6518361216823533E9, 0.0, 2022-05-06 12:22:01.682
6.0, -210.16180806001648, -70.34003836661577, -98.88295482844114, -143.41394360084087, 0.1600000075995922, 0.11200000531971455, 1.0240000486373901, 0.0, 0.0, 0.0, 0.0, 0.0, 1.6518361216823533E9, 0.0, 2022-05-06 12:22:01.682
7.0, -214.9750593029894, -112.80286246351898, -138.54085395857692, -144.4723352883011, 0.1600000075995922, 0.11200000531971455, 1.0240000486373901, 0.0, 0.0, 0.0, 0.0, 0.0, 1.651836121710386E9, 0.0, 2022-05-06 12:22:01.710
7.0, -259.20311617897823, -184.29105011653155, -214.81237365491688, -192.32061532139778, 0.1600000075995922, 0.11200000531971455, 1.0240000486373901, 0.0, 0.0, 0.0, 0.0, 0.0, 1.651836121710386E9, 0.0, 2022-05-06 12:22:01.710
8.0, -256.60762560972944, -148.48898784071207, -164.675274848938, -176.59059610776603, 0.1600000075995922, 0.11200000531971455, 1.0240000486373901, 0.0, 0.0, 0.0, 0.0, 0.0, 1.65183612171139E9, 0.0, 2022-05-06 12:22:01.711
8.0, -218.2661712639965, -77.90959587693214, -103.13896097801626, -150.2953595193103, 0.1600000075995922, 0.11200000531971455, 1.0240000486373901, 0.0, 0.0, 0.0, 0.0, 0.0, 1.65183612171139E9, 0.0, 2022-05-06 12:22:01.711
9.0, -212.03923783777282, -88.82636384759098, -127.49318948946893, -130.5412079533562, 0.1600000075995922, 0.11200000531971455, 1.0240000486373901, 0.0, 0.0, 0.0, 0.0, 0.0, 1.6518361217244768E9, 0.0, 2022-05-06 12:22:01.724
9.0, -240.85516699636355, -170.61797587852925, -195.32375498581678, -178.51664458494633, 0.1600000075995922, 0.11200000531971455, 1.0240000486373901, 0.0, 0.0, 0.0, 0.0, 0.0, 1.6518361217244768E9, 0.0, 2022-05-06 12:22:01.724
10.0, -250.79208117863163, -146.5517196636647, -158.08931102696806, -173.3443629462272, 0.1600000075995922, 0.11200000531971455, 1.0240000486373901, 0.0, 0.0, 0.0, 0.0, 0.0, 1.6518361217253935E9, 0.0, 2022-05-06 12:22:01.725
10.0, -217.33493617502972, -71.0693188579753, -103.29229687619954, -150.4823545170948, 0.1600000075995922, 0.11200000531971455, 1.0240000486373901, 0.0, 0.0, 0.0, 0.0, 0.0, 1.6518361217253935E9, 0.0, 2022-05-06 12:22:01.725
11.0, -217.95201966771856, -106.76292403507978, -140.8857712307945, -153.2984991837293, 0.1600000075995922, 0.11200000531971455, 1.0240000486373901, 0.0, 0.0, 0.0, 0.0, 0.0, 1.6518361217394128E9, 0.0, 2022-05-06 12:22:01.739
11.0, -259.4761288757436, -193.4238858083263, -217.00021512899548, -194.80390889197588, 0.1600000075995922, 0.11200000531971455, 1.0240000486373901, 0.0, 0.0, 0.0, 0.0, 0.0, 1.6518361217394128E9, 0.0, 2022-05-06 12:22:01.739
12.0, -264.5511731156148, -154.4765676697716, -173.81559034064412, -184.16763341799378, 0.1600000075995922, 0.11200000531971455, 1.0240000486373901, 0.0, 0.0, 0.0, 0.0, 0.0, 1.6518361217403436E9, 0.0, 2022-05-06 12:22:01.740
12.0, -223.32999580400065, -79.61499025672674, -107.43984592705965, -162.31539797689766, 0.1600000075995922, 0.11200000531971455, 1.0240000486373901, 0.0, 0.0, 0.0, 0.0, 0.0, 1.6518361217403436E9, 0.0, 2022-05-06 12:22:01.740
13.0, -233.50626358343288, -123.90662543196231, -161.92270848155022, -170.4908192800358, 0.1600000075995922, 0.11200000531971455, 1.0240000486373901, 0.0, 0.0, 0.0, 0.0, 0.0, 1.6518361217703836E9, 0.0, 2022-05-06 12:22:01.770
13.0, -260.08947246847674, -182.81004973407835, -211.771834990941, -196.37466687336564, 0.1600000075995922, 0.11200000531971455, 1.0240000486373901, 0.0, 0.0, 0.0, 0.0, 0.0, 1.6518361217703836E9, 0.0, 2022-05-06 12:22:01.770
14.0, -260.75143476063386, -159.79096550680697, -172.13263536058366, -176.6429547071457, 0.1600000075995922, 0.11200000531971455, 1.0240000486373901, 0.0, 0.0, 0.0, 0.0, 0.0, 1.6518361218014421E9, 0.0, 2022-05-06 12:22:01.801
14.0, -224.00691769598052, -78.82213146612048, -108.20278551802039, -154.28957267198712, 0.1600000075995922, 0.11200000531971455, 1.0240000486373901, 0.0, 0.0, 0.0, 0.0, 0.0, 1.6518361218014421E9, 0.0, 2022-05-06 12:22:01.801
15.0, -222.4548592143692, -111.75195057597011, -145.16047688014805, -152.0755518982187, 0.1600000075995922, 0.11200000531971455, 1.0240000486373901, 0.0, 0.0, 0.0, 0.0, 0.0, 1.6518361218023465E9, 0.0, 2022-05-06 12:22:01.802
15.0, -253.46610964694992, -178.3072101874277, -202.53054220043123, -182.7502113347873, 0.1600000075995922, 0.11200000531971455, 1.0240000486373901, 0.0, 0.0, 0.0, 0.0, 0.0, 1.6518361218023465E9, 0.0, 2022-05-06 12:22:01.802
16.0, -250.38443208346143, -150.93114251177758, -166.7060405248776, -179.7919504698366, 0.1600000075995922, 0.11200000531971455, 1.0240000486373901, 0.0, 0.0, 0.0, 0.0, 0.0, 1.651836121803334E9, 0.0, 2022-05-06 12:22:01.803
16.0, -213.66235441854224, -76.37997679505497, -106.99853773228824, -153.76598667819053, 0.1600000075995922, 0.11200000531971455, 1.0240000486373901, 0.0, 0.0, 0.0, 0.0, 0.0, 1.651836121803334E9, 0.0, 2022-05-06 12:22:01.803
17.0, -232.07762180035934, -115.58908793050796, -145.39609057735652, -157.71158113144338, 0.1600000075995922, 0.11200000531971455, 1.0240000486373901, 0.0, 0.0, 0.0, 0.0, 0.0, 1.6518361218043544E9, 0.0, 2022-05-06 12:22:01.804
17.0, -272.79017271799967, -198.18851835187525, -220.4334432883188, -191.40059993229806, 0.1600000075995922, 0.11200000531971455, 1.0240000486373901, 0.0, 0.0, 0.0, 0.0, 0.0, 1.6518361218043544E9, 0.0, 2022-05-06 12:22:01.804
18.0, -268.42570946970955, -165.58781043812633, -179.76951107010245, -183.7525045229122, 0.1600000075995922, 0.11200000531971455, 1.0240000486373901, 0.0, 0.0, 0.0, 0.0, 0.0, 1.6518361218154082E9, 0.0, 2022-05-06 12:22:01.815
18.0, -234.25798347452655, -86.50014607515186, -114.54939574282616, -154.75332026649266, 0.1600000075995922, 0.11200000531971455, 1.0240000486373901, 0.0, 0.0, 0.0, 0.0, 0.0, 1.6518361218154082E9, 0.0, 2022-05-06 12:22:01.815
19.0, -222.17810661764815, -109.20881860610098, -143.4401229005307, -155.80797205399722, 0.1600000075995922, 0.11200000531971455, 1.0240000486373901, 0.0, 0.0, 0.0, 0.0, 0.0, 1.6518361218163607E9, 0.0, 2022-05-06 12:22:01.816
19.0, -261.7761673484929, -185.7870100988075, -211.6932970918715, -180.79798355791718, 0.1600000075995922, 0.11200000531971455, 1.0240000486373901, 0.0, 0.0, 0.0, 0.0, 0.0, 1.6518361218163607E9, 0.0, 2022-05-06 12:22:01.816
20.0, -268.04797957418486, -160.91293549351394, -182.09572884254158, -195.71270458120853, 0.1600000075995922, 0.11200000531971455, 1.0240000486373901, 0.0, 0.0, 0.0, 0.0, 0.0, 1.6518361218454187E9, 0.0, 2022-05-06 12:22:01.845
20.0, -204.40236212825403, -81.73551353160292, -100.12460161373019, -139.142977851443, 0.1600000075995922, 0.11200000531971455, 1.0240000486373901, 0.0, 0.0, 0.0, 0.0, 0.0, 1.6518361218454187E9, 0.0, 2022-05-06 12:22:01.845
21.0, -216.4934586849995, -106.48243153840303, -142.8866177070886, -154.51022676937282, 0.1600000075995922, 0.11200000531971455, 1.0240000486373901, 0.0, 0.0, 0.0, 0.0, 0.0, 1.6518361218463914E9, 0.0, 2022-05-06 12:22:01.846
21.0, -277.19951476575807, -194.62065379414707, -213.40991117153317, -183.80112322233617, 0.1600000075995922, 0.11200000531971455, 1.0240000486373901, 0.0, 0.0, 0.0, 0.0, 0.0, 1.6518361218463914E9, 0.0, 2022-05-06 12:22:01.846
22.0, -279.9221619335003, -163.98713325709105, -185.02033060789108, -189.58674845378846, 0.1600000075995922, 0.11200000531971455, 1.0240000486373901, 0.0, 0.0, 0.0, 0.0, 0.0, 1.6518361218603857E9, 0.0, 2022-05-06 12:22:01.860
22.0, -229.63172722933814, -78.85579056572169, -109.48183130286634, -157.6704422319308, 0.1600000075995922, 0.11200000531971455, 1.0240000486373901, 0.0, 0.0, 0.0, 0.0, 0.0, 1.6518361218603857E9, 0.0, 2022-05-06 12:22:01.860
23.0, -234.2804228742607, -118.169618899934, -155.13852996192873, -173.39298164565116, 0.1600000075995922, 0.11200000531971455, 1.0240000486373901, 0.0, 0.0, 0.0, 0.0, 0.0, 1.651836121861343E9, 0.0, 2022-05-06 12:22:01.861
23.0, -260.89729085890576, -183.63656762428582, -206.79402814991772, -184.15267381817102, 0.1600000075995922, 0.11200000531971455, 1.0240000486373901, 0.0, 0.0, 0.0, 0.0, 0.0, 1.651836121861343E9, 0.0, 2022-05-06 12:22:01.861
24.0, -250.01418198784813, -139.842339143157, -157.36377043556422, -168.16834140755236, 0.1600000075995922, 0.11200000531971455, 1.0240000486373901, 0.0, 0.0, 0.0, 0.0, 0.0, 1.6518361218623936E9, 0.0, 2022-05-06 12:22:01.862
24.0, -223.44219280267134, -79.34945735987276, -109.30231610499322, -147.33709865435958, 0.1600000075995922, 0.11200000531971455, 1.0240000486373901, 0.0, 0.0, 0.0, 0.0, 0.0, 1.6518361218623936E9, 0.0, 2022-05-06 12:22:01.862
25.0, -223.5356903015636, -106.00746424403042, -144.22550189122558, -162.95118096936494, 0.1600000075995922, 0.11200000531971455, 1.0240000486373901, 0.0, 0.0, 0.0, 0.0, 0.0, 1.651836121890386E9, 0.0, 2022-05-06 12:22:01.890
25.0, -259.4088106765412, -177.03938410244882, -201.80874150898308, -175.05349722597748, 0.1600000075995922, 0.11200000531971455, 1.0240000486373901, 0.0, 0.0, 0.0, 0.0, 0.0, 1.651836121890386E9, 0.0, 2022-05-06 12:22:01.890
26.0, -265.26923390710726, -157.27401283662766, -169.9747130861506, -173.53883774392307, 0.1600000075995922, 0.11200000531971455, 1.0240000486373901, 0.0, 0.0, 0.0, 0.0, 0.0, 1.6518361218913424E9, 0.0, 2022-05-06 12:22:01.891
26.0, -231.1314271115698, -82.22918032575399, -115.86584052722901, -153.95298167597502, 0.1600000075995922, 0.11200000531971455, 1.0240000486373901, 0.0, 0.0, 0.0, 0.0, 0.0, 1.6518361218913424E9, 0.0, 2022-05-06 12:22:01.891
27.0, -227.13721395889297, -110.02037689648569, -150.30283931922168, -166.72100012470037, 0.1600000075995922, 0.11200000531971455, 1.0240000486373901, 0.0, 0.0, 0.0, 0.0, 0.0, 1.6518361218923545E9, 0.0, 2022-05-06 12:22:01.892
27.0, -265.50110770436004, -190.84709473885596, -213.33885307237506, -193.13965341169387, 0.1600000075995922, 0.11200000531971455, 1.0240000486373901, 0.0, 0.0, 0.0, 0.0, 0.0, 1.6518361218923545E9, 0.0, 2022-05-06 12:22:01.892
28.0, -258.52993418695405, -161.26822598930448, -175.39756802190095, -175.50976502057165, 0.1600000075995922, 0.11200000531971455, 1.0240000486373901, 0.0, 0.0, 0.0, 0.0, 0.0, 1.6518361219034078E9, 0.0, 2022-05-06 12:22:01.903
28.0, -219.43302005017176, -70.02588677033782, -102.96692558005452, -144.77900708466768, 0.1600000075995922, 0.11200000531971455, 1.0240000486373901, 0.0, 0.0, 0.0, 0.0, 0.0, 1.6518361219034078E9, 0.0, 2022-05-06 12:22:01.903
29.0, -226.10874147107825, -95.58062316756696, -131.72301633935422, -144.93608288280666, 0.1600000075995922, 0.11200000531971455, 1.0240000486373901, 0.0, 0.0, 0.0, 0.0, 0.0, 1.6518361219353976E9, 0.0, 2022-05-06 12:22:01.935
29.0, -265.5085875042714, -188.63681386504322, -215.7361289439723, -189.52691005449742, 0.1600000075995922, 0.11200000531971455, 1.0240000486373901, 0.0, 0.0, 0.0, 0.0, 0.0, 1.6518361219353976E9, 0.0, 2022-05-06 12:22:01.935
30.0, -267.9881411748938, -158.20150802563876, -175.59204281959683, -185.0165907079354, 0.1600000075995922, 0.11200000531971455, 1.008000047877431, 0.0, 0.0, 0.0, 0.0, 0.0, 1.6518361219363422E9, 0.0, 2022-05-06 12:22:01.936
30.0, -223.4908115020953, -80.47516724653542, -110.59258158970624, -147.49043455254287, 0.1600000075995922, 0.11200000531971455, 1.008000047877431, 0.0, 0.0, 0.0, 0.0, 0.0, 1.6518361219363422E9, 0.0, 2022-05-06 12:22:01.936
31.0, -224.08171569509432, -111.6060944776982, -147.778406849131, -172.21117325965315, 0.1600000075995922, 0.11200000531971455, 1.008000047877431, 0.0, 0.0, 0.0, 0.0, 0.0, 1.6518361219373748E9, 0.0, 2022-05-06 12:22:01.937
31.0, -257.64731779741123, -187.33158878050745, -206.88378574885428, -190.1664329469204, 0.1600000075995922, 0.11200000531971455, 1.008000047877431, 0.0, 0.0, 0.0, 0.0, 0.0, 1.6518361219373748E9, 0.0, 2022-05-06 12:22:01.937
32.0, -271.46998803364113, -164.98194664530456, -179.32446297537535, -183.6066484246403, 0.1600000075995922, 0.11200000531971455, 1.008000047877431, 0.0, 0.0, 0.0, 0.0, 0.0, 1.6518361219813983E9, 0.0, 2022-05-06 12:22:01.981
32.0, -216.65053448313847, -71.04313955828547, -105.80176974646747, -142.48644841182977, 0.1600000075995922, 0.11200000531971455, 1.008000047877431, 0.0, 0.0, 0.0, 0.0, 0.0, 1.6518361219813983E9, 0.0, 2022-05-06 12:22:01.981
33.0, -217.24891847604886, -97.4169140458107, -132.919784325175, -140.23876853846014, 0.1600000075995922, 0.11200000531971455, 1.008000047877431, 0.0, 0.0, 0.0, 0.0, 0.0, 1.6518361219823384E9, 0.0, 2022-05-06 12:22:01.982
33.0, -263.0028545339592, -191.12010743562132, -210.3207538081333, -186.69580578804016, 0.1600000075995922, 0.11200000531971455, 1.008000047877431, 0.0, 0.0, 0.0, 0.0, 0.0, 1.6518361219823384E9, 0.0, 2022-05-06 12:22:01.982
34.0, -277.83155785826966, -171.75864536501467, -188.41241986770183, -192.29443602170795, 0.1600000075995922, 0.11200000531971455, 1.008000047877431, 0.0, 0.0, 0.0, 0.0, 0.0, 1.6518361219834144E9, 0.0, 2022-05-06 12:22:01.983
34.0, -231.49045750731602, -77.18779518548399, -112.13342037145048, -154.7084414670244, 0.1600000075995922, 0.11200000531971455, 1.008000047877431, 0.0, 0.0, 0.0, 0.0, 0.0, 1.6518361219834144E9, 0.0, 2022-05-06 12:22:01.983
35.0, -219.0852093542926, -102.7163522830233, -141.34577892534435, -158.69891471974552, 0.1600000075995922, 0.11200000531971455, 1.008000047877431, 0.0, 0.0, 0.0, 0.0, 0.0, 1.6518361219843369E9, 0.0, 2022-05-06 12:22:01.984
35.0, -273.93832200439647, -196.8010154683143, -217.96510931756347, -193.52486310712993, 0.1600000075995922, 0.11200000531971455, 1.008000047877431, 0.0, 0.0, 0.0, 0.0, 0.0, 1.6518361219843369E9, 0.0, 2022-05-06 12:22:01.984
36.0, -265.80029970081523, -159.09534411504865, -177.5704498961568, -182.98956493195146, 0.1600000075995922, 0.11200000531971455, 1.008000047877431, 0.0, 0.0, 0.0, 0.0, 0.0, 1.6518361219943786E9, 0.0, 2022-05-06 12:22:01.994
36.0, -224.459445590619, -71.69388215057552, -104.21231226529926, -149.74933412577957, 0.1600000075995922, 0.11200000531971455, 1.008000047877431, 0.0, 0.0, 0.0, 0.0, 0.0, 1.6518361219943786E9, 0.0, 2022-05-06 12:22:01.994
37.0, -219.58635594835505, -101.99829149153084, -139.07565965224057, -157.43108863476664, 0.1600000075995922, 0.11200000531971455, 1.008000047877431, 0.0, 0.0, 0.0, 0.0, 0.0, 1.6518361219953346E9, 0.0, 2022-05-06 12:22:01.995
37.0, -258.35041898908094, -182.03215054329485, -207.9159981366247, -182.37622133921832, 0.1600000075995922, 0.11200000531971455, 1.008000047877431, 0.0, 0.0, 0.0, 0.0, 0.0, 1.6518361219953346E9, 0.0, 2022-05-06 12:22:01.995
38.0, -276.0476255794056, -169.7091801892966, -180.76432445831597, -174.98991892673075, 0.1600000075995922, 0.11200000531971455, 1.008000047877431, 0.0, 0.0, 0.0, 0.0, 0.0, 1.6518361220253828E9, 0.0, 2022-05-06 12:22:02.025
38.0, -241.63306618714705, -95.09443617332727, -128.56654077675194, -173.0040320502594, 0.1600000075995922, 0.11200000531971455, 1.008000047877431, 0.0, 0.0, 0.0, 0.0, 0.0, 1.6518361220253828E9, 0.0, 2022-05-06 12:22:02.025
39.0, -221.28053062828258, -100.54721030872315, -137.48620217107236, -162.5958904735744, 0.1600000075995922, 0.11200000531971455, 1.008000047877431, 0.0, 0.0, 0.0, 0.0, 0.0, 1.6518361220263543E9, 0.0, 2022-05-06 12:22:02.026
39.0, -260.89729085890576, -181.0485568549484, -201.4272717135027, -180.53619056101888, 0.1600000075995922, 0.11200000531971455, 1.008000047877431, 0.0, 0.0, 0.0, 0.0, 0.0, 1.6518361220263543E9, 0.0, 2022-05-06 12:22:02.026
40.0, -271.7841396299191, -170.81245067622513, -183.0868023307994, -172.0129585620016, 0.1600000075995922, 0.11200000531971455, 1.0240000486373901, 0.0, 0.0, 0.0, 0.0, 0.0, 1.6518361220273755E9, 0.0, 2022-05-06 12:22:02.027
40.0, -224.48936479026452, -72.61763743963093, -108.10180821921676, -159.25241991318762, 0.1600000075995922, 0.11200000531971455, 1.0240000486373901, 0.0, 0.0, 0.0, 0.0, 0.0, 1.6518361220273755E9, 0.0, 2022-05-06 12:22:02.027
41.0, -233.61846058210358, -111.05632918421179, -151.31635220721364, -166.64246222563088, 0.1600000075995922, 0.11200000531971455, 1.0240000486373901, 0.0, 0.0, 0.0, 0.0, 0.0, 1.6518361220554519E9, 0.0, 2022-05-06 12:22:02.055
41.0, -260.1418310678564, -187.46622517891228, -207.429811142385, -194.78520939219743, 0.1600000075995922, 0.11200000531971455, 1.0240000486373901, 0.0, 0.0, 0.0, 0.0, 0.0, 1.6518361220554519E9, 0.0, 2022-05-06 12:22:02.055
42.0, -272.34512462327257, -169.57454379089177, -187.4587453790009, -191.8680874267593, 0.1600000075995922, 0.11200000531971455, 1.0240000486373901, 0.0, 0.0, 0.0, 0.0, 0.0, 1.6518361220563483E9, 0.0, 2022-05-06 12:22:02.056
42.0, -224.36220819177106, -74.5549056166783, -115.2786762341857, -156.73172734305263, 0.1600000075995922, 0.11200000531971455, 1.0240000486373901, 0.0, 0.0, 0.0, 0.0, 0.0, 1.6518361220563483E9, 0.0, 2022-05-06 12:22:02.056
43.0, -225.59637517714873, -106.07478244323283, -141.5813926225528, -161.58237758558244, 0.1600000075995922, 0.11200000531971455, 1.0240000486373901, 0.0, 0.0, 0.0, 0.0, 0.0, 1.651836122057342E9, 0.0, 2022-05-06 12:22:02.057
43.0, -265.3215925064869, -189.9831778490916, -213.62682536896318, -194.54959569498897, 0.1600000075995922, 0.11200000531971455, 1.0240000486373901, 0.0, 0.0, 0.0, 0.0, 0.0, 1.651836122057342E9, 0.0, 2022-05-06 12:22:02.057
44.0, -259.61076527414843, -156.45497474633157, -174.13722173683345, -175.61448221933097, 0.1600000075995922, 0.11200000531971455, 1.0240000486373901, 0.0, 0.0, 0.0, 0.0, 0.0, 1.6518361220853875E9, 0.0, 2022-05-06 12:22:02.085
44.0, -224.95311238477007, -81.4849402345717, -109.02556350827217, -146.09919176902622, 0.1600000075995922, 0.11200000531971455, 1.0240000486373901, 0.0, 0.0, 0.0, 0.0, 0.0, 1.6518361220853875E9, 0.0, 2022-05-06 12:22:02.085
45.0, -212.8246168284677, -102.06934959068894, -139.31501324940473, -150.23178122006357, 0.1600000075995922, 0.11200000531971455, 1.0240000486373901, 0.0, 0.0, 0.0, 0.0, 0.0, 1.651836122086339E9, 0.0, 2022-05-06 12:22:02.086
45.0, -247.3551131193526, -181.28791045211256, -208.23762953281403, -190.25993044581264, 0.1600000075995922, 0.11200000531971455, 1.0240000486373901, 0.0, 0.0, 0.0, 0.0, 0.0, 1.651836122086339E9, 0.0, 2022-05-06 12:22:02.086
46.0, -278.9684874447994, -172.27849145885557, -184.5341436136514, -189.29877615720034, 0.1600000075995922, 0.11200000531971455, 1.0240000486373901, 0.0, 0.0, 0.0, 0.0, 0.0, 1.6518361220873325E9, 0.0, 2022-05-06 12:22:02.087
46.0, -227.18957255827263, -81.4101422354579, -115.6825854294002, -157.91353572905064, 0.1600000075995922, 0.11200000531971455, 1.0240000486373901, 0.0, 0.0, 0.0, 0.0, 0.0, 1.6518361220873325E9, 0.0, 2022-05-06 12:22:02.087
47.0, -230.2787299216725, -104.70597905945033, -138.96720255352557, -163.444847763516, 0.1600000075995922, 0.11200000531971455, 1.0240000486373901, 0.0, 0.0, 0.0, 0.0, 0.0, 1.6518361220993805E9, 0.0, 2022-05-06 12:22:02.099
47.0, -261.1815232555382, -184.44438601471484, -207.5794071406126, -176.73271230608225, 0.1600000075995922, 0.11200000531971455, 1.0240000486373901, 0.0, 0.0, 0.0, 0.0, 0.0, 1.6518361220993805E9, 0.0, 2022-05-06 12:22:02.099
48.0, -271.23811423638836, -171.61278926674277, -185.2783837048337, -179.26836447604, 0.1600000075995922, 0.11200000531971455, 1.0240000486373901, 0.0, 0.0, 0.0, 0.0, 0.0, 1.6518361221143796E9, 0.0, 2022-05-06 12:22:02.114
48.0, -214.7843244052492, -75.45248160604388, -108.72263161186129, -155.57983815670013, 0.1600000075995922, 0.11200000531971455, 1.0240000486373901, 0.0, 0.0, 0.0, 0.0, 0.0, 1.6518361221143796E9, 0.0, 2022-05-06 12:22:02.114
49.0, -216.00353179080412, -100.4948517093435, -135.44795669522136, -153.53785278089345, 0.1600000075995922, 0.11200000531971455, 1.0240000486373901, 0.0, 0.0, 0.0, 0.0, 0.0, 1.651836122115352E9, 0.0, 2022-05-06 12:22:02.115
49.0, -260.34752556541935, -182.4211001386866, -205.89271226059645, -190.0916349478066, 0.1600000075995922, 0.11200000531971455, 1.0240000486373901, 0.0, 0.0, 0.0, 0.0, 0.0, 1.651836122115352E9, 0.0, 2022-05-06 12:22:02.115
50.0, -273.7737664063461, -175.5247246203944, -190.98921093717217, -194.74407049268484, 0.1600000075995922, 0.11200000531971455, 1.008000047877431, 0.0, 0.0, 0.0, 0.0, 0.0, 1.6518361221454012E9, 0.0, 2022-05-06 12:22:02.145
50.0, -242.54934167629108, -93.99116568639874, -118.2406769990921, -153.9978604754433, 0.1600000075995922, 0.11200000531971455, 1.008000047877431, 0.0, 0.0, 0.0, 0.0, 0.0, 1.6518361221454012E9, 0.0, 2022-05-06 12:22:02.145
51.0, -221.22069222899154, -97.76472474168986, -135.79576739110053, -159.65258920844644, 0.1600000075995922, 0.12800000607967377, 1.008000047877431, 0.0, 0.0, 0.0, 0.0, 0.0, 1.6518361221463504E9, 0.0, 2022-05-06 12:22:02.146
51.0, -263.94156942283735, -188.84624826256186, -207.33631364349276, -200.56335482373834, 0.1600000075995922, 0.12800000607967377, 1.008000047877431, 0.0, 0.0, 0.0, 0.0, 0.0, 1.6518361221463504E9, 0.0, 2022-05-06 12:22:02.146
52.0, -268.1078179734759, -173.16858764830977, -188.4984375666827, -189.0893417596817, 0.1600000075995922, 0.12800000607967377, 1.008000047877431, 0.0, 0.0, 0.0, 0.0, 0.0, 1.65183612214738E9, 0.0, 2022-05-06 12:22:02.147
52.0, -223.28885690448806, -75.90874940063804, -107.76895712316036, -147.04912635777146, 0.1600000075995922, 0.12800000607967377, 1.008000047877431, 0.0, 0.0, 0.0, 0.0, 0.0, 1.65183612214738E9, 0.0, 2022-05-06 12:22:02.147
53.0, -215.95117319142446, -94.10710258502513, -130.7282029511407, -142.3592918133363, 0.1600000075995922, 0.12800000607967377, 1.008000047877431, 0.0, 0.0, 0.0, 0.0, 0.0, 1.6518361221754107E9, 0.0, 2022-05-06 12:22:02.175
53.0, -255.67639052076265, -190.10285464767367, -210.05148101132363, -190.3496880447492, 0.1600000075995922, 0.12800000607967377, 1.008000047877431, 0.0, 0.0, 0.0, 0.0, 0.0, 1.6518361221754107E9, 0.0, 2022-05-06 12:22:02.175
54.0, -267.6590299787931, -166.13757573161274, -185.74961109925061, -184.84829520992935, 0.1600000075995922, 0.12800000607967377, 1.008000047877431, 0.0, 0.0, 0.0, 0.0, 0.0, 1.6518361221763654E9, 0.0, 2022-05-06 12:22:02.176
54.0, -226.58370876545087, -85.29215838946402, -116.44178512040526, -161.45896088704467, 0.1600000075995922, 0.12800000607967377, 1.008000047877431, 0.0, 0.0, 0.0, 0.0, 0.0, 1.6518361221763654E9, 0.0, 2022-05-06 12:22:02.176
55.0, -219.98278534365818, -90.57289712689817, -131.9511502366513, -154.43168887030333, 0.1600000075995922, 0.12800000607967377, 1.008000047877431, 0.0, 0.0, 0.0, 0.0, 0.0, 1.651836122177348E9, 0.0, 2022-05-06 12:22:02.177
55.0, -254.79751403117552, -177.22637910023332, -200.8027084209025, -177.013204802759, 0.1600000075995922, 0.12800000607967377, 1.008000047877431, 0.0, 0.0, 0.0, 0.0, 0.0, 1.651836122177348E9, 0.0, 2022-05-06 12:22:02.177
56.0, -258.5935124862008, -161.3392840884626, -178.92055378016084, -178.14639448933303, 0.1600000075995922, 0.12800000607967377, 1.008000047877431, 0.0, 0.0, 0.0, 0.0, 0.0, 1.6518361221894083E9, 0.0, 2022-05-06 12:22:02.189
56.0, -232.23095769854262, -86.90031537041068, -113.91361275035888, -157.17303553782403, 0.1600000075995922, 0.12800000607967377, 1.008000047877431, 0.0, 0.0, 0.0, 0.0, 0.0, 1.6518361221894083E9, 0.0, 2022-05-06 12:22:02.189
57.0, -216.35882228659466, -90.4120814288035, -126.53203520085663, -144.23672159109265, 0.1600000075995922, 0.12800000607967377, 1.008000047877431, 0.0, 0.0, 0.0, 0.0, 0.0, 1.6518361222044451E9, 0.0, 2022-05-06 12:22:02.204
57.0, -246.29298153193668, -173.95770653896034, -201.16173881664872, -170.1878873836249, 0.1600000075995922, 0.12800000607967377, 1.008000047877431, 0.0, 0.0, 0.0, 0.0, 0.0, 1.6518361222044451E9, 0.0, 2022-05-06 12:22:02.204
58.0, -253.44367024721578, -168.4488339042291, -180.81294315773994, -181.9349131444469, 0.1600000075995922, 0.12800000607967377, 1.008000047877431, 0.0, 0.0, 0.0, 0.0, 0.0, 1.651836122205362E9, 0.0, 2022-05-06 12:22:02.205
58.0, -216.17930708872154, -77.68894177954644, -107.29398982878774, -143.9599689943716, 0.1600000075995922, 0.12800000607967377, 1.008000047877431, 0.0, 0.0, 0.0, 0.0, 0.0, 1.651836122205362E9, 0.0, 2022-05-06 12:22:02.205
59.0, -231.41939940815791, -102.48073858581483, -142.05635991692543, -155.99122715182602, 0.1600000075995922, 0.12800000607967377, 1.008000047877431, 0.0, 0.0, 0.0, 0.0, 0.0, 1.651836122235417E9, 0.0, 2022-05-06 12:22:02.235
59.0, -264.6671100142412, -186.6023082891479, -212.19818358588964, -196.48686387203634, 0.1600000075995922, 0.12800000607967377, 1.008000047877431, 0.0, 0.0, 0.0, 0.0, 0.0, 1.651836122235417E9, 0.0, 2022-05-06 12:22:02.235
60.0, -269.09141166182235, -176.32132331095636, -191.89426672644913, -196.06425517704338, 0.1600000075995922, 0.12800000607967377, 1.0240000486373901, 0.0, 0.0, 0.0, 0.0, 0.0, 1.6518361222363524E9, 0.0, 2022-05-06 12:22:02.236
60.0, -233.36788728507236, -86.41412837617099, -111.75195057597011, -152.61409749183804, 0.1600000075995922, 0.12800000607967377, 1.0240000486373901, 0.0, 0.0, 0.0, 0.0, 0.0, 1.6518361222363524E9, 0.0, 2022-05-06 12:22:02.236
61.0, -223.3823544033803, -103.92433996871114, -134.16517101041973, -157.65922253206372, 0.1600000075995922, 0.12800000607967377, 1.0240000486373901, 0.0, 0.0, 0.0, 0.0, 0.0, 1.6518361222373333E9, 0.0, 2022-05-06 12:22:02.237
61.0, -241.73778338590637, -166.47416672762483, -185.91790659725666, -155.11983046215028, 0.1600000075995922, 0.12800000607967377, 1.0240000486373901, 0.0, 0.0, 0.0, 0.0, 0.0, 1.6518361222373333E9, 0.0, 2022-05-06 12:22:02.237
62.0, -251.46152327070013, -163.84501705877483, -182.40988043881953, -184.3471486158669, 0.1600000075995922, 0.12800000607967377, 1.0240000486373901, 0.0, 0.0, 0.0, 0.0, 0.0, 1.6518361222654004E9, 0.0, 2022-05-06 12:22:02.265
62.0, -225.0092108841054, -83.6690418086946, -116.73723721690476, -152.94320868793875, 0.1600000075995922, 0.12800000607967377, 1.0240000486373901, 0.0, 0.0, 0.0, 0.0, 0.0, 1.6518361222654004E9, 0.0, 2022-05-06 12:22:02.265
63.0, -220.22213894082233, -101.44852619804442, -136.52504788246006, -166.88181582279503, 0.1600000075995922, 0.12800000607967377, 1.0240000486373901, 0.0, 0.0, 0.0, 0.0, 0.0, 1.6518361222663612E9, 0.0, 2022-05-06 12:22:02.266
63.0, -262.6176448385231, -191.59881462994963, -207.12687924597412, -187.6831393763423, 0.1600000075995922, 0.12800000607967377, 1.0240000486373901, 0.0, 0.0, 0.0, 0.0, 0.0, 1.6518361222663612E9, 0.0, 2022-05-06 12:22:02.266
64.0, -273.65034970780835, -179.7919504698366, -192.6871255170554, -189.06690235994756, 0.1600000075995922, 0.12800000607967377, 1.0240000486373901, 0.0, 0.0, 0.0, 0.0, 0.0, 1.6518361222673335E9, 0.0, 2022-05-06 12:22:02.267
64.0, -233.43146558431908, -86.54876477457583, -116.23609062284231, -155.21332796104252, 0.1600000075995922, 0.12800000607967377, 1.0240000486373901, 0.0, 0.0, 0.0, 0.0, 0.0, 1.6518361222673335E9, 0.0, 2022-05-06 12:22:02.267
65.0, -208.5611308789812, -80.39288944751024, -114.28386284597218, -141.83196591958404, 0.1600000075995922, 0.12800000607967377, 1.0240000486373901, 0.0, 0.0, 0.0, 0.0, 0.0, 1.65183612227942E9, 0.0, 2022-05-06 12:22:02.279
65.0, -241.6854247865267, -174.6346284309402, -193.910072802566, -173.54257764387876, 0.1600000075995922, 0.12800000607967377, 1.0240000486373901, 0.0, 0.0, 0.0, 0.0, 0.0, 1.65183612227942E9, 0.0, 2022-05-06 12:22:02.279
66.0, -258.1073254919611, -164.91088854614645, -182.7502113347873, -176.44100010953844, 0.1600000075995922, 0.12800000607967377, 1.0240000486373901, 0.0, 0.0, 0.0, 0.0, 0.0, 1.6518361222803378E9, 0.0, 2022-05-06 12:22:02.280
66.0, -224.7586375870742, -77.8123584780842, -111.10868778359145, -147.50539415236562, 0.1600000075995922, 0.12800000607967377, 1.0240000486373901, 0.0, 0.0, 0.0, 0.0, 0.0, 1.6518361222803378E9, 0.0, 2022-05-06 12:22:02.280
67.0, -225.51409737812355, -99.80297021754086, -132.30644073244184, -160.91667539346963, 0.1600000075995922, 0.12800000607967377, 1.0240000486373901, 0.0, 0.0, 0.0, 0.0, 0.0, 1.6518361222933853E9, 0.0, 2022-05-06 12:22:02.293
67.0, -264.3379988181405, -192.65720631740987, -215.05920705199242, -192.91899931430817, 0.1600000075995922, 0.12800000607967377, 1.0240000486373901, 0.0, 0.0, 0.0, 0.0, 0.0, 1.6518361222933853E9, 0.0, 2022-05-06 12:22:02.293
68.0, -251.99632896436378, -166.56766422651708, -187.22313168179244, -182.94468613248318, 0.1600000075995922, 0.12800000607967377, 1.0240000486373901, 0.0, 0.0, 0.0, 0.0, 0.0, 1.6518361223104076E9, 0.0, 2022-05-06 12:22:02.310
68.0, -234.1719657755457, -83.82611760683358, -114.97574433777481, -152.771173289977, 0.1600000075995922, 0.12800000607967377, 1.0240000486373901, 0.0, 0.0, 0.0, 0.0, 0.0, 1.6518361223104076E9, 0.0, 2022-05-06 12:22:02.310
69.0, -218.38958796253428, -85.31459778919816, -121.71878395788372, -152.30368579551578, 0.1600000075995922, 0.12800000607967377, 1.0240000486373901, 0.0, 0.0, 0.0, 0.0, 0.0, 1.6518361223113327E9, 0.0, 2022-05-06 12:22:02.311
69.0, -254.5469407341443, -181.42628675047308, -204.27333557978272, -190.80969573929906, 0.1600000075995922, 0.12800000607967377, 1.0240000486373901, 0.0, 0.0, 0.0, 0.0, 0.0, 1.6518361223113327E9, 0.0, 2022-05-06 12:22:02.311
70.0, -261.49567485181615, -175.40878772176802, -188.43859916739166, -186.91645988542587, 0.1600000075995922, 0.12800000607967377, 1.0240000486373901, 0.0, 0.0, 0.0, 0.0, 0.0, 1.6518361223233924E9, 0.0, 2022-05-06 12:22:02.323
70.0, -216.13068838929757, -65.19019612763077, -101.8262560935691, -140.6613772334531, 0.1600000075995922, 0.12800000607967377, 1.0240000486373901, 0.0, 0.0, 0.0, 0.0, 0.0, 1.6518361223233924E9, 0.0, 2022-05-06 12:22:02.323
71.0, -217.66778727108613, -92.16983440797776, -133.0619005234912, -158.72883391939104, 0.1600000075995922, 0.11200000531971455, 1.0240000486373901, 0.0, 0.0, 0.0, 0.0, 0.0, 1.6518361223393886E9, 0.0, 2022-05-06 12:22:02.339
71.0, -251.52136166999117, -178.72981888242066, -198.14363955240697, -175.0123583264649, 0.1600000075995922, 0.11200000531971455, 1.0240000486373901, 0.0, 0.0, 0.0, 0.0, 0.0, 1.6518361223393886E9, 0.0, 2022-05-06 12:22:02.339
72.0, -260.0333739691414, -169.77275848854333, -181.7479181466624, -173.4939589444548, 0.1600000075995922, 0.11200000531971455, 1.0240000486373901, 0.0, 0.0, 0.0, 0.0, 0.0, 1.651836122340339E9, 0.0, 2022-05-06 12:22:02.340
72.0, -229.88604042632505, -82.97342041693628, -117.2795227104798, -154.12875697389245, 0.1600000075995922, 0.11200000531971455, 1.0240000486373901, 0.0, 0.0, 0.0, 0.0, 0.0, 1.651836122340339E9, 0.0, 2022-05-06 12:22:02.340
73.0, -217.91088076820597, -92.87293559964746, -122.97165044303983, -154.61494396813214, 0.1600000075995922, 0.11200000531971455, 1.0240000486373901, 0.0, 0.0, 0.0, 0.0, 0.0, 1.6518361223534684E9, 0.0, 2022-05-06 12:22:02.353
73.0, -254.46092303516343, -181.21311245299876, -198.9439781429246, -186.37043449189514, 0.1600000075995922, 0.11200000531971455, 1.0240000486373901, 0.0, 0.0, 0.0, 0.0, 0.0, 1.6518361223534684E9, 0.0, 2022-05-06 12:22:02.353
74.0, -264.3604382178746, -178.42688698600978, -186.59108858928084, -183.2737973285839, 0.1600000075995922, 0.11200000531971455, 1.0240000486373901, 0.0, 0.0, 0.0, 0.0, 0.0, 1.6518361223693943E9, 0.0, 2022-05-06 12:22:02.369
74.0, -222.40998041490093, -83.2987917130813, -112.79912256356329, -154.05021907482296, 0.1600000075995922, 0.11200000531971455, 1.0240000486373901, 0.0, 0.0, 0.0, 0.0, 0.0, 1.6518361223693943E9, 0.0, 2022-05-06 12:22:02.369
75.0, -206.16385500738397, -82.01600602827966, -117.78440920449793, -145.2876334786415, 0.1600000075995922, 0.11200000531971455, 1.0240000486373901, 0.0, 0.0, 0.0, 0.0, 0.0, 1.6518361223703427E9, 0.0, 2022-05-06 12:22:02.370
75.0, -248.00585571164265, -179.7171524707228, -199.37032673787326, -181.29913015197963, 0.1600000075995922, 0.11200000531971455, 1.0240000486373901, 0.0, 0.0, 0.0, 0.0, 0.0, 1.6518361223703427E9, 0.0, 2022-05-06 12:22:02.370
76.0, -260.30264676595107, -175.17317402455956, -187.30540948081762, -178.29973038751632, 0.1600000075995922, 0.11200000531971455, 1.0240000486373901, 0.0, 0.0, 0.0, 0.0, 0.0, 1.6518361224004543E9, 0.0, 2022-05-06 12:22:02.400
76.0, -234.7927891681902, -85.09768359176815, -119.52720258384943, -163.75525945983827, 0.1600000075995922, 0.11200000531971455, 1.0240000486373901, 0.0, 0.0, 0.0, 0.0, 0.0, 1.6518361224004543E9, 0.0, 2022-05-06 12:22:02.400
77.0, -213.4903190205805, -88.1157828560099, -126.68163119908422, -160.441708099097, 0.1600000075995922, 0.11200000531971455, 1.0240000486373901, 0.0, 0.0, 0.0, 0.0, 0.0, 1.6518361224013772E9, 0.0, 2022-05-06 12:22:02.401
77.0, -252.9911423525773, -187.73175807576627, -207.15305854566395, -184.94927250873297, 0.1600000075995922, 0.11200000531971455, 1.0240000486373901, 0.0, 0.0, 0.0, 0.0, 0.0, 1.6518361224013772E9, 0.0, 2022-05-06 12:22:02.401
78.0, -262.22121544322, -173.20598664786667, -182.3051632400602, -176.05953031405807, 0.1600000075995922, 0.11200000531971455, 1.0240000486373901, 0.0, 0.0, 0.0, 0.0, 0.0, 1.6518361224023647E9, 0.0, 2022-05-06 12:22:02.402
78.0, -212.3758288337849, -75.43752200622112, -108.63287401292473, -148.8480182364583, 0.1600000075995922, 0.11200000531971455, 1.0240000486373901, 0.0, 0.0, 0.0, 0.0, 0.0, 1.6518361224023647E9, 0.0, 2022-05-06 12:22:02.402
79.0, -213.77829131716862, -83.3735897121951, -120.97828376665711, -151.97457459941506, 0.1600000075995922, 0.11200000531971455, 1.0240000486373901, 0.0, 0.0, 0.0, 0.0, 0.0, 1.6518361224303992E9, 0.0, 2022-05-06 12:22:02.430
79.0, -238.8730200198479, -168.9649400981143, -195.66408588178456, -174.47381273284554, 0.1600000075995922, 0.11200000531971455, 1.0240000486373901, 0.0, 0.0, 0.0, 0.0, 0.0, 1.6518361224303992E9, 0.0, 2022-05-06 12:22:02.430
80.0, -252.52739475807175, -170.59179657883942, -186.65840678848326, -180.36415516305715, 0.1600000075995922, 0.11200000531971455, 1.0240000486373901, 0.0, 0.0, 0.0, 0.0, 0.0, 1.6518361224313407E9, 0.0, 2022-05-06 12:22:02.431
80.0, -250.12263908656314, -96.26502485945821, -130.12233915831894, -165.62146953772753, 0.1600000075995922, 0.11200000531971455, 1.0240000486373901, 0.0, 0.0, 0.0, 0.0, 0.0, 1.6518361224313407E9, 0.0, 2022-05-06 12:22:02.431
81.0, -228.44991884334013, -96.59787595551461, -138.35385896079242, -170.83862997591496, 0.1600000075995922, 0.11200000531971455, 1.0240000486373901, 0.0, 0.0, 0.0, 0.0, 0.0, 1.6518361224323585E9, 0.0, 2022-05-06 12:22:02.432
81.0, -253.77652134327218, -183.11298163048923, -202.3921659020707, -179.7844706699252, 0.1600000075995922, 0.11200000531971455, 1.0240000486373901, 0.0, 0.0, 0.0, 0.0, 0.0, 1.6518361224323585E9, 0.0, 2022-05-06 12:22:02.432
82.0, -266.7689337893389, -185.46911860257387, -200.7578296214342, -191.22482463438064, 0.1600000075995922, 0.11200000531971455, 1.0240000486373901, 0.0, 0.0, 0.0, 0.0, 0.0, 1.651836122460404E9, 0.0, 2022-05-06 12:22:02.460
82.0, -216.7141127823852, -88.16440155543387, -115.93689862638712, -151.72026140242815, 0.1600000075995922, 0.11200000531971455, 1.0240000486373901, 0.0, 0.0, 0.0, 0.0, 0.0, 1.651836122460404E9, 0.0, 2022-05-06 12:22:02.460
83.0, -217.43965337378904, -89.49580593965948, -126.52829530090094, -153.89688317663968, 0.1600000075995922, 0.11200000531971455, 1.0240000486373901, 0.0, 0.0, 0.0, 0.0, 0.0, 1.6518361224613433E9, 0.0, 2022-05-06 12:22:02.461
83.0, -246.27802193211392, -174.32421673461795, -190.94807203765959, -164.31624445319176, 0.1600000075995922, 0.11200000531971455, 1.0240000486373901, 0.0, 0.0, 0.0, 0.0, 0.0, 1.6518361224613433E9, 0.0, 2022-05-06 12:22:02.461
84.0, -251.8429930661805, -163.8599766585976, -180.76058455836028, -180.48009206168354, 0.1600000075995922, 0.11200000531971455, 1.0240000486373901, 0.0, 0.0, 0.0, 0.0, 0.0, 1.651836122462401E9, 0.0, 2022-05-06 12:22:02.462
84.0, -221.21695232903585, -72.57649854011834, -105.00891095586121, -147.01172735821456, 0.1600000075995922, 0.11200000531971455, 1.0240000486373901, 0.0, 0.0, 0.0, 0.0, 0.0, 1.651836122462401E9, 0.0, 2022-05-06 12:22:02.462
85.0, -200.55026517389342, -71.17029615677893, -104.79947655834258, -134.20257000997663, 0.1600000075995922, 0.11200000531971455, 1.0240000486373901, 0.0, 0.0, 0.0, 0.0, 0.0, 1.6518361224904132E9, 0.0, 2022-05-06 12:22:02.490
85.0, -233.97001117793843, -159.9256019052118, -177.6078488957137, -154.8168985657394, 0.1600000075995922, 0.11200000531971455, 1.0240000486373901, 0.0, 0.0, 0.0, 0.0, 0.0, 1.6518361224904132E9, 0.0, 2022-05-06 12:22:02.490
86.0, -265.20191570790485, -180.33049606345594, -202.0181759065017, -199.34788733813912, 0.1600000075995922, 0.11200000531971455, 1.0240000486373901, 0.0, 0.0, 0.0, 0.0, 0.0, 1.651836122491366E9, 0.0, 2022-05-06 12:22:02.491
86.0, -232.986417489592, -91.36575591750443, -121.73000365775079, -168.8564829993993, 0.1600000075995922, 0.11200000531971455, 1.0240000486373901, 0.0, 0.0, 0.0, 0.0, 0.0, 1.651836122491366E9, 0.0, 2022-05-06 12:22:02.491
87.0, -211.9756595385261, -83.39602911192924, -118.99239689018577, -156.99352033995092, 0.1600000075995922, 0.11200000531971455, 1.0240000486373901, 0.0, 0.0, 0.0, 0.0, 0.0, 1.651836122492365E9, 0.0, 2022-05-06 12:22:02.492
87.0, -252.07486686343327, -183.96567882038653, -196.25125017482787, -179.4516195738688, 0.1600000075995922, 0.11200000531971455, 1.0240000486373901, 0.0, 0.0, 0.0, 0.0, 0.0, 1.651836122492365E9, 0.0, 2022-05-06 12:22:02.492
88.0, -263.9153901231475, -182.5669562369585, -194.91610589064658, -189.13796045910567, 0.1600000075995922, 0.11200000531971455, 1.0240000486373901, 0.0, 0.0, 0.0, 0.0, 0.0, 1.6518361225204415E9, 0.0, 2022-05-06 12:22:02.520
88.0, -224.3061096924357, -85.98777978122234, -118.42019219696522, -154.93283546436578, 0.1600000075995922, 0.11200000531971455, 1.0240000486373901, 0.0, 0.0, 0.0, 0.0, 0.0, 1.6518361225204415E9, 0.0, 2022-05-06 12:22:02.520
89.0, -213.51649832027033, -85.49037308711559, -116.98781051393598, -154.8879566648975, 0.1600000075995922, 0.11200000531971455, 1.0240000486373901, 0.0, 0.0, 0.0, 0.0, 0.0, 1.6518361225213392E9, 0.0, 2022-05-06 12:22:02.521
89.0, -244.66986495116726, -173.80063074082136, -195.48083078395575, -177.84346259292215, 0.1600000075995922, 0.11200000531971455, 1.0240000486373901, 0.0, 0.0, 0.0, 0.0, 0.0, 1.6518361225213392E9, 0.0, 2022-05-06 12:22:02.521
90.0, -255.82598651899025, -169.90365498699248, -185.80570959858596, -182.78387043438852, 0.1600000075995922, 0.11200000531971455, 1.0240000486373901, 0.0, 0.0, 0.0, 0.0, 0.0, 1.6518361225223927E9, 0.0, 2022-05-06 12:22:02.522
90.0, -229.96831822535023, -90.84590982366353, -119.25792978703976, -159.73112710751593, 0.1600000075995922, 0.11200000531971455, 1.0240000486373901, 0.0, 0.0, 0.0, 0.0, 0.0, 1.6518361225223927E9, 0.0, 2022-05-06 12:22:02.522
91.0, -210.7527122530155, -82.85000371839851, -119.55338188353926, -156.45871464628726, 0.1600000075995922, 0.11200000531971455, 1.0240000486373901, 0.0, 0.0, 0.0, 0.0, 0.0, 1.6518361225334141E9, 0.0, 2022-05-06 12:22:02.533
91.0, -247.68422431545332, -169.84007668774575, -189.5381297543645, -167.24832601845264, 0.1600000075995922, 0.11200000531971455, 1.0240000486373901, 0.0, 0.0, 0.0, 0.0, 0.0, 1.6518361225334141E9, 0.0, 2022-05-06 12:22:02.533
92.0, -246.38647903082892, -166.33953032922, -179.07762957829982, -160.815698094666, 0.1600000075995922, 0.11200000531971455, 1.0240000486373901, 0.0, 0.0, 0.0, 0.0, 0.0, 1.6518361225494003E9, 0.0, 2022-05-06 12:22:02.549
92.0, -217.77998426975682, -83.38106951210648, -110.06151579599828, -152.98434758745134, 0.1600000075995922, 0.11200000531971455, 1.0240000486373901, 0.0, 0.0, 0.0, 0.0, 0.0, 1.6518361225494003E9, 0.0, 2022-05-06 12:22:02.549
93.0, -202.46509395120665, -64.57311263494194, -102.4209001865238, -134.81965350266546, 0.1600000075995922, 0.11200000531971455, 1.0240000486373901, 0.0, 0.0, 0.0, 0.0, 0.0, 1.6518361225503817E9, 0.0, 2022-05-06 12:22:02.550
93.0, -246.64079222781584, -174.10356263723224, -194.63935329392552, -173.06387044955045, 0.1600000075995922, 0.11200000531971455, 1.0240000486373901, 0.0, 0.0, 0.0, 0.0, 0.0, 1.6518361225503817E9, 0.0, 2022-05-06 12:22:02.550
94.0, -267.9245628756471, -181.78157724626362, -193.58096160646528, -190.0130970487371, 0.1600000075995922, 0.11200000531971455, 1.0240000486373901, 0.0, 0.0, 0.0, 0.0, 0.0, 1.6518361225943902E9, 0.0, 2022-05-06 12:22:02.594
94.0, -230.06181572424248, -91.5265716155991, -120.55941497161984, -155.13479006197304, 0.1600000075995922, 0.11200000531971455, 1.0240000486373901, 0.0, 0.0, 0.0, 0.0, 0.0, 1.6518361225943902E9, 0.0, 2022-05-06 12:22:02.594
95.0, -199.14032289059833, -78.26862627267838, -116.29592902213335, -147.37823755387217, 0.1600000075995922, 0.11200000531971455, 1.0240000486373901, 0.0, 0.0, 0.0, 0.0, 0.0, 1.6518361226113908E9, 0.0, 2022-05-06 12:22:02.611
95.0, -242.1005536816083, -168.1197227081284, -188.8350285626948, -171.0779835730791, 0.1600000075995922, 0.11200000531971455, 1.0240000486373901, 0.0, 0.0, 0.0, 0.0, 0.0, 1.6518361226113908E9, 0.0, 2022-05-06 12:22:02.611
96.0, -261.1852631554939, -179.24218517635018, -194.5383759951219, -189.51569035463035, 0.1600000075995922, 0.11200000531971455, 1.0240000486373901, 0.0, 0.0, 0.0, 0.0, 0.0, 1.6518361226123328E9, 0.0, 2022-05-06 12:22:02.612
96.0, -222.48103851405904, -89.62296253815293, -117.48521720804274, -161.50009978655726, 0.1600000075995922, 0.11200000531971455, 1.0240000486373901, 0.0, 0.0, 0.0, 0.0, 0.0, 1.6518361226123328E9, 0.0, 2022-05-06 12:22:02.612
97.0, -202.5548515501432, -80.53500564582646, -114.4596381438896, -143.7318350970745, 0.1600000075995922, 0.11200000531971455, 1.0240000486373901, 0.0, 0.0, 0.0, 0.0, 0.0, 1.651836122613336E9, 0.0, 2022-05-06 12:22:02.613
97.0, -242.5007229768671, -168.05988430883735, -192.03264302480966, -179.66105397138745, 0.1600000075995922, 0.11200000531971455, 1.0240000486373901, 0.0, 0.0, 0.0, 0.0, 0.0, 1.651836122613336E9, 0.0, 2022-05-06 12:22:02.613
98.0, -269.39060365827754, -182.6417542360723, -202.33232750277966, -197.88932635542005, 0.1600000075995922, 0.11200000531971455, 1.0240000486373901, 0.0, 0.0, 0.0, 0.0, 0.0, 1.6518361226143315E9, 0.0, 2022-05-06 12:22:02.614
98.0, -239.318068114575, -100.33029611129314, -130.14851845800877, -165.0417850445956, 0.1600000075995922, 0.11200000531971455, 1.0240000486373901, 0.0, 0.0, 0.0, 0.0, 0.0, 1.6518361226143315E9, 0.0, 2022-05-06 12:22:02.614
99.0, -211.79614434065297, -80.24703334923834, -112.82530186325312, -153.4854941815138, 0.1600000075995922, 0.11200000531971455, 1.0240000486373901, 0.0, 0.0, 0.0, 0.0, 0.0, 1.6518361226413877E9, 0.0, 2022-05-06 12:22:02.641
99.0, -240.4662174009718, -166.930434522219, -183.1989993294701, -169.1893340954557, 0.1600000075995922, 0.11200000531971455, 1.0240000486373901, 0.0, 0.0, 0.0, 0.0, 0.0, 1.6518361226413877E9, 0.0, 2022-05-06 12:22:02.641
100.0, -254.09441283950582, -170.4908192800358, -187.9823313727975, -171.6726276660338, 0.1600000075995922, 0.11200000531971455, 1.0240000486373901, 0.0, 0.0, 0.0, 0.0, 0.0, 1.651836122642404E9, 0.0, 2022-05-06 12:22:02.642
100.0, -227.69071915233508, -85.73720648419112, -119.52720258384943, -158.31370502430946, 0.1600000075995922, 0.11200000531971455, 1.0240000486373901, 0.0, 0.0, 0.0, 0.0, 0.0, 1.651836122642404E9, 0.0, 2022-05-06 12:22:02.642
0.0, -214.16724091256037, -83.18285481445491, -114.21280474681407, -146.1646400182508, 0.1600000075995922, 0.11200000531971455, 1.0240000486373901, 0.0, 0.0, 0.0, 0.0, 0.0, 1.6518361226433556E9, 0.0, 2022-05-06 12:22:02.643
1.0, -249.2512423968874, -179.07014977838844, -200.37261992599815, -181.34213900147006, 0.1600000075995922, 0.11200000531971455, 1.0240000486373901, 0.0, 0.0, 0.0, 0.0, 0.0, 1.6518361226443367E9, 0.0, 2022-05-06 12:22:02.644
1.0, -269.3980834581889, -183.41217362694442, -201.7227238100022, -188.94535561138764, 0.1600000075995922, 0.11200000531971455, 1.0240000486373901, 0.0, 0.0, 0.0, 0.0, 0.0, 1.6518361226443367E9, 0.0, 2022-05-06 12:22:02.644
2.0, -230.1627930230461, -90.99924572184682, -123.84678703267127, -151.96522484952584, 0.1600000075995922, 0.11200000531971455, 1.0240000486373901, 0.0, 0.0, 0.0, 0.0, 0.0, 1.6518361226704037E9, 0.0, 2022-05-06 12:22:02.670
2.0, -209.7803382645361, -77.24015378486365, -112.72432456444949, -150.04665617225692, 0.1600000075995922, 0.11200000531971455, 1.0240000486373901, 0.0, 0.0, 0.0, 0.0, 0.0, 1.6518361226704037E9, 0.0, 2022-05-06 12:22:02.670
3.0, -254.5095417345874, -177.3797149984166, -193.56226210668683, -180.17155031533912, 0.1600000075995922, 0.11200000531971455, 1.0240000486373901, 0.0, 0.0, 0.0, 0.0, 0.0, 1.6518361226713316E9, 0.0, 2022-05-06 12:22:02.671
3.0, -268.926856063772, -188.7901497632265, -206.14702545758337, -193.58657145639881, 0.1600000075995922, 0.11200000531971455, 1.0240000486373901, 0.0, 0.0, 0.0, 0.0, 0.0, 1.6518361226713316E9, 0.0, 2022-05-06 12:22:02.671
4.0, -228.51349714258686, -94.23425918351859, -121.50560966040939, -153.4611848318018, 0.1600000075995922, 0.11200000531971455, 1.0240000486373901, 0.0, 0.0, 0.0, 0.0, 0.0, 1.651836122672334E9, 0.0, 2022-05-06 12:22:02.672
4.0, -224.61278148880228, -88.80766434781253, -127.71758348681033, -152.87776043871418, 0.1600000075995922, 0.11200000531971455, 1.0240000486373901, 0.0, 0.0, 0.0, 0.0, 0.0, 1.651836122672334E9, 0.0, 2022-05-06 12:22:02.672
5.0, -256.2411154140718, -178.49794508516788, -205.42148486617953, -198.42226209910586, 0.1600000075995922, 0.11200000531971455, 1.0240000486373901, 0.0, 0.0, 0.0, 0.0, 0.0, 1.6518361227003858E9, 0.0, 2022-05-06 12:22:02.700
5.0, -269.94036895176396, -190.02431674860418, -206.56215435266495, -195.6996149313636, 0.1600000075995922, 0.11200000531971455, 1.0240000486373901, 0.0, 0.0, 0.0, 0.0, 0.0, 1.6518361227003858E9, 0.0, 2022-05-06 12:22:02.700
6.0, -248.33496690774336, -97.53285094443709, -128.0242552831769, -166.1319658816792, 0.1600000075995922, 0.11200000531971455, 1.0240000486373901, 0.0, 0.0, 0.0, 0.0, 0.0, 1.6518361227013402E9, 0.0, 2022-05-06 12:22:02.701
6.0, -232.14120009960607, -91.51161201577634, -127.56050768867135, -155.78740260424092, 0.1600000075995922, 0.11200000531971455, 1.0240000486373901, 0.0, 0.0, 0.0, 0.0, 0.0, 1.6518361227013402E9, 0.0, 2022-05-06 12:22:02.701
7.0, -260.1754901674576, -181.91995354462415, -200.5820543235168, -189.05755261005834, 0.1600000075995922, 0.11200000531971455, 1.0240000486373901, 0.0, 0.0, 0.0, 0.0, 0.0, 1.651836122702344E9, 0.0, 2022-05-06 12:22:02.702
7.0, -265.5796456034295, -181.13457455392927, -201.19539791624993, -181.9891416938044, 0.1600000075995922, 0.11200000531971455, 1.0240000486373901, 0.0, 0.0, 0.0, 0.0, 0.0, 1.651836122702344E9, 0.0, 2022-05-06 12:22:02.702
8.0, -245.41410504234955, -101.14933420158923, -132.42611753102392, -164.2395765041001, 0.1600000075995922, 0.11200000531971455, 1.0240000486373901, 0.0, 0.0, 0.0, 0.0, 0.0, 1.6518361227144036E9, 0.0, 2022-05-06 12:22:02.714
8.0, -221.39272762695327, -81.94120802916586, -116.07901482470334, -144.36574813956395, 0.1600000075995922, 0.11200000531971455, 1.0240000486373901, 0.0, 0.0, 0.0, 0.0, 0.0, 1.6518361227144036E9, 0.0, 2022-05-06 12:22:02.714
9.0, -252.52739475807175, -175.88749491609633, -195.50701008364558, -180.98684850567952, 0.1600000075995922, 0.11200000531971455, 1.0240000486373901, 0.0, 0.0, 0.0, 0.0, 0.0, 1.651836122729378E9, 0.0, 2022-05-06 12:22:02.729
9.0, -269.52897995663807, -186.65840678848326, -200.69799122214317, -183.52624057559296, 0.1600000075995922, 0.11200000531971455, 1.0240000486373901, 0.0, 0.0, 0.0, 0.0, 0.0, 1.651836122729378E9, 0.0, 2022-05-06 12:22:02.729
10.0, -228.82390883890912, -83.69522110838443, -115.89949962683022, -144.29469004040584, 0.1600000075995922, 0.11200000531971455, 1.0240000486373901, 0.0, 0.0, 0.0, 0.0, 0.0, 1.6518361227303224E9, 0.0, 2022-05-06 12:22:02.730
10.0, -215.38644829811528, -76.25282019656152, -117.10000751260668, -158.16223907610402, 0.1600000075995922, 0.11200000531971455, 1.0240000486373901, 0.0, 0.0, 0.0, 0.0, 0.0, 1.6518361227303224E9, 0.0, 2022-05-06 12:22:02.730
11.0, -244.841900349129, -163.80013825930655, -187.11467458307743, -179.92471691826358, 0.1600000075995922, 0.11200000531971455, 1.0240000486373901, 0.0, 0.0, 0.0, 0.0, 0.0, 1.651836122760384E9, 0.0, 2022-05-06 12:22:02.760
11.0, -273.5905113085173, -199.0225160419941, -213.46226977091283, -197.50972650991753, 0.1600000075995922, 0.11200000531971455, 1.0240000486373901, 0.0, 0.0, 0.0, 0.0, 0.0, 1.651836122760384E9, 0.0, 2022-05-06 12:22:02.760
12.0, -239.14229281665757, -95.9695727629587, -127.53058848902583, -159.93495165510103, 0.1600000075995922, 0.11200000531971455, 1.0240000486373901, 0.0, 0.0, 0.0, 0.0, 0.0, 1.6518361227613456E9, 0.0, 2022-05-06 12:22:02.761
12.0, -227.14469375880435, -85.80078478343785, -122.93425144348294, -152.4962906432338, 0.1600000075995922, 0.11200000531971455, 1.0240000486373901, 0.0, 0.0, 0.0, 0.0, 0.0, 1.6518361227613456E9, 0.0, 2022-05-06 12:22:02.761
13.0, -253.36887224810198, -174.76926482934505, -200.9822236187756, -187.16142333252355, 0.1600000075995922, 0.11200000531971455, 1.0240000486373901, 0.0, 0.0, 0.0, 0.0, 0.0, 1.6518361227623904E9, 0.0, 2022-05-06 12:22:02.762
13.0, -269.9254093519412, -180.98123865574598, -200.0622082296759, -188.94535561138764, 0.1600000075995922, 0.11200000531971455, 1.0240000486373901, 0.0, 0.0, 0.0, 0.0, 0.0, 1.6518361227623904E9, 0.0, 2022-05-06 12:22:02.762
14.0, -225.54775647772476, -85.1500421911478, -110.58136188983917, -136.39228143403307, 0.1600000075995922, 0.11200000531971455, 1.0240000486373901, 0.0, 0.0, 0.0, 0.0, 0.0, 1.6518361227903872E9, 0.0, 2022-05-06 12:22:02.790
14.0, -197.79769880650565, -62.83405915554613, -100.89502100460231, -116.71666776714846, 0.1600000075995922, 0.11200000531971455, 1.0240000486373901, 0.0, 0.0, 0.0, 0.0, 0.0, 1.6518361227903872E9, 0.0, 2022-05-06 12:22:02.790
15.0, -232.32819509739056, -153.7435472784564, -183.0157442316413, -173.63046529283747, 0.1600000075995922, 0.11200000531971455, 1.0240000486373901, 0.0, 0.0, 0.0, 0.0, 0.0, 1.651836122791401E9, 0.0, 2022-05-06 12:22:02.791
15.0, -290.72299300553277, -189.95699854940176, -213.8026006668806, -205.7113271127455, 0.1600000075995922, 0.11200000531971455, 1.0240000486373901, 0.0, 0.0, 0.0, 0.0, 0.0, 1.651836122791401E9, 0.0, 2022-05-06 12:22:02.791
16.0, -254.8049938310869, -105.51379744987935, -141.05406672880054, -180.85221210727468, 0.1600000075995922, 0.11200000531971455, 1.0240000486373901, 0.0, 0.0, 0.0, 0.0, 0.0, 1.6518361227923417E9, 0.0, 2022-05-06 12:22:02.792
16.0, -225.14384728251025, -83.83733730670065, -124.1684184288606, -161.5356288361363, 0.1600000075995922, 0.11200000531971455, 1.0240000486373901, 0.0, 0.0, 0.0, 0.0, 0.0, 1.6518361227923417E9, 0.0, 2022-05-06 12:22:02.792
17.0, -241.5433085882105, -165.50927253905684, -186.58360878936946, -175.57521326979622, 0.1600000075995922, 0.11200000531971455, 1.0240000486373901, 0.0, 0.0, 0.0, 0.0, 0.0, 1.651836122819401E9, 0.0, 2022-05-06 12:22:02.819
17.0, -258.04374719271436, -187.51858377829194, -203.15136559307575, -171.97742951242253, 0.1600000075995922, 0.11200000531971455, 1.0240000486373901, 0.0, 0.0, 0.0, 0.0, 0.0, 1.651836122819401E9, 0.0, 2022-05-06 12:22:02.819
18.0, -248.36488610738888, -96.50437845662236, -126.61057309992611, -156.8345745918341, 0.1600000075995922, 0.11200000531971455, 1.0240000486373901, 0.0, 0.0, 0.0, 0.0, 0.0, 1.6518361228523936E9, 0.0, 2022-05-06 12:22:02.852
18.0, -215.50238519674167, -68.79545968491584, -109.77354349941015, -151.09756805980578, 0.1600000075995922, 0.11200000531971455, 1.0240000486373901, 0.0, 0.0, 0.0, 0.0, 0.0, 1.6518361228523936E9, 0.0, 2022-05-06 12:22:02.852
19.0, -253.86253904225305, -172.95541335083544, -196.4270254727453, -189.50634060474113, 0.1600000075995922, 0.11200000531971455, 1.0240000486373901, 0.0, 0.0, 0.0, 0.0, 0.0, 1.6518361228533587E9, 0.0, 2022-05-06 12:22:02.853
19.0, -277.19951476575807, -192.5412694187835, -211.86907238978893, -189.12487080926076, 0.1600000075995922, 0.11200000531971455, 1.0240000486373901, 0.0, 0.0, 0.0, 0.0, 0.0, 1.6518361228533587E9, 0.0, 2022-05-06 12:22:02.853
20.0, -241.11322009330615, -102.94074628036469, -134.30728720873594, -167.95703706005588, 0.1600000075995922, 0.11200000531971455, 1.008000047877431, 0.0, 0.0, 0.0, 0.0, 0.0, 1.6518361228543367E9, 0.0, 2022-05-06 12:22:02.854
20.0, -215.8576756925322, -75.97606759984046, -118.82036149222404, -157.84060767991468, 0.1600000075995922, 0.11200000531971455, 1.008000047877431, 0.0, 0.0, 0.0, 0.0, 0.0, 1.6518361228543367E9, 0.0, 2022-05-06 12:22:02.854
21.0, -249.99922238802537, -163.03345876839012, -186.53872998990119, -178.9897419293411, 0.1600000075995922, 0.11200000531971455, 1.008000047877431, 0.0, 0.0, 0.0, 0.0, 0.0, 1.6518361228553448E9, 0.0, 2022-05-06 12:22:02.855
21.0, -258.64213118562475, -177.8285029930994, -192.78436291590333, -166.93978427210823, 0.1600000075995922, 0.11200000531971455, 1.008000047877431, 0.0, 0.0, 0.0, 0.0, 0.0, 1.6518361228553448E9, 0.0, 2022-05-06 12:22:02.855
22.0, -236.15785265201703, -105.61477474868298, -131.90627143718302, -160.36130025004968, 0.1600000075995922, 0.11200000531971455, 1.008000047877431, 0.0, 0.0, 0.0, 0.0, 0.0, 1.651836122881402E9, 0.0, 2022-05-06 12:22:02.881
22.0, -207.12874919595197, -67.35933810193092, -102.91082708071917, -144.76217753486708, 0.1600000075995922, 0.11200000531971455, 1.008000047877431, 0.0, 0.0, 0.0, 0.0, 0.0, 1.651836122881402E9, 0.0, 2022-05-06 12:22:02.881
23.0, -252.6582912565209, -168.7442860007286, -190.48432444315404, -180.31366651365533, 0.1600000075995922, 0.11200000531971455, 1.008000047877431, 0.0, 0.0, 0.0, 0.0, 0.0, 1.6518361228823323E9, 0.0, 2022-05-06 12:22:02.882
23.0, -274.60776409646496, -192.10370112396777, -212.35151948407292, -197.49850681005046, 0.1600000075995922, 0.11200000531971455, 1.008000047877431, 0.0, 0.0, 0.0, 0.0, 0.0, 1.6518361228823323E9, 0.0, 2022-05-06 12:22:02.882
24.0, -250.66866448009387, -112.29797596950084, -142.3966908128932, -176.22969576204196, 0.1600000075995922, 0.11200000531971455, 1.008000047877431, 0.0, 0.0, 0.0, 0.0, 0.0, 1.651836122895403E9, 0.0, 2022-05-06 12:22:02.895
24.0, -222.69047291157767, -85.1500421911478, -121.91699865553528, -154.6841321173124, 0.1600000075995922, 0.11200000531971455, 1.008000047877431, 0.0, 0.0, 0.0, 0.0, 0.0, 1.651836122895403E9, 0.0, 2022-05-06 12:22:02.895
25.0, -249.46441669436172, -169.46982659213245, -190.06919554807246, -179.79382041981444, 0.1600000075995922, 0.11200000531971455, 1.008000047877431, 0.0, 0.0, 0.0, 0.0, 0.0, 1.6518361228964288E9, 0.0, 2022-05-06 12:22:02.896
25.0, -263.79197342460975, -178.58022288419306, -195.48083078395575, -175.85196586651728, 0.1600000075995922, 0.11200000531971455, 1.008000047877431, 0.0, 0.0, 0.0, 0.0, 0.0, 1.6518361228964288E9, 0.0, 2022-05-06 12:22:02.896
26.0, -238.44667142489925, -94.10336268506944, -122.1675719525665, -149.68762577651069, 0.1600000075995922, 0.11200000531971455, 1.008000047877431, 0.0, 0.0, 0.0, 0.0, 0.0, 1.6518361228973508E9, 0.0, 2022-05-06 12:22:02.897
26.0, -218.89447445655242, -74.30433231964707, -102.03195059113204, -133.79679086478427, 0.1600000075995922, 0.11200000531971455, 1.008000047877431, 0.0, 0.0, 0.0, 0.0, 0.0, 1.6518361228973508E9, 0.0, 2022-05-06 12:22:02.897
27.0, -246.30046133184806, -159.74982660729438, -184.5304037136957, -167.31377426767722, 0.1600000075995922, 0.11200000531971455, 1.008000047877431, 0.0, 0.0, 0.0, 0.0, 0.0, 1.6518361228983452E9, 0.0, 2022-05-06 12:22:02.898
27.0, -259.31157327769324, -186.57986888941377, -206.10962645802647, -186.6228777389042, 0.1600000075995922, 0.11200000531971455, 1.008000047877431, 0.0, 0.0, 0.0, 0.0, 0.0, 1.6518361228983452E9, 0.0, 2022-05-06 12:22:02.898
28.0, -260.3213462657295, -118.6483260942623, -149.85779122449458, -188.01038062246516, 0.1600000075995922, 0.11200000531971455, 1.008000047877431, 0.0, 0.0, 0.0, 0.0, 0.0, 1.6518361229084048E9, 0.0, 2022-05-06 12:22:02.908
28.0, -212.10655603697523, -72.26608684379607, -102.0095111913979, -140.3416157872416, 0.1600000075995922, 0.11200000531971455, 1.008000047877431, 0.0, 0.0, 0.0, 0.0, 0.0, 1.6518361229084048E9, 0.0, 2022-05-06 12:22:02.908
29.0, -240.17824510438368, -155.0001536635682, -180.74188505858183, -176.9589762534015, 0.1600000075995922, 0.11200000531971455, 1.008000047877431, 0.0, 0.0, 0.0, 0.0, 0.0, 1.6518361229393835E9, 0.0, 2022-05-06 12:22:02.939
29.0, -273.35863751126453, -192.3505345210433, -207.55696774087846, -191.57450528023764, 0.1600000075995922, 0.11200000531971455, 1.008000047877431, 0.0, 0.0, 0.0, 0.0, 0.0, 1.6518361229393835E9, 0.0, 2022-05-06 12:22:02.939
30.0, -245.14857214549556, -112.47375126741827, -145.09315868094563, -176.78320095548406, 0.1600000075995922, 0.11200000531971455, 1.008000047877431, 0.0, 0.0, 0.0, 0.0, 0.0, 1.651836122955387E9, 0.0, 2022-05-06 12:22:02.955
30.0, -215.0498573021032, -80.94639464095235, -115.19265853520483, -153.73793742852286, 0.1600000075995922, 0.11200000531971455, 1.008000047877431, 0.0, 0.0, 0.0, 0.0, 0.0, 1.651836122955387E9, 0.0, 2022-05-06 12:22:02.955
31.0, -253.3277333485894, -160.69602129608393, -181.43002665042877, -176.0314810643904, 0.1600000075995922, 0.11200000531971455, 1.008000047877431, 0.0, 0.0, 0.0, 0.0, 0.0, 1.651836122956345E9, 0.0, 2022-05-06 12:22:02.956
31.0, -264.94386261096224, -177.80980349332094, -199.87895313184708, -185.83375884825364, 0.1600000075995922, 0.11200000531971455, 1.008000047877431, 0.0, 0.0, 0.0, 0.0, 0.0, 1.651836122956345E9, 0.0, 2022-05-06 12:22:02.956
32.0, -256.8768984065391, -117.33936110977083, -146.4731817645952, -173.03208129992709, 0.1600000075995922, 0.11200000531971455, 1.008000047877431, 0.0, 0.0, 0.0, 0.0, 0.0, 1.6518361229573424E9, 0.0, 2022-05-06 12:22:02.957
32.0, -231.60265450598672, -91.17502101976424, -122.91929184366018, -163.2821621154435, 0.1600000075995922, 0.11200000531971455, 1.008000047877431, 0.0, 0.0, 0.0, 0.0, 0.0, 1.6518361229573424E9, 0.0, 2022-05-06 12:22:02.957
33.0, -243.3571600667201, -158.71387431956828, -183.935759620741, -174.07551338756457, 0.1600000075995922, 0.11200000531971455, 1.008000047877431, 0.0, 0.0, 0.0, 0.0, 0.0, 1.6518361229583237E9, 0.0, 2022-05-06 12:22:02.958
33.0, -266.20046899607405, -190.25619054585695, -204.5089492769912, -170.5076488298364, 0.1600000075995922, 0.11200000531971455, 1.008000047877431, 0.0, 0.0, 0.0, 0.0, 0.0, 1.6518361229583237E9, 0.0, 2022-05-06 12:22:02.958
34.0, -244.44547095382586, -111.32560198102146, -136.3230932848528, -171.03497472358868, 0.1600000075995922, 0.11200000531971455, 1.008000047877431, 0.0, 0.0, 0.0, 0.0, 0.0, 1.6518361229684117E9, 0.0, 2022-05-06 12:22:02.968
34.0, -219.87058834498748, -68.61220458708704, -105.42403985094279, -148.06824909569696, 0.1600000075995922, 0.11200000531971455, 1.008000047877431, 0.0, 0.0, 0.0, 0.0, 0.0, 1.6518361229684117E9, 0.0, 2022-05-06 12:22:02.968
35.0, -243.68253136286512, -160.17617520224303, -182.18548644147813, -173.7277026916854, 0.1600000075995922, 0.11200000531971455, 1.008000047877431, 0.0, 0.0, 0.0, 0.0, 0.0, 1.6518361229843807E9, 0.0, 2022-05-06 12:22:02.984
35.0, -268.2237548721023, -190.98547103721648, -205.06993427034467, -187.47183502884582, 0.1600000075995922, 0.11200000531971455, 1.008000047877431, 0.0, 0.0, 0.0, 0.0, 0.0, 1.6518361229843807E9, 0.0, 2022-05-06 12:22:02.984
36.0, -243.34968026680872, -111.28072318155318, -139.0644399523735, -167.60548646422103, 0.1600000075995922, 0.11200000531971455, 1.008000047877431, 0.0, 0.0, 0.0, 0.0, 0.0, 1.6518361229853415E9, 0.0, 2022-05-06 12:22:02.985
36.0, -220.96263913204893, -86.39168897643685, -121.23259696364403, -159.84145415620878, 0.1600000075995922, 0.11200000531971455, 1.008000047877431, 0.0, 0.0, 0.0, 0.0, 0.0, 1.6518361229853415E9, 0.0, 2022-05-06 12:22:02.985
37.0, -247.78146171430126, -164.47332025133073, -181.06351645477116, -174.88707167794928, 0.1600000075995922, 0.11200000531971455, 1.008000047877431, 0.0, 0.0, 0.0, 0.0, 0.0, 1.6518361230153883E9, 0.0, 2022-05-06 12:22:03.015
37.0, -256.3570523126982, -183.87592122144997, -202.6165598994121, -180.1790301152505, 0.1600000075995922, 0.11200000531971455, 1.008000047877431, 0.0, 0.0, 0.0, 0.0, 0.0, 1.6518361230153883E9, 0.0, 2022-05-06 12:22:03.015
38.0, -237.92308543110266, -99.61597521975636, -126.28520180378109, -160.18178505217656, 0.1600000075995922, 0.11200000531971455, 1.008000047877431, 0.0, 0.0, 0.0, 0.0, 0.0, 1.6518361230163443E9, 0.0, 2022-05-06 12:22:03.016
38.0, -213.5613771197386, -65.91573671903461, -97.96667933929712, -136.79993052920327, 0.1600000075995922, 0.11200000531971455, 1.008000047877431, 0.0, 0.0, 0.0, 0.0, 0.0, 1.6518361230163443E9, 0.0, 2022-05-06 12:22:03.016
39.0, -236.74501694506034, -136.24081548582762, -162.30791817698628, -163.8020082092844, 0.1600000075995922, 0.11200000531971455, 1.008000047877431, 0.0, 0.0, 0.0, 0.0, 0.0, 1.6518361230173397E9, 0.0, 2022-05-06 12:22:03.017
39.0, -266.6978756901808, -185.5663560014218, -210.66108470410109, -198.32876460021362, 0.1600000075995922, 0.11200000531971455, 1.008000047877431, 0.0, 0.0, 0.0, 0.0, 0.0, 1.6518361230173397E9, 0.0, 2022-05-06 12:22:03.017
40.0, -248.81741400202736, -121.29243536293507, -149.84283162467182, -181.86572499526665, 0.1600000075995922, 0.11200000531971455, 1.008000047877431, 0.0, 0.0, 0.0, 0.0, 0.0, 1.6518361230284083E9, 0.0, 2022-05-06 12:22:03.028
40.0, -226.00028437236324, -88.18684095516801, -115.81722182780504, -158.44273157278076, 0.1600000075995922, 0.11200000531971455, 1.008000047877431, 0.0, 0.0, 0.0, 0.0, 0.0, 1.6518361230284083E9, 0.0, 2022-05-06 12:22:03.028
41.0, -244.52026895293966, -159.2187608135864, -183.58046912495047, -175.60887236939743, 0.1600000075995922, 0.11200000531971455, 1.008000047877431, 0.0, 0.0, 0.0, 0.0, 0.0, 1.651836123044418E9, 0.0, 2022-05-06 12:22:03.044
41.0, -270.0263866507448, -195.26391658652574, -213.35381267219782, -192.9246091642417, 0.1600000075995922, 0.11200000531971455, 1.008000047877431, 0.0, 0.0, 0.0, 0.0, 0.0, 1.651836123044418E9, 0.0, 2022-05-06 12:22:03.044
42.0, -245.7656556381844, -108.73011141177267, -141.57765272259712, -169.26974194450304, 0.1600000075995922, 0.11200000531971455, 1.008000047877431, 0.0, 0.0, 0.0, 0.0, 0.0, 1.6518361230453975E9, 0.0, 2022-05-06 12:22:03.045
42.0, -211.03694464964792, -71.85469784867018, -103.38953427504748, -139.118668501731, 0.1600000075995922, 0.11200000531971455, 1.008000047877431, 0.0, 0.0, 0.0, 0.0, 0.0, 1.6518361230453975E9, 0.0, 2022-05-06 12:22:03.045
43.0, -238.44293152494356, -151.23781430814415, -173.63233524281532, -162.6463791229762, 0.1600000075995922, 0.11200000531971455, 1.008000047877431, 0.0, 0.0, 0.0, 0.0, 0.0, 1.6518361230754232E9, 0.0, 2022-05-06 12:22:03.075
43.0, -258.35041898908094, -179.58251607231796, -201.55816821195185, -179.05706012854353, 0.1600000075995922, 0.11200000531971455, 1.008000047877431, 0.0, 0.0, 0.0, 0.0, 0.0, 1.6518361230754232E9, 0.0, 2022-05-06 12:22:03.075
44.0, -245.63849903969094, -111.17600598279387, -137.46002287138253, -163.79452840937302, 0.1600000075995922, 0.11200000531971455, 1.008000047877431, 0.0, 0.0, 0.0, 0.0, 0.0, 1.6518361230763614E9, 0.0, 2022-05-06 12:22:03.076
44.0, -214.08870301349089, -73.15992293320596, -107.48846462648362, -152.96377813769504, 0.1600000075995922, 0.11200000531971455, 1.008000047877431, 0.0, 0.0, 0.0, 0.0, 0.0, 1.6518361230763614E9, 0.0, 2022-05-06 12:22:03.076
45.0, -236.7936356444843, -155.75935335457325, -177.76118479389697, -172.11206591082737, 0.1600000075995922, 0.11200000531971455, 1.008000047877431, 0.0, 0.0, 0.0, 0.0, 0.0, 1.6518361230773478E9, 0.0, 2022-05-06 12:22:03.077
45.0, -271.30917233554646, -198.4241320490837, -211.771834990941, -190.5198534927331, 0.1600000075995922, 0.11200000531971455, 1.008000047877431, 0.0, 0.0, 0.0, 0.0, 0.0, 1.6518361230773478E9, 0.0, 2022-05-06 12:22:03.077
46.0, -245.75069603836164, -116.8681337153539, -136.24081548582762, -161.90213903179392, 0.1600000075995922, 0.11200000531971455, 1.008000047877431, 0.0, 0.0, 0.0, 0.0, 0.0, 1.6518361231053865E9, 0.0, 2022-05-06 12:22:03.105
46.0, -213.62495541898534, -73.8144054254517, -104.32824916392565, -148.48711789073423, 0.1600000075995922, 0.11200000531971455, 1.008000047877431, 0.0, 0.0, 0.0, 0.0, 0.0, 1.6518361231053865E9, 0.0, 2022-05-06 12:22:03.105
47.0, -230.19645212264732, -141.94416291825473, -167.6335357138887, -161.03822214202955, 0.1600000075995922, 0.11200000531971455, 1.008000047877431, 0.0, 0.0, 0.0, 0.0, 0.0, 1.651836123106341E9, 0.0, 2022-05-06 12:22:03.106
47.0, -266.6978756901808, -185.3793610036373, -199.68073843419552, -177.8453325429, 0.1600000075995922, 0.11200000531971455, 1.008000047877431, 0.0, 0.0, 0.0, 0.0, 0.0, 1.651836123106341E9, 0.0, 2022-05-06 12:22:03.106
48.0, -246.33412043144926, -109.95305869728327, -140.70625603292137, -164.7257634983398, 0.1600000075995922, 0.11200000531971455, 1.008000047877431, 0.0, 0.0, 0.0, 0.0, 0.0, 1.6518361231073503E9, 0.0, 2022-05-06 12:22:03.107
48.0, -198.31006510043517, -67.06014610547572, -104.29459006432444, -142.72767195897177, 0.1600000075995922, 0.11200000531971455, 1.008000047877431, 0.0, 0.0, 0.0, 0.0, 0.0, 1.6518361231073503E9, 0.0, 2022-05-06 12:22:03.107
49.0, -237.49299693619832, -147.78962654899806, -175.6369216190651, -185.09325865702704, 0.1600000075995922, 0.11200000531971455, 1.008000047877431, 0.0, 0.0, 0.0, 0.0, 0.0, 1.6518361231353805E9, 0.0, 2022-05-06 12:22:03.135
49.0, -264.34921851800755, -182.2303652409464, -206.63321245182306, -196.780446018558, 0.1600000075995922, 0.11200000531971455, 1.008000047877431, 0.0, 0.0, 0.0, 0.0, 0.0, 1.6518361231353805E9, 0.0, 2022-05-06 12:22:03.135
50.0, -245.73947633849457, -113.63312025368214, -142.24709481466562, -169.3968985429965, 0.1600000075995922, 0.11200000531971455, 1.008000047877431, 0.0, 0.0, 0.0, 0.0, 0.0, 1.6518361231363385E9, 0.0, 2022-05-06 12:22:03.136
50.0, -227.80665605096146, -87.03121186885983, -120.28266237489879, -150.82081546308473, 0.1600000075995922, 0.11200000531971455, 1.008000047877431, 0.0, 0.0, 0.0, 0.0, 0.0, 1.6518361231363385E9, 0.0, 2022-05-06 12:22:03.136
51.0, -231.81956870341673, -160.90919559355825, -186.4938511904329, -185.16057685622945, 0.1600000075995922, 0.11200000531971455, 1.008000047877431, 0.0, 0.0, 0.0, 0.0, 0.0, 1.6518361231373405E9, 0.0, 2022-05-06 12:22:03.137
51.0, -264.0687260213308, -200.11830672901124, -214.9881489528343, -198.47462069848552, 0.1600000075995922, 0.11200000531971455, 1.008000047877431, 0.0, 0.0, 0.0, 0.0, 0.0, 1.6518361231373405E9, 0.0, 2022-05-06 12:22:03.137
52.0, -251.1772908740677, -117.60489400662482, -139.71144264470786, -163.70477081043646, 0.1600000075995922, 0.11200000531971455, 1.008000047877431, 0.0, 0.0, 0.0, 0.0, 0.0, 1.651836123148435E9, 0.0, 2022-05-06 12:22:03.148
52.0, -216.73281228216365, -76.11444389820099, -105.9027470452711, -152.8366215392016, 0.1600000075995922, 0.11200000531971455, 1.008000047877431, 0.0, 0.0, 0.0, 0.0, 0.0, 1.651836123148435E9, 0.0, 2022-05-06 12:22:03.148
53.0, -237.34714083792642, -149.57355882786214, -170.77131177671254, -167.86727946111932, 0.1600000075995922, 0.11200000531971455, 1.008000047877431, 0.0, 0.0, 0.0, 0.0, 0.0, 1.651836123196409E9, 0.0, 2022-05-06 12:22:03.196
53.0, -262.4082104410045, -187.1969523821026, -206.97728324774653, -182.2509346907027, 0.1600000075995922, 0.11200000531971455, 1.008000047877431, 0.0, 0.0, 0.0, 0.0, 0.0, 1.651836123196409E9, 0.0, 2022-05-06 12:22:03.196
54.0, -242.74007657403126, -111.36300098057836, -139.74884164426476, -164.52006900077686, 0.1600000075995922, 0.11200000531971455, 1.008000047877431, 0.0, 0.0, 0.0, 0.0, 0.0, 1.651836123197339E9, 0.0, 2022-05-06 12:22:03.197
54.0, -214.95635980321094, -74.46888791769743, -105.21086555346847, -150.10649457154796, 0.1600000075995922, 0.11200000531971455, 1.008000047877431, 0.0, 0.0, 0.0, 0.0, 0.0, 1.651836123197339E9, 0.0, 2022-05-06 12:22:03.197
55.0, -239.49010351253673, -146.54049996379763, -171.18270077183843, -164.40039220219478, 0.1600000075995922, 0.11200000531971455, 1.008000047877431, 0.0, 0.0, 0.0, 0.0, 0.0, 1.651836123198346E9, 0.0, 2022-05-06 12:22:03.198
55.0, -263.7059557256289, -188.66299316473305, -210.2459558090195, -183.91519017098472, 0.1600000075995922, 0.11200000531971455, 1.008000047877431, 0.0, 0.0, 0.0, 0.0, 0.0, 1.651836123198346E9, 0.0, 2022-05-06 12:22:03.198
56.0, -255.46321622328833, -123.04270854219794, -150.34023831877857, -176.3194533609785, 0.1600000075995922, 0.11200000531971455, 1.008000047877431, 0.0, 0.0, 0.0, 0.0, 0.0, 1.6518361231993363E9, 0.0, 2022-05-06 12:22:03.199
56.0, -211.71760644158348, -71.10297795757651, -102.96692558005452, -147.85881469817832, 0.1600000075995922, 0.11200000531971455, 1.008000047877431, 0.0, 0.0, 0.0, 0.0, 0.0, 1.6518361231993363E9, 0.0, 2022-05-06 12:22:03.199
57.0, -206.58272380242124, -112.35781436879188, -130.2868947563693, -119.0391456396319, 0.1600000075995922, 0.11200000531971455, 1.008000047877431, 0.0, 0.0, 0.0, 0.0, 0.0, 1.6518361232093897E9, 0.0, 2022-05-06 12:22:03.209
57.0, -254.94711002940312, -174.4513733331114, -191.26596353389323, -160.33138105040416, 0.1600000075995922, 0.11200000531971455, 1.008000047877431, 0.0, 0.0, 0.0, 0.0, 0.0, 1.6518361232093897E9, 0.0, 2022-05-06 12:22:03.209
58.0, -242.11925318138674, -116.15755272377282, -148.26459384337068, -166.00106938323006, 0.1600000075995922, 0.11200000531971455, 1.008000047877431, 0.0, 0.0, 0.0, 0.0, 0.0, 1.6518361232103364E9, 0.0, 2022-05-06 12:22:03.210
58.0, -219.2759442520328, -73.7732665259391, -113.4236858561635, -160.66423214646056, 0.1600000075995922, 0.11200000531971455, 1.008000047877431, 0.0, 0.0, 0.0, 0.0, 0.0, 1.6518361232103364E9, 0.0, 2022-05-06 12:22:03.210
59.0, -244.950357447844, -155.24324716068804, -190.84709473885596, -187.90566342370585, 0.1600000075995922, 0.11200000531971455, 1.008000047877431, 0.0, 0.0, 0.0, 0.0, 0.0, 1.6518361232243917E9, 0.0, 2022-05-06 12:22:03.224
59.0, -265.5459865038283, -195.66782578174025, -219.2553748022765, -203.59080383786932, 0.1600000075995922, 0.11200000531971455, 1.008000047877431, 0.0, 0.0, 0.0, 0.0, 0.0, 1.6518361232243917E9, 0.0, 2022-05-06 12:22:03.224
60.0, -246.29672143189237, -122.96417064312845, -146.07675236929208, -166.0197688830085, 0.1600000075995922, 0.11200000531971455, 1.008000047877431, 0.0, 0.0, 0.0, 0.0, 0.0, 1.6518361232253442E9, 0.0, 2022-05-06 12:22:03.225
60.0, -223.277637204621, -75.50858010537922, -108.09432841930538, -149.683885876555, 0.1600000075995922, 0.11200000531971455, 1.008000047877431, 0.0, 0.0, 0.0, 0.0, 0.0, 1.6518361232253442E9, 0.0, 2022-05-06 12:22:03.225
61.0, -225.02791038388386, -134.2811079090461, -163.36256996449083, -158.99997666617855, 0.1600000075995922, 0.11200000531971455, 1.008000047877431, 0.0, 0.0, 0.0, 0.0, 0.0, 1.651836123255396E9, 0.0, 2022-05-06 12:22:03.255
61.0, -263.3693647296168, -178.87193508073688, -199.78545563295484, -172.2504422091879, 0.1600000075995922, 0.11200000531971455, 1.008000047877431, 0.0, 0.0, 0.0, 0.0, 0.0, 1.651836123255396E9, 0.0, 2022-05-06 12:22:03.255
62.0, -232.06266220053658, -105.26322415284812, -132.32888013217598, -152.7917427397333, 0.1600000075995922, 0.11200000531971455, 1.008000047877431, 0.0, 0.0, 0.0, 0.0, 0.0, 1.65183612325634E9, 0.0, 2022-05-06 12:22:03.256
62.0, -202.58103084983304, -60.83321267925203, -94.85134267620742, -140.18080008914694, 0.1600000075995922, 0.11200000531971455, 1.008000047877431, 0.0, 0.0, 0.0, 0.0, 0.0, 1.65183612325634E9, 0.0, 2022-05-06 12:22:03.256
63.0, -222.81762951007113, -137.33660617284477, -168.06362420879304, -166.26660228008404, 0.1600000075995922, 0.11200000531971455, 1.008000047877431, 0.0, 0.0, 0.0, 0.0, 0.0, 1.6518361232853975E9, 0.0, 2022-05-06 12:22:03.285
63.0, -257.94276989391074, -185.37188120372593, -207.55322784092277, -190.97986118728295, 0.1600000075995922, 0.11200000531971455, 1.008000047877431, 0.0, 0.0, 0.0, 0.0, 0.0, 1.6518361232853975E9, 0.0, 2022-05-06 12:22:03.285
64.0, -255.9531431174837, -135.94536338932812, -153.5902113802731, -178.5110347350128, 0.1600000075995922, 0.11200000531971455, 1.008000047877431, 0.0, 0.0, 0.0, 0.0, 0.0, 1.6518361232863634E9, 0.0, 2022-05-06 12:22:03.286
64.0, -215.2667714995332, -83.97571360506117, -108.88344730995595, -154.8299882155843, 0.1600000075995922, 0.11200000531971455, 1.008000047877431, 0.0, 0.0, 0.0, 0.0, 0.0, 1.6518361232863634E9, 0.0, 2022-05-06 12:22:03.286
65.0, -227.81787575082853, -146.23382816743106, -168.7442860007286, -171.59969961689785, 0.1600000075995922, 0.11200000531971455, 1.008000047877431, 0.0, 0.0, 0.0, 0.0, 0.0, 1.6518361232873425E9, 0.0, 2022-05-06 12:22:03.287
65.0, -271.6981219309382, -199.49000353645533, -216.49158873502165, -184.05730636930093, 0.1600000075995922, 0.11200000531971455, 1.008000047877431, 0.0, 0.0, 0.0, 0.0, 0.0, 1.6518361232873425E9, 0.0, 2022-05-06 12:22:03.287
66.0, -240.95988419512287, -123.56629453599453, -148.30947264283895, -172.9498035009019, 0.1600000075995922, 0.11200000531971455, 1.008000047877431, 0.0, 0.0, 0.0, 0.0, 0.0, 1.6518361232883725E9, 0.0, 2022-05-06 12:22:03.288
