%OpenBCI Raw EEG Data
%Number of channels = 4
%Sample Rate = 200 Hz
%Board = OpenBCI_GUI$BoardGanglionBLE
Sample Index, EXG Channel 0, EXG Channel 1, EXG Channel 2, EXG Channel 3, Accel Channel 0, Accel Channel 1, Accel Channel 2, Other, Other, Other, Other, Other, Timestamp, Other, Timestamp (Formatted)
0.0, -205.27749871788546, -48.70845702290535, -99.07368972618133, -147.63816060079262, 0.0, 0.0, 0.0, 0.0, 0.0, 0.0, 0.0, 0.0, 1.6518360644094656E9, 0.0, 2022-05-06 12:21:04.409
1.0, -244.75588265014812, -156.4811540460214, -183.22143872920424, -175.82204666687176, 0.0, 0.11200000531971455, 0.0, 0.0, 0.0, 0.0, 0.0, 0.0, 1.651836064422546E9, 0.0, 2022-05-06 12:21:04.422
1.0, -287.8993685389869, -212.65071148052812, -222.2136356672272, -208.53495157929137, 0.0, 0.11200000531971455, 0.0, 0.0, 0.0, 0.0, 0.0, 0.0, 1.651836064422546E9, 0.0, 2022-05-06 12:21:04.422
2.0, -257.8380526951514, -119.45240458473563, -145.04453998152167, -173.7651016912423, 0.1600000075995922, 0.11200000531971455, 0.0, 0.0, 0.0, 0.0, 0.0, 0.0, 1.6518360644394517E9, 0.0, 2022-05-06 12:21:04.439
2.0, -204.97456682147458, -47.9866563314572, -89.3761291410774, -129.51086551556364, 0.1600000075995922, 0.11200000531971455, 0.0, 0.0, 0.0, 0.0, 0.0, 0.0, 1.6518360644394517E9, 0.0, 2022-05-06 12:21:04.439
3.0, -237.16014584014192, -146.34602516610175, -169.8213771879673, -164.7631624978967, 0.1600000075995922, 0.11200000531971455, 0.0, 0.0, 0.0, 0.0, 0.0, 0.0, 1.6518360644404573E9, 0.0, 2022-05-06 12:21:04.440
3.0, -271.7355209304951, -203.54779498837888, -208.0281951352954, -190.01870689867064, 0.1600000075995922, 0.11200000531971455, 0.0, 0.0, 0.0, 0.0, 0.0, 0.0, 1.6518360644404573E9, 0.0, 2022-05-06 12:21:04.440
4.0, -254.52824123436585, -108.08310871943831, -126.86488629691303, -159.8377142562531, 0.1600000075995922, 0.11200000531971455, 0.0, 0.0, 0.0, 0.0, 0.0, 0.0, 1.6518360644526157E9, 0.0, 2022-05-06 12:21:04.452
4.0, -195.60237753251567, -43.01632929034531, -83.01829921640456, -123.560684686061, 0.1600000075995922, 0.11200000531971455, 0.0, 0.0, 0.0, 0.0, 0.0, 0.0, 1.6518360644526157E9, 0.0, 2022-05-06 12:21:04.452
5.0, -250.40313158323988, -160.02283930405974, -188.5732355657965, -178.72046913253143, 0.1600000075995922, 0.11200000531971455, 0.0, 0.0, 0.0, 0.0, 0.0, 0.0, 1.6518360644686332E9, 0.0, 2022-05-06 12:21:04.468
5.0, -295.3492492507212, -220.11929169204086, -230.07864527404308, -210.07205046107993, 0.1600000075995922, 0.11200000531971455, 0.0, 0.0, 0.0, 0.0, 0.0, 0.0, 1.6518360644686332E9, 0.0, 2022-05-06 12:21:04.468
6.0, -256.3308730130084, -118.01628300175071, -141.31959962565452, -171.8764522136189, 0.1600000075995922, 0.11200000531971455, 0.0, 0.0, 0.0, 0.0, 0.0, 0.0, 1.6518360644694688E9, 0.0, 2022-05-06 12:21:04.469
6.0, -201.09255066746846, -48.465363525785506, -92.46528650447726, -138.14255461329594, 0.1600000075995922, 0.11200000531971455, 0.0, 0.0, 0.0, 0.0, 0.0, 0.0, 1.6518360644694688E9, 0.0, 2022-05-06 12:21:04.469
7.0, -234.4300188724883, -147.83824524842203, -175.58456301968545, -181.75726789655164, 0.1600000075995922, 0.11200000531971455, 0.0, 0.0, 0.0, 0.0, 0.0, 0.0, 1.651836064482562E9, 0.0, 2022-05-06 12:21:04.482
7.0, -293.3895416739397, -223.37300465349108, -231.42126935813576, -214.73196580586955, 0.1600000075995922, 0.11200000531971455, 0.0, 0.0, 0.0, 0.0, 0.0, 0.0, 1.651836064482562E9, 0.0, 2022-05-06 12:21:04.482
8.0, -254.45718313520774, -117.9078259030357, -135.78080779127777, -168.70127715123817, 0.1600000075995922, 0.11200000531971455, 0.0, 0.0, 0.0, 0.0, 0.0, 0.0, 1.651836064514566E9, 0.0, 2022-05-06 12:21:04.514
8.0, -201.32816436467692, -46.890865644440055, -88.22050005476922, -138.5614234083332, 0.1600000075995922, 0.11200000531971455, 0.0, 0.0, 0.0, 0.0, 0.0, 0.0, 1.651836064514566E9, 0.0, 2022-05-06 12:21:04.514
9.0, -236.63281994638965, -142.11245841626078, -170.80497087631375, -168.15899165766314, 0.1600000075995922, 0.11200000531971455, 0.0, 0.0, 0.0, 0.0, 0.0, 0.0, 1.651836064515572E9, 0.0, 2022-05-06 12:21:04.515
9.0, -291.3101572985761, -208.34234673157334, -214.99188885279, -194.73098084283993, 0.1600000075995922, 0.11200000531971455, 0.0, 0.0, 0.0, 0.0, 0.0, 0.0, 1.651836064515572E9, 0.0, 2022-05-06 12:21:04.515
10.0, -257.9240703941323, -118.3528739977628, -144.09460539277643, -166.62563267583027, 0.1600000075995922, 0.11200000531971455, 1.0240000486373901, 0.0, 0.0, 0.0, 0.0, 0.0, 1.6518360645164983E9, 0.0, 2022-05-06 12:21:04.516
10.0, -204.71651372453198, -54.37440545577556, -95.92469396349043, -140.566009784583, 0.1600000075995922, 0.11200000531971455, 1.0240000486373901, 0.0, 0.0, 0.0, 0.0, 0.0, 1.6518360645164983E9, 0.0, 2022-05-06 12:21:04.516
11.0, -241.44607118936256, -152.7412540903315, -174.4513733331114, -171.22196972137317, 0.1600000075995922, 0.06400000303983688, 1.0240000486373901, 0.0, 0.0, 0.0, 0.0, 0.0, 1.6518360645174549E9, 0.0, 2022-05-06 12:21:04.517
11.0, -260.8411923595704, -185.80944949854165, -211.7643551910296, -194.0017003514804, 0.1600000075995922, 0.06400000303983688, 1.0240000486373901, 0.0, 0.0, 0.0, 0.0, 0.0, 1.6518360645174549E9, 0.0, 2022-05-06 12:21:04.517
12.0, -258.1372446916066, -118.4276719968766, -144.31151959020644, -182.12003819225356, 0.0800000037997961, 0.06400000303983688, 1.0240000486373901, 0.0, 0.0, 0.0, 0.0, 0.0, 1.651836064527572E9, 0.0, 2022-05-06 12:21:04.527
12.0, -220.85044213337824, -77.4084492828697, -108.91710640955716, -150.61886086547747, 0.0800000037997961, 0.06400000303983688, 1.0240000486373901, 0.0, 0.0, 0.0, 0.0, 0.0, 1.651836064527572E9, 0.0, 2022-05-06 12:21:04.527
13.0, -255.81850671907887, -165.05300474446267, -194.74781039264053, -188.19363572029397, 0.0800000037997961, 0.06400000303983688, 1.0240000486373901, 0.0, 0.0, 0.0, 0.0, 0.0, 1.6518360645425096E9, 0.0, 2022-05-06 12:21:04.542
13.0, -280.46818732703105, -200.1706653283909, -223.04389345739037, -208.64340867800638, 0.0800000037997961, 0.06400000303983688, 1.0240000486373901, 0.0, 0.0, 0.0, 0.0, 0.0, 1.6518360645425096E9, 0.0, 2022-05-06 12:21:04.542
14.0, -250.15629818616435, -119.18313178792596, -144.3975372891873, -167.56434756470844, 0.0800000037997961, 0.06400000303983688, 1.0240000486373901, 0.0, 0.0, 0.0, 0.0, 0.0, 1.6518360645585244E9, 0.0, 2022-05-06 12:21:04.558
14.0, -212.9368138271384, -66.33086561411619, -100.54721030872315, -147.645640400704, 0.0800000037997961, 0.06400000303983688, 1.0240000486373901, 0.0, 0.0, 0.0, 0.0, 0.0, 1.6518360645585244E9, 0.0, 2022-05-06 12:21:04.558
15.0, -241.9509576833807, -148.90037683583796, -178.44558648578823, -172.28036140883341, 0.0800000037997961, 0.06400000303983688, 1.0240000486373901, 0.0, 0.0, 0.0, 0.0, 0.0, 1.6518360645594542E9, 0.0, 2022-05-06 12:21:04.559
15.0, -283.4937663911842, -198.59990734700114, -221.85834517143667, -194.3382913474925, 0.0800000037997961, 0.06400000303983688, 1.0240000486373901, 0.0, 0.0, 0.0, 0.0, 0.0, 1.6518360645594542E9, 0.0, 2022-05-06 12:21:04.559
16.0, -240.30914160283282, -112.3129355693236, -131.23308944515884, -153.87631372688338, 0.0800000037997961, 0.06400000303983688, 1.0240000486373901, 0.0, 0.0, 0.0, 0.0, 0.0, 1.651836064572618E9, 0.0, 2022-05-06 12:21:04.572
16.0, -205.7113271127455, -63.30528654996306, -93.35164279397577, -131.27609829464927, 0.0800000037997961, 0.06400000303983688, 1.0240000486373901, 0.0, 0.0, 0.0, 0.0, 0.0, 1.651836064572618E9, 0.0, 2022-05-06 12:21:04.572
17.0, -232.6498264935799, -141.1737435273826, -166.10391663201153, -162.47808362497017, 0.0800000037997961, 0.06400000303983688, 1.0240000486373901, 0.0, 0.0, 0.0, 0.0, 0.0, 1.651836064588618E9, 0.0, 2022-05-06 12:21:04.588
17.0, -260.16427046759054, -180.10610206611454, -196.60280077066272, -165.12219289364293, 0.0800000037997961, 0.06400000303983688, 1.0240000486373901, 0.0, 0.0, 0.0, 0.0, 0.0, 1.651836064588618E9, 0.0, 2022-05-06 12:21:04.588
18.0, -244.55392805254087, -111.07128878403455, -135.6985299922526, -164.6846245988272, 0.0800000037997961, 0.06400000303983688, 1.0240000486373901, 0.0, 0.0, 0.0, 0.0, 0.0, 1.6518360645894604E9, 0.0, 2022-05-06 12:21:04.589
18.0, -221.84899542154744, -80.42654854711145, -117.45529800839722, -162.5753210238181, 0.0800000037997961, 0.06400000303983688, 1.0240000486373901, 0.0, 0.0, 0.0, 0.0, 0.0, 1.6518360645894604E9, 0.0, 2022-05-06 12:21:04.589
19.0, -237.56031513540074, -149.98120792303234, -177.83224289305508, -183.75811437284574, 0.0800000037997961, 0.06400000303983688, 1.0240000486373901, 0.0, 0.0, 0.0, 0.0, 0.0, 1.6518360646025803E9, 0.0, 2022-05-06 12:21:04.602
19.0, -257.78195419581607, -187.69435907620937, -209.52789501752704, -175.90806436585262, 0.0800000037997961, 0.06400000303983688, 1.0240000486373901, 0.0, 0.0, 0.0, 0.0, 0.0, 1.6518360646025803E9, 0.0, 2022-05-06 12:21:04.602
20.0, -248.11431281035766, -112.89262006245553, -136.30439378507435, -163.07646761788055, 0.0800000037997961, 0.06400000303983688, 0.5120000243186951, 0.0, 0.0, 0.0, 0.0, 0.0, 1.6518360646345437E9, 0.0, 2022-05-06 12:21:04.634
20.0, -222.84006890980527, -73.71342812664807, -103.28107717633247, -154.43355882028118, 0.0800000037997961, 0.06400000303983688, 0.5120000243186951, 0.0, 0.0, 0.0, 0.0, 0.0, 1.6518360646345437E9, 0.0, 2022-05-06 12:21:04.634
21.0, -229.36993423243985, -143.53362039942294, -171.65766806621104, -175.52659457037225, 0.0800000037997961, 0.09600000455975533, 0.5120000243186951, 0.0, 0.0, 0.0, 0.0, 0.0, 1.6518360646354651E9, 0.0, 2022-05-06 12:21:04.635
21.0, -256.92925700591877, -188.73779116384685, -205.30554796755314, -187.07914553349838, 0.0800000037997961, 0.09600000455975533, 0.5120000243186951, 0.0, 0.0, 0.0, 0.0, 0.0, 1.6518360646354651E9, 0.0, 2022-05-06 12:21:04.635
22.0, -257.83431279519573, -121.41211216151714, -150.39633681811392, -176.34937256062403, 0.11200000531971455, 0.09600000455975533, 0.5120000243186951, 0.0, 0.0, 0.0, 0.0, 0.0, 1.6518360646364636E9, 0.0, 2022-05-06 12:21:04.636
22.0, -225.68987267604098, -78.64261626824737, -110.04655619617552, -153.2068716348149, 0.11200000531971455, 0.09600000455975533, 0.5120000243186951, 0.0, 0.0, 0.0, 0.0, 0.0, 1.6518360646364636E9, 0.0, 2022-05-06 12:21:04.636
23.0, -239.46018431289122, -146.2151286676526, -175.77903781738132, -169.7671486386098, 0.11200000531971455, 0.09600000455975533, 0.5120000243186951, 0.0, 0.0, 0.0, 0.0, 0.0, 1.6518360646375194E9, 0.0, 2022-05-06 12:21:04.637
23.0, -262.60268523870036, -187.3091493807733, -213.41739097144455, -191.06213898630813, 0.11200000531971455, 0.09600000455975533, 0.5120000243186951, 0.0, 0.0, 0.0, 0.0, 0.0, 1.6518360646375194E9, 0.0, 2022-05-06 12:21:04.637
24.0, -255.4407768235542, -127.79238148592412, -147.2211617557332, -170.9489570246078, 0.11200000531971455, 0.09600000455975533, 0.5120000243186951, 0.0, 0.0, 0.0, 0.0, 0.0, 1.651836064647602E9, 0.0, 2022-05-06 12:21:04.647
24.0, -220.48393193772063, -73.54139272868633, -103.77474397048354, -149.5305499783717, 0.11200000531971455, 0.09600000455975533, 0.5120000243186951, 0.0, 0.0, 0.0, 0.0, 0.0, 1.651836064647602E9, 0.0, 2022-05-06 12:21:04.647
25.0, -241.47599038900807, -133.39101171959192, -169.1145360963419, -176.01652146456763, 0.11200000531971455, 0.09600000455975533, 0.5120000243186951, 0.0, 0.0, 0.0, 0.0, 0.0, 1.6518360646785843E9, 0.0, 2022-05-06 12:21:04.678
25.0, -260.9272100585513, -173.80063074082136, -201.21783731598407, -177.6246784455143, 0.11200000531971455, 0.09600000455975533, 0.5120000243186951, 0.0, 0.0, 0.0, 0.0, 0.0, 1.6518360646785843E9, 0.0, 2022-05-06 12:21:04.678
26.0, -245.99378953548148, -115.63770662993193, -138.15190436318517, -160.43983814911917, 0.11200000531971455, 0.09600000455975533, 0.5120000243186951, 0.0, 0.0, 0.0, 0.0, 0.0, 1.651836064679488E9, 0.0, 2022-05-06 12:21:04.679
26.0, -214.57489000773057, -73.84058472514153, -104.96777205634862, -150.10275467159227, 0.11200000531971455, 0.09600000455975533, 0.5120000243186951, 0.0, 0.0, 0.0, 0.0, 0.0, 1.651836064679488E9, 0.0, 2022-05-06 12:21:04.679
27.0, -240.97110389498994, -141.72724872082472, -170.84610977582633, -167.52320866519585, 0.11200000531971455, 0.09600000455975533, 0.5120000243186951, 0.0, 0.0, 0.0, 0.0, 0.0, 1.6518360646805117E9, 0.0, 2022-05-06 12:21:04.680
27.0, -275.6624158839695, -193.6482798056677, -220.79995348397642, -188.53396661626175, 0.11200000531971455, 0.09600000455975533, 0.5120000243186951, 0.0, 0.0, 0.0, 0.0, 0.0, 1.6518360646805117E9, 0.0, 2022-05-06 12:21:04.680
28.0, -244.2135971565731, -119.3551671858877, -134.24370890948921, -157.945324878674, 0.11200000531971455, 0.09600000455975533, 0.5120000243186951, 0.0, 0.0, 0.0, 0.0, 0.0, 1.6518360646925695E9, 0.0, 2022-05-06 12:21:04.692
28.0, -215.31913009891286, -76.12566359806806, -97.28601754736155, -139.118668501731, 0.11200000531971455, 0.09600000455975533, 0.5120000243186951, 0.0, 0.0, 0.0, 0.0, 0.0, 1.6518360646925695E9, 0.0, 2022-05-06 12:21:04.692
29.0, -233.69699848117307, -142.43034991249442, -158.72883391939104, -163.85062690870836, 0.11200000531971455, 0.09600000455975533, 0.5120000243186951, 0.0, 0.0, 0.0, 0.0, 0.0, 1.6518360647406187E9, 0.0, 2022-05-06 12:21:04.740
29.0, -269.94036895176396, -186.76686388719827, -209.53537481743842, -184.00868766987696, 0.11200000531971455, 0.09600000455975533, 0.5120000243186951, 0.0, 0.0, 0.0, 0.0, 0.0, 1.6518360647406187E9, 0.0, 2022-05-06 12:21:04.740
30.0, -249.45319699449465, -124.34419372677803, -147.72978814970702, -179.135598027613, 0.11200000531971455, 0.09600000455975533, 0.7680000364780426, 0.0, 0.0, 0.0, 0.0, 0.0, 1.6518360647415948E9, 0.0, 2022-05-06 12:21:04.741
30.0, -202.23322015395388, -64.79002683237195, -98.31075013522059, -142.69027295941487, 0.11200000531971455, 0.09600000455975533, 0.7680000364780426, 0.0, 0.0, 0.0, 0.0, 0.0, 1.6518360647415948E9, 0.0, 2022-05-06 12:21:04.741
31.0, -232.87796039087698, -136.85415907856077, -163.65428216103464, -164.23209670418873, 0.11200000531971455, 0.09600000455975533, 0.7680000364780426, 0.0, 0.0, 0.0, 0.0, 0.0, 1.6518360647425852E9, 0.0, 2022-05-06 12:21:04.742
31.0, -257.30324700148776, -180.11358186602592, -208.09177343454212, -189.84293160075322, 0.11200000531971455, 0.09600000455975533, 0.7680000364780426, 0.0, 0.0, 0.0, 0.0, 0.0, 1.6518360647425852E9, 0.0, 2022-05-06 12:21:04.742
32.0, -258.60473218606785, -133.98191591259092, -147.87190434802324, -174.7711347793229, 0.144000006839633, 0.09600000455975533, 0.7680000364780426, 0.0, 0.0, 0.0, 0.0, 0.0, 1.6518360647435844E9, 0.0, 2022-05-06 12:21:04.743
32.0, -219.33578265132383, -82.5582915218547, -115.60030763037503, -159.88259305572137, 0.144000006839633, 0.09600000455975533, 0.7680000364780426, 0.0, 0.0, 0.0, 0.0, 0.0, 1.6518360647435844E9, 0.0, 2022-05-06 12:21:04.743
33.0, -236.84599424386397, -140.78105403203517, -174.77674462925643, -175.6612309687771, 0.144000006839633, 0.09600000455975533, 0.7680000364780426, 0.0, 0.0, 0.0, 0.0, 0.0, 1.6518360647535734E9, 0.0, 2022-05-06 12:21:04.753
33.0, -271.8589376290329, -191.19490543473512, -223.56747945118695, -202.79046524735168, 0.144000006839633, 0.09600000455975533, 0.7680000364780426, 0.0, 0.0, 0.0, 0.0, 0.0, 1.6518360647535734E9, 0.0, 2022-05-06 12:21:04.753
34.0, -258.9114039824344, -124.84534032084048, -151.2901729075238, -181.82832599570975, 0.144000006839633, 0.09600000455975533, 0.7680000364780426, 0.0, 0.0, 0.0, 0.0, 0.0, 1.651836064754578E9, 0.0, 2022-05-06 12:21:04.754
34.0, -217.63412817148492, -68.08487869333476, -96.88210835214704, -153.25175043428317, 0.144000006839633, 0.09600000455975533, 0.7680000364780426, 0.0, 0.0, 0.0, 0.0, 0.0, 1.651836064754578E9, 0.0, 2022-05-06 12:21:04.754
35.0, -226.52387036615983, -136.9925353769213, -163.95347415748984, -161.84604053245857, 0.144000006839633, 0.09600000455975533, 0.7680000364780426, 0.0, 0.0, 0.0, 0.0, 0.0, 1.651836064768596E9, 0.0, 2022-05-06 12:21:04.768
35.0, -254.2103497381322, -184.39576731529087, -197.3881797613576, -165.53358188876882, 0.144000006839633, 0.09600000455975533, 0.7680000364780426, 0.0, 0.0, 0.0, 0.0, 0.0, 1.651836064768596E9, 0.0, 2022-05-06 12:21:04.768
36.0, -253.36887224810198, -123.5401152363047, -143.78419369645417, -153.6107808300294, 0.144000006839633, 0.09600000455975533, 0.7680000364780426, 0.0, 0.0, 0.0, 0.0, 0.0, 1.6518360647694538E9, 0.0, 2022-05-06 12:21:04.769
36.0, -219.85188884520903, -83.28009221330285, -117.87416680343449, -172.3925584075041, 0.144000006839633, 0.09600000455975533, 0.7680000364780426, 0.0, 0.0, 0.0, 0.0, 0.0, 1.6518360647694538E9, 0.0, 2022-05-06 12:21:04.769
37.0, -232.14867989951745, -135.41055769566447, -168.44135410431772, -168.04305475903675, 0.144000006839633, 0.09600000455975533, 0.7680000364780426, 0.0, 0.0, 0.0, 0.0, 0.0, 1.6518360647985132E9, 0.0, 2022-05-06 12:21:04.798
37.0, -266.30892609478906, -181.4898650497198, -207.59436674043536, -184.4051170651801, 0.144000006839633, 0.09600000455975533, 0.7680000364780426, 0.0, 0.0, 0.0, 0.0, 0.0, 1.6518360647985132E9, 0.0, 2022-05-06 12:21:04.798
38.0, -246.49493612954393, -124.29183512739837, -145.97577507048845, -167.2053171689622, 0.144000006839633, 0.09600000455975533, 0.7680000364780426, 0.0, 0.0, 0.0, 0.0, 0.0, 1.6518360647994576E9, 0.0, 2022-05-06 12:21:04.799
38.0, -203.51600583875552, -63.60073864646256, -87.78667165990919, -141.35512867523357, 0.144000006839633, 0.09600000455975533, 0.7680000364780426, 0.0, 0.0, 0.0, 0.0, 0.0, 1.6518360647994576E9, 0.0, 2022-05-06 12:21:04.799
39.0, -216.99086537910625, -123.8355673328042, -150.1046246215701, -152.71320484066382, 0.144000006839633, 0.09600000455975533, 0.7680000364780426, 0.0, 0.0, 0.0, 0.0, 0.0, 1.6518360648005316E9, 0.0, 2022-05-06 12:21:04.800
39.0, -261.8808845472522, -179.4890185734257, -206.27418205607682, -183.93762957071885, 0.144000006839633, 0.09600000455975533, 0.7680000364780426, 0.0, 0.0, 0.0, 0.0, 0.0, 1.6518360648005316E9, 0.0, 2022-05-06 12:21:04.800
40.0, -245.167271645274, -121.96561735495925, -142.44530951231718, -156.25115019874647, 0.144000006839633, 0.09600000455975533, 0.8800000417977571, 0.0, 0.0, 0.0, 0.0, 0.0, 1.651836064812617E9, 0.0, 2022-05-06 12:21:04.812
40.0, -213.44544022111222, -73.72464782651514, -96.73999215383083, -148.41231989162043, 0.144000006839633, 0.09600000455975533, 0.8800000417977571, 0.0, 0.0, 0.0, 0.0, 0.0, 1.651836064812617E9, 0.0, 2022-05-06 12:21:04.812
41.0, -240.49239670066163, -134.42322410736233, -166.01041913311929, -175.50041527068242, 0.144000006839633, 0.11200000531971455, 0.8800000417977571, 0.0, 0.0, 0.0, 0.0, 0.0, 1.6518360648287551E9, 0.0, 2022-05-06 12:21:04.828
41.0, -266.5594993918203, -184.83707551006228, -208.86967262532562, -199.32731788838282, 0.144000006839633, 0.11200000531971455, 0.8800000417977571, 0.0, 0.0, 0.0, 0.0, 0.0, 1.6518360648287551E9, 0.0, 2022-05-06 12:21:04.828
42.0, -249.6551515921019, -128.04669468291104, -145.08567888103426, -179.01592122903094, 0.144000006839633, 0.11200000531971455, 0.8800000417977571, 0.0, 0.0, 0.0, 0.0, 0.0, 1.6518360648294692E9, 0.0, 2022-05-06 12:21:04.829
42.0, -208.6733278776519, -69.1806693803519, -96.36600215826184, -136.69147343048826, 0.144000006839633, 0.11200000531971455, 0.8800000417977571, 0.0, 0.0, 0.0, 0.0, 0.0, 1.6518360648294692E9, 0.0, 2022-05-06 12:21:04.829
43.0, -225.76467067515478, -123.51393593661487, -150.46739491727203, -158.69330486981198, 0.144000006839633, 0.11200000531971455, 0.8800000417977571, 0.0, 0.0, 0.0, 0.0, 0.0, 1.6518360648586214E9, 0.0, 2022-05-06 12:21:04.858
43.0, -249.4756363942288, -171.6726276660338, -198.67844524607062, -178.46241603558883, 0.144000006839633, 0.11200000531971455, 0.8800000417977571, 0.0, 0.0, 0.0, 0.0, 0.0, 1.6518360648586214E9, 0.0, 2022-05-06 12:21:04.858
44.0, -236.89835284324363, -121.07552116550505, -135.5115349944681, -159.26550956303254, 0.144000006839633, 0.11200000531971455, 0.8800000417977571, 0.0, 0.0, 0.0, 0.0, 0.0, 1.6518360648594842E9, 0.0, 2022-05-06 12:21:04.859
44.0, -213.1200689249672, -78.6687955679372, -109.99793749675155, -153.73419752856717, 0.144000006839633, 0.11200000531971455, 0.8800000417977571, 0.0, 0.0, 0.0, 0.0, 0.0, 1.6518360648594842E9, 0.0, 2022-05-06 12:21:04.859
45.0, -233.86155407922342, -139.87599824275821, -170.23650608304888, -175.541554170195, 0.144000006839633, 0.11200000531971455, 0.8800000417977571, 0.0, 0.0, 0.0, 0.0, 0.0, 1.6518360648605354E9, 0.0, 2022-05-06 12:21:04.860
45.0, -266.4024235936813, -195.62294698227197, -210.10757951065898, -181.92556339455768, 0.144000006839633, 0.11200000531971455, 0.8800000417977571, 0.0, 0.0, 0.0, 0.0, 0.0, 1.6518360648605354E9, 0.0, 2022-05-06 12:21:04.860
46.0, -248.49204270588234, -138.08832606393844, -159.35713711194694, -185.96839524665847, 0.144000006839633, 0.11200000531971455, 0.8800000417977571, 0.0, 0.0, 0.0, 0.0, 0.0, 1.651836064888514E9, 0.0, 2022-05-06 12:21:04.888
46.0, -202.83908394677565, -72.79341273754835, -97.67122724279761, -146.47505171457306, 0.144000006839633, 0.11200000531971455, 0.8800000417977571, 0.0, 0.0, 0.0, 0.0, 0.0, 1.651836064888514E9, 0.0, 2022-05-06 12:21:04.888
47.0, -239.4676641128026, -141.2522814264521, -165.64016903750598, -165.85521328495815, 0.144000006839633, 0.11200000531971455, 0.8800000417977571, 0.0, 0.0, 0.0, 0.0, 0.0, 1.6518360648894496E9, 0.0, 2022-05-06 12:21:04.889
47.0, -259.85759867122397, -185.58879540115595, -210.31327400822192, -182.71842218516394, 0.144000006839633, 0.11200000531971455, 0.8800000417977571, 0.0, 0.0, 0.0, 0.0, 0.0, 1.6518360648894496E9, 0.0, 2022-05-06 12:21:04.889
48.0, -234.8713270672597, -116.52406291943043, -136.27821448538452, -152.88524023862556, 0.144000006839633, 0.11200000531971455, 0.8800000417977571, 0.0, 0.0, 0.0, 0.0, 0.0, 1.6518360648905988E9, 0.0, 2022-05-06 12:21:04.890
48.0, -201.58621746161953, -68.14845699258149, -94.71670627780259, -142.17416676552966, 0.144000006839633, 0.11200000531971455, 0.8800000417977571, 0.0, 0.0, 0.0, 0.0, 0.0, 1.6518360648905988E9, 0.0, 2022-05-06 12:21:04.890
49.0, -223.88724089739844, -122.05537495389581, -154.4092494705692, -165.96367038367316, 0.144000006839633, 0.11200000531971455, 0.8800000417977571, 0.0, 0.0, 0.0, 0.0, 0.0, 1.6518360649185557E9, 0.0, 2022-05-06 12:21:04.918
49.0, -262.5914655388333, -179.39926097448915, -202.870873096399, -182.81565958401188, 0.144000006839633, 0.11200000531971455, 0.8800000417977571, 0.0, 0.0, 0.0, 0.0, 0.0, 1.6518360649185557E9, 0.0, 2022-05-06 12:21:04.918
50.0, -248.44342400645837, -131.79781433846802, -150.07844532188028, -168.67135795159265, 0.144000006839633, 0.11200000531971455, 0.944000044837594, 0.0, 0.0, 0.0, 0.0, 0.0, 1.6518360649194837E9, 0.0, 2022-05-06 12:21:04.919
50.0, -213.2322659236379, -73.24220073223114, -100.46493250969797, -147.95979199698195, 0.144000006839633, 0.11200000531971455, 0.944000044837594, 0.0, 0.0, 0.0, 0.0, 0.0, 1.6518360649194837E9, 0.0, 2022-05-06 12:21:04.919
51.0, -225.9441858730279, -131.9885492362082, -158.50817982200533, -163.18492471659556, 0.144000006839633, 0.11200000531971455, 0.944000044837594, 0.0, 0.0, 0.0, 0.0, 0.0, 1.6518360649204628E9, 0.0, 2022-05-06 12:21:04.920
51.0, -256.30843361327425, -176.7850709054619, -204.1349592814222, -179.91349721839651, 0.144000006839633, 0.11200000531971455, 0.944000044837594, 0.0, 0.0, 0.0, 0.0, 0.0, 1.6518360649204628E9, 0.0, 2022-05-06 12:21:04.920
52.0, -237.7585298330523, -119.55712178349495, -138.52589435875416, -157.51897628372535, 0.144000006839633, 0.11200000531971455, 0.944000044837594, 0.0, 0.0, 0.0, 0.0, 0.0, 1.651836064948566E9, 0.0, 2022-05-06 12:21:04.948
52.0, -208.1160827842541, -62.38527116086334, -89.7089802371338, -124.8210309711285, 0.144000006839633, 0.11200000531971455, 0.944000044837594, 0.0, 0.0, 0.0, 0.0, 0.0, 1.651836064948566E9, 0.0, 2022-05-06 12:21:04.948
53.0, -218.24373186426237, -116.23235072288662, -155.02633296325803, -163.38313941424713, 0.144000006839633, 0.11200000531971455, 0.944000044837594, 0.0, 0.0, 0.0, 0.0, 0.0, 1.6518360649494872E9, 0.0, 2022-05-06 12:21:04.949
53.0, -250.63874528044835, -174.709426430054, -198.61860684677958, -181.93304319446906, 0.144000006839633, 0.11200000531971455, 0.944000044837594, 0.0, 0.0, 0.0, 0.0, 0.0, 1.6518360649494872E9, 0.0, 2022-05-06 12:21:04.949
54.0, -242.74007657403126, -127.21269699279219, -147.94296244718134, -164.6173063996248, 0.144000006839633, 0.11200000531971455, 0.944000044837594, 0.0, 0.0, 0.0, 0.0, 0.0, 1.651836064950526E9, 0.0, 2022-05-06 12:21:04.950
54.0, -211.6428084424697, -75.87883020099252, -101.47844539768994, -139.62355499574915, 0.144000006839633, 0.11200000531971455, 0.944000044837594, 0.0, 0.0, 0.0, 0.0, 0.0, 1.651836064950526E9, 0.0, 2022-05-06 12:21:04.950
55.0, -236.03069605352357, -132.23912253323942, -160.60626369714737, -171.8764522136189, 0.144000006839633, 0.11200000531971455, 0.944000044837594, 0.0, 0.0, 0.0, 0.0, 0.0, 1.6518360649786112E9, 0.0, 2022-05-06 12:21:04.978
55.0, -257.46032279962674, -177.61906859558076, -201.60678691137582, -179.74894162034616, 0.144000006839633, 0.11200000531971455, 0.944000044837594, 0.0, 0.0, 0.0, 0.0, 0.0, 1.6518360649786112E9, 0.0, 2022-05-06 12:21:04.978
56.0, -234.9797841659747, -117.75075010489672, -135.35445919632912, -152.18961884686723, 0.144000006839633, 0.11200000531971455, 0.944000044837594, 0.0, 0.0, 0.0, 0.0, 0.0, 1.6518360649795425E9, 0.0, 2022-05-06 12:21:04.979
56.0, -200.39318937575445, -56.943716725334525, -88.72912644874305, -142.230265264865, 0.144000006839633, 0.11200000531971455, 0.944000044837594, 0.0, 0.0, 0.0, 0.0, 0.0, 1.6518360649795425E9, 0.0, 2022-05-06 12:21:04.979
57.0, -219.36196195101365, -117.32814140990376, -150.38885701820254, -159.71055765775964, 0.144000006839633, 0.11200000531971455, 0.944000044837594, 0.0, 0.0, 0.0, 0.0, 0.0, 1.651836064993529E9, 0.0, 2022-05-06 12:21:04.993
57.0, -245.41410504234955, -173.7894110409543, -201.38613281399012, -185.08951875707135, 0.144000006839633, 0.11200000531971455, 0.944000044837594, 0.0, 0.0, 0.0, 0.0, 0.0, 1.651836064993529E9, 0.0, 2022-05-06 12:21:04.993
58.0, -256.2598149138503, -134.92437070142478, -151.28643300756812, -167.69898396311328, 0.144000006839633, 0.11200000531971455, 0.944000044837594, 0.0, 0.0, 0.0, 0.0, 0.0, 1.651836064994535E9, 0.0, 2022-05-06 12:21:04.994
58.0, -232.85926089109853, -88.04846465680748, -109.30231610499322, -164.9464175957255, 0.144000006839633, 0.11200000531971455, 0.944000044837594, 0.0, 0.0, 0.0, 0.0, 0.0, 1.651836064994535E9, 0.0, 2022-05-06 12:21:04.994
59.0, -224.78107698680833, -127.72132338676602, -158.15662922617048, -157.11132718855515, 0.144000006839633, 0.11200000531971455, 0.944000044837594, 0.0, 0.0, 0.0, 0.0, 0.0, 1.6518360650085905E9, 0.0, 2022-05-06 12:21:05.008
59.0, -261.19648285536095, -178.4942051852122, -202.96437059529126, -172.03726791171357, 0.144000006839633, 0.11200000531971455, 0.944000044837594, 0.0, 0.0, 0.0, 0.0, 0.0, 1.6518360650085905E9, 0.0, 2022-05-06 12:21:05.008
60.0, -246.2443628325127, -126.10194670595229, -148.35809134226292, -172.78150800289586, 0.144000006839633, 0.11200000531971455, 0.9760000463575125, 0.0, 0.0, 0.0, 0.0, 0.0, 1.6518360650095055E9, 0.0, 2022-05-06 12:21:05.009
60.0, -206.0815772083588, -64.6628702338785, -88.99839924555272, -140.78292398201302, 0.144000006839633, 0.11200000531971455, 0.9760000463575125, 0.0, 0.0, 0.0, 0.0, 0.0, 1.6518360650095055E9, 0.0, 2022-05-06 12:21:05.009
61.0, -217.271357875783, -118.92507869098336, -149.68575582653284, -157.75085008097813, 0.144000006839633, 0.11200000531971455, 0.9760000463575125, 0.0, 0.0, 0.0, 0.0, 0.0, 1.6518360650225086E9, 0.0, 2022-05-06 12:21:05.022
61.0, -251.56998036941513, -178.90933408029377, -198.93649834301323, -172.38507860759273, 0.144000006839633, 0.11200000531971455, 0.9760000463575125, 0.0, 0.0, 0.0, 0.0, 0.0, 1.6518360650225086E9, 0.0, 2022-05-06 12:21:05.022
62.0, -245.6534586395137, -134.24370890948921, -154.110057474114, -169.8793456372805, 0.1600000075995922, 0.11200000531971455, 0.9760000463575125, 0.0, 0.0, 0.0, 0.0, 0.0, 1.6518360650705729E9, 0.0, 2022-05-06 12:21:05.070
62.0, -216.77021128172055, -74.69702181499451, -104.55264316126704, -153.07597513636574, 0.1600000075995922, 0.11200000531971455, 0.9760000463575125, 0.0, 0.0, 0.0, 0.0, 0.0, 1.6518360650705729E9, 0.0, 2022-05-06 12:21:05.070
63.0, -222.44363951450214, -124.4676104253158, -150.033566522412, -157.0514887892641, 0.1600000075995922, 0.11200000531971455, 0.9760000463575125, 0.0, 0.0, 0.0, 0.0, 0.0, 1.6518360650715256E9, 0.0, 2022-05-06 12:21:05.071
63.0, -258.096105792094, -175.87627521622926, -196.66263916995376, -164.2470563040115, 0.1600000075995922, 0.11200000531971455, 0.9760000463575125, 0.0, 0.0, 0.0, 0.0, 0.0, 1.6518360650715256E9, 0.0, 2022-05-06 12:21:05.071
64.0, -244.7970215496607, -131.72301633935422, -150.9274026118219, -171.60717941680923, 0.1600000075995922, 0.11200000531971455, 0.9760000463575125, 0.0, 0.0, 0.0, 0.0, 0.0, 1.6518360650725248E9, 0.0, 2022-05-06 12:21:05.072
64.0, -207.38680229289457, -71.30867245513946, -98.47156583331525, -147.66807980043814, 0.1600000075995922, 0.11200000531971455, 0.9760000463575125, 0.0, 0.0, 0.0, 0.0, 0.0, 1.6518360650725248E9, 0.0, 2022-05-06 12:21:05.072
65.0, -221.74427822278813, -117.02894941344857, -150.06348572205752, -163.27094241557643, 0.1600000075995922, 0.11200000531971455, 0.9760000463575125, 0.0, 0.0, 0.0, 0.0, 0.0, 1.6518360650735197E9, 0.0, 2022-05-06 12:21:05.073
65.0, -260.71777566103265, -184.5678027132526, -211.2856479967013, -186.97816823469475, 0.1600000075995922, 0.11200000531971455, 0.9760000463575125, 0.0, 0.0, 0.0, 0.0, 0.0, 1.6518360650735197E9, 0.0, 2022-05-06 12:21:05.073
66.0, -251.1024928749539, -139.5094880471006, -159.02054611593485, -176.62986505730078, 0.1600000075995922, 0.11200000531971455, 0.9760000463575125, 0.0, 0.0, 0.0, 0.0, 0.0, 1.651836065083528E9, 0.0, 2022-05-06 12:21:05.083
66.0, -221.25435132859275, -78.67253546789289, -103.6401075720787, -155.22641761088744, 0.1600000075995922, 0.11200000531971455, 0.9760000463575125, 0.0, 0.0, 0.0, 0.0, 0.0, 1.651836065083528E9, 0.0, 2022-05-06 12:21:05.083
67.0, -234.78156946832314, -131.38268544338644, -166.21237373072654, -176.1025391635485, 0.1600000075995922, 0.11200000531971455, 0.9760000463575125, 0.0, 0.0, 0.0, 0.0, 0.0, 1.6518360650844724E9, 0.0, 2022-05-06 12:21:05.084
67.0, -267.0008075865917, -196.8720735674724, -219.92855679430068, -198.15672920225188, 0.1600000075995922, 0.11200000531971455, 0.9760000463575125, 0.0, 0.0, 0.0, 0.0, 0.0, 1.6518360650844724E9, 0.0, 2022-05-06 12:21:05.084
68.0, -262.75228123692796, -144.69298938568681, -167.05011132080108, -178.07346644019708, 0.1600000075995922, 0.11200000531971455, 0.9760000463575125, 0.0, 0.0, 0.0, 0.0, 0.0, 1.6518360650985572E9, 0.0, 2022-05-06 12:21:05.098
68.0, -208.87528247525916, -78.87075016554445, -104.80321645829827, -153.31906863348559, 0.1600000075995922, 0.11200000531971455, 0.9760000463575125, 0.0, 0.0, 0.0, 0.0, 0.0, 1.6518360650985572E9, 0.0, 2022-05-06 12:21:05.098
69.0, -237.58649443509057, -122.30220835097134, -151.84367810096592, -158.4651709725149, 0.1600000075995922, 0.11200000531971455, 0.9760000463575125, 0.0, 0.0, 0.0, 0.0, 0.0, 1.651836065113526E9, 0.0, 2022-05-06 12:21:05.113
69.0, -258.578552886378, -174.8216234287247, -202.16029210481793, -164.96137719554827, 0.1600000075995922, 0.11200000531971455, 0.9760000463575125, 0.0, 0.0, 0.0, 0.0, 0.0, 1.651836065113526E9, 0.0, 2022-05-06 12:21:05.113
70.0, -244.58758715214208, -131.34902634378523, -147.0005076583475, -163.77208900963888, 0.1600000075995922, 0.11200000531971455, 0.9920000471174717, 0.0, 0.0, 0.0, 0.0, 0.0, 1.6518360651145253E9, 0.0, 2022-05-06 12:21:05.114
70.0, -205.99555950937793, -61.66721036937088, -89.1143361441791, -124.18150807870552, 0.1600000075995922, 0.11200000531971455, 0.9920000471174717, 0.0, 0.0, 0.0, 0.0, 0.0, 1.6518360651145253E9, 0.0, 2022-05-06 12:21:05.114
71.0, -234.82644826779142, -121.55048845987767, -153.79216597788036, -174.07925328752026, 0.1600000075995922, 0.11200000531971455, 0.9920000471174717, 0.0, 0.0, 0.0, 0.0, 0.0, 1.651836065128549E9, 0.0, 2022-05-06 12:21:05.128
71.0, -265.3215925064869, -186.69206588808447, -213.7278026677668, -197.42744871089235, 0.1600000075995922, 0.11200000531971455, 0.9920000471174717, 0.0, 0.0, 0.0, 0.0, 0.0, 1.651836065128549E9, 0.0, 2022-05-06 12:21:05.128
72.0, -252.78170795505866, -134.6588378045708, -153.8482644772157, -170.33187353191897, 0.1600000075995922, 0.11200000531971455, 0.9920000471174717, 0.0, 0.0, 0.0, 0.0, 0.0, 1.651836065129482E9, 0.0, 2022-05-06 12:21:05.129
72.0, -210.33010355802253, -70.43353586550802, -90.59159662667662, -125.90934185823426, 0.1600000075995922, 0.11200000531971455, 0.9920000471174717, 0.0, 0.0, 0.0, 0.0, 0.0, 1.651836065129482E9, 0.0, 2022-05-06 12:21:05.129
73.0, -222.79893001029268, -110.58510178979486, -138.6193918576464, -147.8326353984885, 0.1600000075995922, 0.11200000531971455, 0.9920000471174717, 0.0, 0.0, 0.0, 0.0, 0.0, 1.6518360651425087E9, 0.0, 2022-05-06 12:21:05.142
73.0, -262.6700034379028, -177.87338179256767, -203.1738049928099, -182.5089877876453, 0.1600000075995922, 0.11200000531971455, 0.9920000471174717, 0.0, 0.0, 0.0, 0.0, 0.0, 1.6518360651425087E9, 0.0, 2022-05-06 12:21:05.142
74.0, -259.67434357339516, -141.6561906216666, -166.65742182545364, -184.28170036664233, 0.1600000075995922, 0.11200000531971455, 0.9920000471174717, 0.0, 0.0, 0.0, 0.0, 0.0, 1.6518360651585925E9, 0.0, 2022-05-06 12:21:05.158
74.0, -224.65766028827056, -82.91358201764524, -106.92747963313013, -158.22207747539505, 0.1600000075995922, 0.11200000531971455, 0.9920000471174717, 0.0, 0.0, 0.0, 0.0, 0.0, 1.6518360651585925E9, 0.0, 2022-05-06 12:21:05.158
75.0, -224.50806429004297, -120.59681397117674, -148.97891473490745, -162.38458612607792, 0.1600000075995922, 0.11200000531971455, 0.9920000471174717, 0.0, 0.0, 0.0, 0.0, 0.0, 1.6518360651594825E9, 0.0, 2022-05-06 12:21:05.159
75.0, -260.4372831643559, -188.56201586592942, -216.12507853936404, -200.2585529773496, 0.1600000075995922, 0.11200000531971455, 0.9920000471174717, 0.0, 0.0, 0.0, 0.0, 0.0, 1.6518360651594825E9, 0.0, 2022-05-06 12:21:05.159
76.0, -260.53452056320384, -144.56957268714905, -163.2578527657315, -173.85859919013456, 0.1600000075995922, 0.11200000531971455, 0.9920000471174717, 0.0, 0.0, 0.0, 0.0, 0.0, 1.6518360651725032E9, 0.0, 2022-05-06 12:21:05.172
76.0, -222.97096540825441, -75.82273170165718, -104.47784516215324, -151.0863483599387, 0.1600000075995922, 0.11200000531971455, 0.9920000471174717, 0.0, 0.0, 0.0, 0.0, 0.0, 1.6518360651725032E9, 0.0, 2022-05-06 12:21:05.172
77.0, -229.85986112663522, -115.42827223241329, -153.97916097566485, -165.38772579049692, 0.1600000075995922, 0.11200000531971455, 0.9920000471174717, 0.0, 0.0, 0.0, 0.0, 0.0, 1.6518360651875212E9, 0.0, 2022-05-06 12:21:05.187
77.0, -258.86652518296614, -178.0454171905294, -202.7250169981271, -178.6568908332847, 0.1600000075995922, 0.11200000531971455, 0.9920000471174717, 0.0, 0.0, 0.0, 0.0, 0.0, 1.6518360651875212E9, 0.0, 2022-05-06 12:21:05.187
78.0, -251.00525547610596, -136.41285088378936, -153.10028448607773, -168.67883775150403, 0.1600000075995922, 0.11200000531971455, 0.9920000471174717, 0.0, 0.0, 0.0, 0.0, 0.0, 1.651836065203567E9, 0.0, 2022-05-06 12:21:05.203
78.0, -216.84126938087866, -77.47576748207211, -103.63636767212301, -143.9805384441279, 0.1600000075995922, 0.11200000531971455, 0.9920000471174717, 0.0, 0.0, 0.0, 0.0, 0.0, 1.651836065203567E9, 0.0, 2022-05-06 12:21:05.203
79.0, -227.2381912576966, -114.97574433777481, -145.64666387438774, -139.47021909756586, 0.1600000075995922, 0.11200000531971455, 0.9920000471174717, 0.0, 0.0, 0.0, 0.0, 0.0, 1.6518360652045145E9, 0.0, 2022-05-06 12:21:05.204
79.0, -255.515574822668, -173.16484774835408, -202.56046140007675, -173.19663689797744, 0.1600000075995922, 0.11200000531971455, 0.9920000471174717, 0.0, 0.0, 0.0, 0.0, 0.0, 1.6518360652045145E9, 0.0, 2022-05-06 12:21:05.204
80.0, -253.66806424455717, -138.22296246234328, -154.13249687384814, -175.62757186917588, 0.1600000075995922, 0.11200000531971455, 1.008000047877431, 0.0, 0.0, 0.0, 0.0, 0.0, 1.65183606525073E9, 0.0, 2022-05-06 12:21:05.250
80.0, -223.04202350741252, -77.82357817795128, -101.58316259644926, -146.10106171900406, 0.1600000075995922, 0.11200000531971455, 1.008000047877431, 0.0, 0.0, 0.0, 0.0, 0.0, 1.65183606525073E9, 0.0, 2022-05-06 12:21:05.250
81.0, -233.10235438821837, -121.84220065642148, -155.09365116246045, -168.3572063553147, 0.1600000075995922, 0.12800000607967377, 1.008000047877431, 0.0, 0.0, 0.0, 0.0, 0.0, 1.6518360652515483E9, 0.0, 2022-05-06 12:21:05.251
81.0, -256.2186760143377, -181.6768600475043, -213.26031517330557, -189.90277000004426, 0.1600000075995922, 0.12800000607967377, 1.008000047877431, 0.0, 0.0, 0.0, 0.0, 0.0, 1.6518360652515483E9, 0.0, 2022-05-06 12:21:05.251
82.0, -264.05002652155235, -149.6221775272861, -167.9364676102996, -181.60393199836835, 0.1600000075995922, 0.12800000607967377, 1.008000047877431, 0.0, 0.0, 0.0, 0.0, 0.0, 1.6518360652524817E9, 0.0, 2022-05-06 12:21:05.252
82.0, -222.8251093099825, -76.29021919611841, -101.36250849906355, -143.2325584529899, 0.1600000075995922, 0.12800000607967377, 1.008000047877431, 0.0, 0.0, 0.0, 0.0, 0.0, 1.6518360652524817E9, 0.0, 2022-05-06 12:21:05.252
83.0, -224.9007537853904, -112.07732187211514, -142.9240167066455, -150.83951496286318, 0.1600000075995922, 0.12800000607967377, 1.008000047877431, 0.0, 0.0, 0.0, 0.0, 0.0, 1.6518360652535503E9, 0.0, 2022-05-06 12:21:05.253
83.0, -264.6222312147729, -188.30022286903113, -212.29916088469326, -185.59440525108948, 0.1600000075995922, 0.12800000607967377, 1.008000047877431, 0.0, 0.0, 0.0, 0.0, 0.0, 1.6518360652535503E9, 0.0, 2022-05-06 12:21:05.253
84.0, -261.3273793538101, -147.53157345205545, -170.98822597414255, -186.5854787393473, 0.1600000075995922, 0.12800000607967377, 1.008000047877431, 0.0, 0.0, 0.0, 0.0, 0.0, 1.6518360652635434E9, 0.0, 2022-05-06 12:21:05.263
84.0, -215.06855680188164, -77.18031538557261, -100.75664470624179, -146.32171581638977, 0.1600000075995922, 0.12800000607967377, 1.008000047877431, 0.0, 0.0, 0.0, 0.0, 0.0, 1.6518360652635434E9, 0.0, 2022-05-06 12:21:05.263
85.0, -216.24662528792396, -100.94363970402628, -136.0613002879545, -151.84180815098807, 0.1600000075995922, 0.12800000607967377, 1.008000047877431, 0.0, 0.0, 0.0, 0.0, 0.0, 1.6518360652645328E9, 0.0, 2022-05-06 12:21:05.264
85.0, -256.8021004074253, -180.40903396252543, -209.93180421274155, -183.96380887040868, 0.1600000075995922, 0.12800000607967377, 1.008000047877431, 0.0, 0.0, 0.0, 0.0, 0.0, 1.6518360652645328E9, 0.0, 2022-05-06 12:21:05.264
86.0, -254.41230433573946, -141.48041532374918, -162.45751417521387, -172.6880105040036, 0.1600000075995922, 0.12800000607967377, 1.008000047877431, 0.0, 0.0, 0.0, 0.0, 0.0, 1.6518360652945228E9, 0.0, 2022-05-06 12:21:05.294
86.0, -217.3050169753842, -66.86941120773554, -93.44888019282371, -131.4855326921679, 0.1600000075995922, 0.12800000607967377, 1.008000047877431, 0.0, 0.0, 0.0, 0.0, 0.0, 1.6518360652945228E9, 0.0, 2022-05-06 12:21:05.294
87.0, -216.73281228216365, -102.31244308780879, -140.0629932405427, -140.1994995889254, 0.1600000075995922, 0.12800000607967377, 1.008000047877431, 0.0, 0.0, 0.0, 0.0, 0.0, 1.6518360652954783E9, 0.0, 2022-05-06 12:21:05.295
87.0, -243.1365059693344, -167.6372756138444, -198.32689465023577, -166.93230447219685, 0.1600000075995922, 0.12800000607967377, 1.008000047877431, 0.0, 0.0, 0.0, 0.0, 0.0, 1.6518360652954783E9, 0.0, 2022-05-06 12:21:05.295
88.0, -254.68531703250483, -158.91956881713122, -176.29140411131084, -194.75716014252976, 0.1600000075995922, 0.12800000607967377, 1.008000047877431, 0.0, 0.0, 0.0, 0.0, 0.0, 1.6518360652964616E9, 0.0, 2022-05-06 12:21:05.296
88.0, -234.0934278764762, -83.35115031246096, -113.16189285926521, -165.79163498571143, 0.1600000075995922, 0.12800000607967377, 1.008000047877431, 0.0, 0.0, 0.0, 0.0, 0.0, 1.6518360652964616E9, 0.0, 2022-05-06 12:21:05.296
89.0, -237.99788343021646, -116.00795672554523, -155.31430525984615, -160.30894165067002, 0.1600000075995922, 0.12800000607967377, 1.008000047877431, 0.0, 0.0, 0.0, 0.0, 0.0, 1.6518360653085773E9, 0.0, 2022-05-06 12:21:05.308
89.0, -261.86592494742945, -180.51375116128474, -204.8754594726488, -175.31342027289793, 0.1600000075995922, 0.12800000607967377, 1.008000047877431, 0.0, 0.0, 0.0, 0.0, 0.0, 1.6518360653085773E9, 0.0, 2022-05-06 12:21:05.308
90.0, -259.8052400718443, -148.4815080408007, -161.19716789014637, -167.71768346289173, 0.1600000075995922, 0.12800000607967377, 1.008000047877431, 0.0, 0.0, 0.0, 0.0, 0.0, 1.6518360653555844E9, 0.0, 2022-05-06 12:21:05.355
90.0, -216.2690646876581, -70.47093486506492, -95.76387826539576, -126.23097325442359, 0.1600000075995922, 0.12800000607967377, 1.008000047877431, 0.0, 0.0, 0.0, 0.0, 0.0, 1.6518360653555844E9, 0.0, 2022-05-06 12:21:05.355
91.0, -218.85707545699552, -108.43465931527317, -149.3678643302992, -160.3500805501826, 0.1600000075995922, 0.11200000531971455, 1.008000047877431, 0.0, 0.0, 0.0, 0.0, 0.0, 1.6518360653565269E9, 0.0, 2022-05-06 12:21:05.356
91.0, -260.12687146803364, -177.40589429810643, -209.59521321672946, -192.221507972572, 0.1600000075995922, 0.11200000531971455, 1.008000047877431, 0.0, 0.0, 0.0, 0.0, 0.0, 1.6518360653565269E9, 0.0, 2022-05-06 12:21:05.356
92.0, -251.82429356640205, -139.82363964337856, -158.5941975209862, -170.78814132651314, 0.1600000075995922, 0.11200000531971455, 1.008000047877431, 0.0, 0.0, 0.0, 0.0, 0.0, 1.65183606535756E9, 0.0, 2022-05-06 12:21:05.357
92.0, -210.8948284513317, -73.4030164303258, -100.70054620690644, -147.52222370216623, 0.1600000075995922, 0.11200000531971455, 1.008000047877431, 0.0, 0.0, 0.0, 0.0, 0.0, 1.65183606535756E9, 0.0, 2022-05-06 12:21:05.357
93.0, -225.6823928761296, -115.82844152767211, -146.63773736264557, -165.8701728847809, 0.1600000075995922, 0.11200000531971455, 1.008000047877431, 0.0, 0.0, 0.0, 0.0, 0.0, 1.6518360653585012E9, 0.0, 2022-05-06 12:21:05.358
93.0, -255.29866062523797, -173.54631754383445, -195.5780681828037, -172.75532870320603, 0.1600000075995922, 0.11200000531971455, 1.008000047877431, 0.0, 0.0, 0.0, 0.0, 0.0, 1.6518360653585012E9, 0.0, 2022-05-06 12:21:05.358
94.0, -259.8127198717557, -156.39513634704053, -175.22553262393922, -175.0254479763098, 0.1600000075995922, 0.11200000531971455, 1.008000047877431, 0.0, 0.0, 0.0, 0.0, 0.0, 1.6518360653685317E9, 0.0, 2022-05-06 12:21:05.368
94.0, -215.7866175933741, -74.10611762199551, -105.89152734540403, -149.0518427840434, 0.1600000075995922, 0.11200000531971455, 1.008000047877431, 0.0, 0.0, 0.0, 0.0, 0.0, 1.6518360653685317E9, 0.0, 2022-05-06 12:21:05.368
95.0, -221.77793732238933, -111.81926877517253, -149.816652324982, -161.18407824030146, 0.1600000075995922, 0.11200000531971455, 1.008000047877431, 0.0, 0.0, 0.0, 0.0, 0.0, 1.651836065369454E9, 0.0, 2022-05-06 12:21:05.369
95.0, -260.31012656586245, -183.04192353133112, -209.5839935168624, -193.21258146082982, 0.1600000075995922, 0.11200000531971455, 1.008000047877431, 0.0, 0.0, 0.0, 0.0, 0.0, 1.651836065369454E9, 0.0, 2022-05-06 12:21:05.369
96.0, -250.3956517833285, -144.61819138657302, -155.27690626028925, -162.90443221991882, 0.1600000075995922, 0.11200000531971455, 1.008000047877431, 0.0, 0.0, 0.0, 0.0, 0.0, 1.6518360653704486E9, 0.0, 2022-05-06 12:21:05.370
96.0, -219.73221204662696, -66.86941120773554, -94.7129663778469, -143.43077315064147, 0.1600000075995922, 0.11200000531971455, 1.008000047877431, 0.0, 0.0, 0.0, 0.0, 0.0, 1.6518360653704486E9, 0.0, 2022-05-06 12:21:05.370
97.0, -225.10644828295335, -109.24247770570219, -145.65414367429912, -163.86184660857543, 0.1600000075995922, 0.11200000531971455, 1.008000047877431, 0.0, 0.0, 0.0, 0.0, 0.0, 1.6518360653825676E9, 0.0, 2022-05-06 12:21:05.382
97.0, -261.27876065438613, -184.88195430953056, -205.3205075673759, -181.08034600457177, 0.1600000075995922, 0.11200000531971455, 1.008000047877431, 0.0, 0.0, 0.0, 0.0, 0.0, 1.6518360653825676E9, 0.0, 2022-05-06 12:21:05.382
98.0, -264.34921851800755, -157.60312403272837, -175.7117196181789, -175.44805667130277, 0.1600000075995922, 0.11200000531971455, 1.008000047877431, 0.0, 0.0, 0.0, 0.0, 0.0, 1.65183606541457E9, 0.0, 2022-05-06 12:21:05.414
98.0, -210.28896465850994, -73.12626383360475, -94.03978438582271, -141.3439089753665, 0.1600000075995922, 0.11200000531971455, 1.008000047877431, 0.0, 0.0, 0.0, 0.0, 0.0, 1.65183606541457E9, 0.0, 2022-05-06 12:21:05.414
99.0, -213.95780651504174, -99.43272012192756, -133.3648324199021, -149.42957267956808, 0.1600000075995922, 0.11200000531971455, 1.008000047877431, 0.0, 0.0, 0.0, 0.0, 0.0, 1.6518360654155388E9, 0.0, 2022-05-06 12:21:05.415
99.0, -251.33810657216236, -178.07159649021924, -204.59496697597206, -180.90831060661003, 0.1600000075995922, 0.11200000531971455, 1.008000047877431, 0.0, 0.0, 0.0, 0.0, 0.0, 1.6518360654155388E9, 0.0, 2022-05-06 12:21:05.415
100.0, -247.45983031811193, -143.2867870023474, -161.672135184519, -164.97633679537103, 0.1600000075995922, 0.11200000531971455, 1.008000047877431, 0.0, 0.0, 0.0, 0.0, 0.0, 1.6518360654164624E9, 0.0, 2022-05-06 12:21:05.416
100.0, -226.3144359686412, -74.06123882252723, -100.94363970402628, -143.33353575179353, 0.1600000075995922, 0.11200000531971455, 1.008000047877431, 0.0, 0.0, 0.0, 0.0, 0.0, 1.6518360654164624E9, 0.0, 2022-05-06 12:21:05.416
0.0, -217.11054217768833, -103.5110810236074, -137.2879874734208, -155.3834934090264, 0.1600000075995922, 0.11200000531971455, 1.008000047877431, 0.0, 0.0, 0.0, 0.0, 0.0, 1.6518360654175236E9, 0.0, 2022-05-06 12:21:05.417
1.0, -255.51931472262368, -177.5872794459574, -203.33836059086025, -192.7002151669003, 0.1600000075995922, 0.11200000531971455, 1.008000047877431, 0.0, 0.0, 0.0, 0.0, 0.0, 1.6518360654275992E9, 0.0, 2022-05-06 12:21:05.427
1.0, -261.76120774867013, -153.74541722843423, -172.58890315517783, -185.10073845693842, 0.1600000075995922, 0.11200000531971455, 1.008000047877431, 0.0, 0.0, 0.0, 0.0, 0.0, 1.6518360654275992E9, 0.0, 2022-05-06 12:21:05.427
2.0, -221.0860558305867, -79.34758740989491, -112.34659466892481, -153.7940359278582, 0.1600000075995922, 0.11200000531971455, 1.008000047877431, 0.0, 0.0, 0.0, 0.0, 0.0, 1.6518360654435081E9, 0.0, 2022-05-06 12:21:05.443
2.0, -220.7868638341315, -107.28090017894283, -140.60153883416206, -153.82021522754803, 0.1600000075995922, 0.11200000531971455, 1.008000047877431, 0.0, 0.0, 0.0, 0.0, 0.0, 1.6518360654435081E9, 0.0, 2022-05-06 12:21:05.443
3.0, -254.81995343090966, -172.07092701131478, -193.28550950996578, -169.04534794716164, 0.1600000075995922, 0.11200000531971455, 1.008000047877431, 0.0, 0.0, 0.0, 0.0, 0.0, 1.6518360654444816E9, 0.0, 2022-05-06 12:21:05.444
3.0, -247.85625971341506, -145.77943032281473, -154.08013827446848, -155.87716020317748, 0.1600000075995922, 0.11200000531971455, 1.008000047877431, 0.0, 0.0, 0.0, 0.0, 0.0, 1.6518360654444816E9, 0.0, 2022-05-06 12:21:05.444
4.0, -227.4962443546392, -86.44217762583867, -121.9469178551808, -169.56893394095823, 0.1600000075995922, 0.11200000531971455, 1.008000047877431, 0.0, 0.0, 0.0, 0.0, 0.0, 1.6518360654735072E9, 0.0, 2022-05-06 12:21:05.473
4.0, -232.49275069544092, -115.27306638425216, -144.09460539277643, -163.1699651167728, 0.1600000075995922, 0.11200000531971455, 1.008000047877431, 0.0, 0.0, 0.0, 0.0, 0.0, 1.6518360654735072E9, 0.0, 2022-05-06 12:21:05.473
5.0, -254.77507463144138, -177.736875444185, -201.0607615178451, -172.4710963065736, 0.1600000075995922, 0.11200000531971455, 1.008000047877431, 0.0, 0.0, 0.0, 0.0, 0.0, 1.6518360654745271E9, 0.0, 2022-05-06 12:21:05.474
5.0, -242.0930738816969, -143.47565195010975, -162.34531717654318, -161.49448993662372, 0.1600000075995922, 0.11200000531971455, 1.008000047877431, 0.0, 0.0, 0.0, 0.0, 0.0, 1.6518360654745271E9, 0.0, 2022-05-06 12:21:05.474
6.0, -207.76827208837494, -59.82156974123791, -89.81369743589312, -138.35198901081458, 0.1600000075995922, 0.11200000531971455, 1.008000047877431, 0.0, 0.0, 0.0, 0.0, 0.0, 1.6518360654755244E9, 0.0, 2022-05-06 12:21:05.475
6.0, -214.73570570582524, -97.7665946916677, -133.05068082362413, -149.41461307974532, 0.1600000075995922, 0.11200000531971455, 1.008000047877431, 0.0, 0.0, 0.0, 0.0, 0.0, 1.6518360654755244E9, 0.0, 2022-05-06 12:21:05.475
7.0, -253.33895304845646, -174.04559418791905, -199.1347130406648, -166.0272486829199, 0.1600000075995922, 0.11200000531971455, 1.008000047877431, 0.0, 0.0, 0.0, 0.0, 0.0, 1.6518360654875607E9, 0.0, 2022-05-06 12:21:05.487
7.0, -250.48914928222075, -151.0190301607363, -173.50891854427755, -176.181077062618, 0.1600000075995922, 0.11200000531971455, 1.008000047877431, 0.0, 0.0, 0.0, 0.0, 0.0, 1.6518360654875607E9, 0.0, 2022-05-06 12:21:05.487
8.0, -217.62664837157354, -74.25384367024526, -105.30062315240502, -145.62235452467576, 0.1600000075995922, 0.11200000531971455, 1.008000047877431, 0.0, 0.0, 0.0, 0.0, 0.0, 1.6518360655035684E9, 0.0, 2022-05-06 12:21:05.503
8.0, -225.51409737812355, -103.28294712631032, -143.41768350079656, -163.64119251118973, 0.1600000075995922, 0.11200000531971455, 1.008000047877431, 0.0, 0.0, 0.0, 0.0, 0.0, 1.6518360655035684E9, 0.0, 2022-05-06 12:21:05.503
9.0, -264.4127968172543, -181.78344719624147, -207.7626622384414, -189.26698700757697, 0.1600000075995922, 0.11200000531971455, 1.008000047877431, 0.0, 0.0, 0.0, 0.0, 0.0, 1.65183606550453E9, 0.0, 2022-05-06 12:21:05.504
9.0, -249.7673485907726, -149.8671409743838, -167.6671948134899, -168.5442013530992, 0.1600000075995922, 0.11200000531971455, 1.008000047877431, 0.0, 0.0, 0.0, 0.0, 0.0, 1.65183606550453E9, 0.0, 2022-05-06 12:21:05.504
10.0, -218.96553255571052, -74.1640860713087, -104.41052696295083, -149.41461307974532, 0.1600000075995922, 0.11200000531971455, 1.008000047877431, 0.0, 0.0, 0.0, 0.0, 0.0, 1.6518360655335884E9, 0.0, 2022-05-06 12:21:05.533
10.0, -221.7180989230983, -105.8485184959136, -133.85475931409746, -150.8357750629075, 0.1600000075995922, 0.11200000531971455, 1.008000047877431, 0.0, 0.0, 0.0, 0.0, 0.0, 1.6518360655335884E9, 0.0, 2022-05-06 12:21:05.533
11.0, -250.208656785544, -180.0668331165798, -199.40024593751878, -168.22256995690987, 0.1600000075995922, 0.11200000531971455, 1.008000047877431, 0.0, 0.0, 0.0, 0.0, 0.0, 1.651836065534467E9, 0.0, 2022-05-06 12:21:05.534
11.0, -253.08837975142524, -154.56445531873032, -170.47959958016872, -167.18661766918376, 0.1600000075995922, 0.11200000531971455, 1.008000047877431, 0.0, 0.0, 0.0, 0.0, 0.0, 1.651836065534467E9, 0.0, 2022-05-06 12:21:05.534
12.0, -219.21610585274175, -77.84040772775188, -106.0112041439861, -158.92517866706476, 0.1600000075995922, 0.11200000531971455, 1.008000047877431, 0.0, 0.0, 0.0, 0.0, 0.0, 1.6518360655354753E9, 0.0, 2022-05-06 12:21:05.535
12.0, -208.64340867800638, -98.97832227731124, -128.08783358242363, -153.00865693716332, 0.1600000075995922, 0.11200000531971455, 1.008000047877431, 0.0, 0.0, 0.0, 0.0, 0.0, 1.6518360655354753E9, 0.0, 2022-05-06 12:21:05.535
13.0, -259.39011117676273, -180.57919941050932, -202.94193119555712, -184.97732175840065, 0.1600000075995922, 0.11200000531971455, 1.008000047877431, 0.0, 0.0, 0.0, 0.0, 0.0, 1.651836065563566E9, 0.0, 2022-05-06 12:21:05.563
13.0, -251.66347786830738, -163.9478643075563, -178.9018542803824, -182.4341897885315, 0.1600000075995922, 0.11200000531971455, 1.008000047877431, 0.0, 0.0, 0.0, 0.0, 0.0, 1.651836065563566E9, 0.0, 2022-05-06 12:21:05.563
14.0, -213.76707161730155, -65.16962667787448, -92.74203910119832, -129.14061541995034, 0.1600000075995922, 0.11200000531971455, 1.008000047877431, 0.0, 0.0, 0.0, 0.0, 0.0, 1.6518360655645483E9, 0.0, 2022-05-06 12:21:05.564
14.0, -213.6735741184093, -90.81412067404017, -127.14537879358977, -143.03808365529403, 0.1600000075995922, 0.11200000531971455, 1.008000047877431, 0.0, 0.0, 0.0, 0.0, 0.0, 1.6518360655645483E9, 0.0, 2022-05-06 12:21:05.564
15.0, -250.81452057836577, -178.38013823656365, -206.89500544872135, -198.50453989813104, 0.1600000075995922, 0.11200000531971455, 1.008000047877431, 0.0, 0.0, 0.0, 0.0, 0.0, 1.6518360655654871E9, 0.0, 2022-05-06 12:21:05.565
15.0, -253.26789494929835, -157.728410681244, -167.0014926213771, -174.30364728486165, 0.1600000075995922, 0.11200000531971455, 1.008000047877431, 0.0, 0.0, 0.0, 0.0, 0.0, 1.6518360655654871E9, 0.0, 2022-05-06 12:21:05.565
16.0, -237.41071913717315, -89.71085018711165, -115.55168893095106, -166.2778219799511, 0.1600000075995922, 0.11200000531971455, 1.008000047877431, 0.0, 0.0, 0.0, 0.0, 0.0, 1.6518360655935445E9, 0.0, 2022-05-06 12:21:05.593
16.0, -221.75923782261088, -102.95009603025392, -141.0278874291107, -159.18697166396305, 0.1600000075995922, 0.11200000531971455, 1.008000047877431, 0.0, 0.0, 0.0, 0.0, 0.0, 1.6518360655935445E9, 0.0, 2022-05-06 12:21:05.593
17.0, -261.0693262568675, -192.05695237452164, -215.97548254113644, -192.93208896415308, 0.1600000075995922, 0.11200000531971455, 1.008000047877431, 0.0, 0.0, 0.0, 0.0, 0.0, 1.651836065594452E9, 0.0, 2022-05-06 12:21:05.594
17.0, -251.07257367530838, -153.22931103454903, -171.51181196793914, -172.56085390551016, 0.1600000075995922, 0.11200000531971455, 1.008000047877431, 0.0, 0.0, 0.0, 0.0, 0.0, 1.651836065594452E9, 0.0, 2022-05-06 12:21:05.594
18.0, -214.76188500551507, -72.72796448832378, -104.83687555789948, -135.21047304803506, 0.1600000075995922, 0.11200000531971455, 1.008000047877431, 0.0, 0.0, 0.0, 0.0, 0.0, 1.6518360655954561E9, 0.0, 2022-05-06 12:21:05.595
18.0, -205.6739281131886, -84.51986904861405, -119.7628162810579, -136.4857789329253, 0.1600000075995922, 0.11200000531971455, 1.008000047877431, 0.0, 0.0, 0.0, 0.0, 0.0, 1.6518360655954561E9, 0.0, 2022-05-06 12:21:05.595
19.0, -248.4696033061482, -166.59571347618476, -194.73659069277346, -176.89539795415476, 0.1600000075995922, 0.11200000531971455, 1.008000047877431, 0.0, 0.0, 0.0, 0.0, 0.0, 1.6518360656075203E9, 0.0, 2022-05-06 12:21:05.607
19.0, -256.2411154140718, -156.78969579236582, -175.75659841764718, -179.6629239213653, 0.1600000075995922, 0.11200000531971455, 1.008000047877431, 0.0, 0.0, 0.0, 0.0, 0.0, 1.6518360656075203E9, 0.0, 2022-05-06 12:21:05.607
20.0, -223.4160135029815, -79.18677171180025, -106.74048463534564, -150.81707556312904, 0.1600000075995922, 0.11200000531971455, 1.008000047877431, 0.0, 0.0, 0.0, 0.0, 0.0, 1.6518360656237457E9, 0.0, 2022-05-06 12:21:05.623
20.0, -216.81882998114452, -98.05082708830014, -130.99373584799469, -153.10589433601126, 0.1600000075995922, 0.11200000531971455, 1.008000047877431, 0.0, 0.0, 0.0, 0.0, 0.0, 1.6518360656237457E9, 0.0, 2022-05-06 12:21:05.623
21.0, -245.16353174531832, -166.29652147972956, -195.2826160863042, -182.53890698729083, 0.1600000075995922, 0.11200000531971455, 1.008000047877431, 0.0, 0.0, 0.0, 0.0, 0.0, 1.6518360656245735E9, 0.0, 2022-05-06 12:21:05.624
21.0, -251.33810657216236, -158.08744107699022, -174.84780272841454, -170.5861867289059, 0.1600000075995922, 0.11200000531971455, 1.008000047877431, 0.0, 0.0, 0.0, 0.0, 0.0, 1.6518360656245735E9, 0.0, 2022-05-06 12:21:05.624
22.0, -215.0872563016601, -69.4966909266077, -99.98996521532536, -142.1629470656626, 0.1600000075995922, 0.11200000531971455, 1.008000047877431, 0.0, 0.0, 0.0, 0.0, 0.0, 1.6518360656535797E9, 0.0, 2022-05-06 12:21:05.653
22.0, -209.974813062232, -95.55257391789928, -129.63241226412356, -153.02361653698608, 0.1600000075995922, 0.11200000531971455, 1.008000047877431, 0.0, 0.0, 0.0, 0.0, 0.0, 1.6518360656535797E9, 0.0, 2022-05-06 12:21:05.653
23.0, -252.63959175674245, -174.64023828087375, -193.5323429070413, -169.4716965421103, 0.1600000075995922, 0.11200000531971455, 1.008000047877431, 0.0, 0.0, 0.0, 0.0, 0.0, 1.6518360656544704E9, 0.0, 2022-05-06 12:21:05.654
23.0, -251.37176567176357, -154.41111942054704, -177.06182350218296, -188.69104241440073, 0.1600000075995922, 0.11200000531971455, 1.008000047877431, 0.0, 0.0, 0.0, 0.0, 0.0, 1.6518360656544704E9, 0.0, 2022-05-06 12:21:05.654
24.0, -225.17376648215577, -75.14019995974377, -105.73071164730936, -150.82081546308473, 0.1600000075995922, 0.11200000531971455, 1.008000047877431, 0.0, 0.0, 0.0, 0.0, 0.0, 1.6518360656554823E9, 0.0, 2022-05-06 12:21:05.655
24.0, -216.84874918079004, -102.104878640268, -133.97817601263523, -149.42957267956808, 0.1600000075995922, 0.11200000531971455, 1.008000047877431, 0.0, 0.0, 0.0, 0.0, 0.0, 1.6518360656554823E9, 0.0, 2022-05-06 12:21:05.655
25.0, -250.0590607873164, -184.74170806119218, -202.03687540628016, -184.43129636486992, 0.1600000075995922, 0.11200000531971455, 1.008000047877431, 0.0, 0.0, 0.0, 0.0, 0.0, 1.651836065683545E9, 0.0, 2022-05-06 12:21:05.683
25.0, -252.14592496259138, -153.73793742852286, -166.27595202997327, -162.32848762674257, 0.1600000075995922, 0.11200000531971455, 1.008000047877431, 0.0, 0.0, 0.0, 0.0, 0.0, 1.651836065683545E9, 0.0, 2022-05-06 12:21:05.683
26.0, -220.21091924095526, -71.03378980839625, -104.75833765882999, -152.2756365458481, 0.1600000075995922, 0.11200000531971455, 1.008000047877431, 0.0, 0.0, 0.0, 0.0, 0.0, 1.6518360656845047E9, 0.0, 2022-05-06 12:21:05.684
26.0, -215.91003429191187, -92.26894175680354, -127.7624622862786, -157.2384837870486, 0.1600000075995922, 0.11200000531971455, 1.008000047877431, 0.0, 0.0, 0.0, 0.0, 0.0, 1.6518360656845047E9, 0.0, 2022-05-06 12:21:05.684
27.0, -241.49094998883083, -169.84568653767928, -193.55852220673114, -171.26310862088576, 0.1600000075995922, 0.11200000531971455, 1.008000047877431, 0.0, 0.0, 0.0, 0.0, 0.0, 1.6518360656855252E9, 0.0, 2022-05-06 12:21:05.685
27.0, -254.7339357319288, -145.02397053176537, -169.73161958903074, -165.19699089275673, 0.1600000075995922, 0.11200000531971455, 1.008000047877431, 0.0, 0.0, 0.0, 0.0, 0.0, 1.6518360656855252E9, 0.0, 2022-05-06 12:21:05.685
28.0, -221.9761520200409, -73.89855317445472, -107.16683323029429, -153.74167732847854, 0.1600000075995922, 0.11200000531971455, 1.008000047877431, 0.0, 0.0, 0.0, 0.0, 0.0, 1.6518360656975634E9, 0.0, 2022-05-06 12:21:05.697
28.0, -220.84670223342255, -101.67105024540797, -134.23248920962214, -160.0172294541262, 0.1600000075995922, 0.11200000531971455, 1.008000047877431, 0.0, 0.0, 0.0, 0.0, 0.0, 1.6518360656975634E9, 0.0, 2022-05-06 12:21:05.697
29.0, -254.1355517390184, -193.5229931571521, -209.42317781876773, -187.34467843035236, 0.1600000075995922, 0.11200000531971455, 1.008000047877431, 0.0, 0.0, 0.0, 0.0, 0.0, 1.6518360657135837E9, 0.0, 2022-05-06 12:21:05.713
29.0, -241.71534398617223, -157.9864637781866, -174.5299112321809, -164.8417003969662, 0.1600000075995922, 0.11200000531971455, 1.008000047877431, 0.0, 0.0, 0.0, 0.0, 0.0, 1.6518360657135837E9, 0.0, 2022-05-06 12:21:05.713
30.0, -216.77395118167624, -68.02691024402156, -101.7888570940122, -151.5014772550203, 0.1600000075995922, 0.11200000531971455, 1.008000047877431, 0.0, 0.0, 0.0, 0.0, 0.0, 1.6518360657285328E9, 0.0, 2022-05-06 12:21:05.728
30.0, -214.4589531091042, -90.38029227918014, -121.80854155682027, -143.62898784829304, 0.1600000075995922, 0.11200000531971455, 1.008000047877431, 0.0, 0.0, 0.0, 0.0, 0.0, 1.6518360657285328E9, 0.0, 2022-05-06 12:21:05.728
31.0, -259.2554747783579, -188.67234291462228, -205.23074996843934, -191.24913398409262, 0.1600000075995922, 0.11200000531971455, 1.008000047877431, 0.0, 0.0, 0.0, 0.0, 0.0, 1.651836065729453E9, 0.0, 2022-05-06 12:21:05.729
31.0, -258.036267392803, -166.40497857844457, -183.93201972078532, -179.82747951941565, 0.1600000075995922, 0.11200000531971455, 1.008000047877431, 0.0, 0.0, 0.0, 0.0, 0.0, 1.651836065729453E9, 0.0, 2022-05-06 12:21:05.729
32.0, -218.73365875845775, -70.50646391464397, -102.64903408382088, -143.8982606451027, 0.1600000075995922, 0.11200000531971455, 1.008000047877431, 0.0, 0.0, 0.0, 0.0, 0.0, 1.6518360657436135E9, 0.0, 2022-05-06 12:21:05.743
32.0, -206.4518273039721, -86.34868012694642, -114.72517104074359, -138.09767581382766, 0.1600000075995922, 0.11200000531971455, 1.008000047877431, 0.0, 0.0, 0.0, 0.0, 0.0, 1.6518360657436135E9, 0.0, 2022-05-06 12:21:05.743
33.0, -253.18187725031748, -177.07117325207219, -202.3211078029126, -183.39160417718813, 0.1600000075995922, 0.11200000531971455, 1.008000047877431, 0.0, 0.0, 0.0, 0.0, 0.0, 1.6518360657444744E9, 0.0, 2022-05-06 12:21:05.744
33.0, -268.24619427183643, -167.1379989697598, -191.73345102835447, -190.98360108723864, 0.1600000075995922, 0.11200000531971455, 1.008000047877431, 0.0, 0.0, 0.0, 0.0, 0.0, 1.6518360657444744E9, 0.0, 2022-05-06 12:21:05.744
34.0, -219.5676564485766, -74.77368976408616, -106.71056543570012, -150.28226986946538, 0.1600000075995922, 0.11200000531971455, 1.008000047877431, 0.0, 0.0, 0.0, 0.0, 0.0, 1.6518360657905223E9, 0.0, 2022-05-06 12:21:05.790
34.0, -208.62470917822793, -88.39814530266449, -118.82036149222404, -145.7569909230806, 0.1600000075995922, 0.11200000531971455, 1.008000047877431, 0.0, 0.0, 0.0, 0.0, 0.0, 1.6518360657905223E9, 0.0, 2022-05-06 12:21:05.790
35.0, -255.6165521214716, -179.7003229209222, -206.08344715833664, -190.4824544931762, 0.1600000075995922, 0.11200000531971455, 1.008000047877431, 0.0, 0.0, 0.0, 0.0, 0.0, 1.6518360657914853E9, 0.0, 2022-05-06 12:21:05.791
35.0, -259.64816427370533, -170.55252762930468, -190.39456684421748, -184.28170036664233, 0.1600000075995922, 0.11200000531971455, 1.008000047877431, 0.0, 0.0, 0.0, 0.0, 0.0, 1.6518360657914853E9, 0.0, 2022-05-06 12:21:05.791
36.0, -225.95166567293927, -79.47100410843268, -114.37362044490874, -156.03049610136077, 0.1600000075995922, 0.11200000531971455, 1.008000047877431, 0.0, 0.0, 0.0, 0.0, 0.0, 1.6518360657925868E9, 0.0, 2022-05-06 12:21:05.792
36.0, -226.78192346310243, -93.29741424461827, -125.48860311321914, -151.73709095222875, 0.1600000075995922, 0.11200000531971455, 1.008000047877431, 0.0, 0.0, 0.0, 0.0, 0.0, 1.6518360657925868E9, 0.0, 2022-05-06 12:21:05.792
37.0, -249.0605074991472, -173.08069999935105, -192.39541332051158, -166.84628677321598, 0.1600000075995922, 0.11200000531971455, 1.008000047877431, 0.0, 0.0, 0.0, 0.0, 0.0, 1.6518360657936313E9, 0.0, 2022-05-06 12:21:05.793
37.0, -264.3379988181405, -167.79248146200553, -185.7870100988075, -181.34213900147006, 0.1600000075995922, 0.11200000531971455, 1.008000047877431, 0.0, 0.0, 0.0, 0.0, 0.0, 1.6518360657936313E9, 0.0, 2022-05-06 12:21:05.793
38.0, -228.09836824750528, -76.9091726387851, -111.14608678314835, -154.22038452280685, 0.1600000075995922, 0.11200000531971455, 1.008000047877431, 0.0, 0.0, 0.0, 0.0, 0.0, 1.6518360658034985E9, 0.0, 2022-05-06 12:21:05.803
38.0, -225.65995347639546, -94.10523263504729, -129.3556596674025, -161.71888393396512, 0.1600000075995922, 0.11200000531971455, 1.008000047877431, 0.0, 0.0, 0.0, 0.0, 0.0, 1.6518360658034985E9, 0.0, 2022-05-06 12:21:05.803
39.0, -264.63345091464, -188.79575961316004, -205.67205816321075, -189.8504114006646, 0.1600000075995922, 0.11200000531971455, 1.008000047877431, 0.0, 0.0, 0.0, 0.0, 0.0, 1.6518360658044834E9, 0.0, 2022-05-06 12:21:05.804
39.0, -259.109618680086, -169.9541436363943, -186.50507089029998, -168.353466455359, 0.1600000075995922, 0.11200000531971455, 1.008000047877431, 0.0, 0.0, 0.0, 0.0, 0.0, 1.6518360658044834E9, 0.0, 2022-05-06 12:21:05.804
40.0, -228.77529013948515, -78.04236232535914, -115.45445153210312, -155.9856173018925, 0.1600000075995922, 0.11200000531971455, 1.008000047877431, 0.0, 0.0, 0.0, 0.0, 0.0, 1.6518360658176577E9, 0.0, 2022-05-06 12:21:05.817
40.0, -227.76177725149319, -93.85839923797175, -125.72047691047192, -160.15560575248674, 0.1600000075995922, 0.11200000531971455, 1.008000047877431, 0.0, 0.0, 0.0, 0.0, 0.0, 1.6518360658176577E9, 0.0, 2022-05-06 12:21:05.817
41.0, -256.6899034087546, -174.82349337870255, -196.9094725670293, -183.851611871738, 0.1600000075995922, 0.11200000531971455, 1.008000047877431, 0.0, 0.0, 0.0, 0.0, 0.0, 1.6518360658657005E9, 0.0, 2022-05-06 12:21:05.865
41.0, -271.3241319353692, -174.93195047741756, -193.99609050154686, -190.87514398852363, 0.1600000075995922, 0.11200000531971455, 1.008000047877431, 0.0, 0.0, 0.0, 0.0, 0.0, 1.6518360658657005E9, 0.0, 2022-05-06 12:21:05.865
42.0, -234.91620586672798, -93.72002293961123, -122.84449384454638, -166.7266099746339, 0.1600000075995922, 0.11200000531971455, 1.008000047877431, 0.0, 0.0, 0.0, 0.0, 0.0, 1.6518360658665168E9, 0.0, 2022-05-06 12:21:05.866
42.0, -222.70169261144474, -97.22056929813698, -123.95150423143059, -156.15017289994285, 0.1600000075995922, 0.11200000531971455, 1.008000047877431, 0.0, 0.0, 0.0, 0.0, 0.0, 1.6518360658665168E9, 0.0, 2022-05-06 12:21:05.866
43.0, -252.66951095638797, -176.9589762534015, -198.54754874762148, -178.11834523966536, 0.1600000075995922, 0.11200000531971455, 1.008000047877431, 0.0, 0.0, 0.0, 0.0, 0.0, 1.6518360658675869E9, 0.0, 2022-05-06 12:21:05.867
43.0, -256.37575181247666, -169.71852993918583, -187.2754902811721, -176.79816055530682, 0.1600000075995922, 0.11200000531971455, 1.008000047877431, 0.0, 0.0, 0.0, 0.0, 0.0, 1.6518360658675869E9, 0.0, 2022-05-06 12:21:05.867
44.0, -216.18304698867723, -74.54929576674476, -106.70682553574443, -141.17561347736046, 0.1600000075995922, 0.11200000531971455, 1.008000047877431, 0.0, 0.0, 0.0, 0.0, 0.0, 1.6518360658685734E9, 0.0, 2022-05-06 12:21:05.868
44.0, -222.77649061055854, -89.96516338409856, -120.37615987379104, -139.22712560044602, 0.1600000075995922, 0.11200000531971455, 1.008000047877431, 0.0, 0.0, 0.0, 0.0, 0.0, 1.6518360658685734E9, 0.0, 2022-05-06 12:21:05.868
45.0, -244.64368565147743, -159.5796611593105, -180.95505935605615, -159.12339336471632, 0.1600000075995922, 0.11200000531971455, 1.008000047877431, 0.0, 0.0, 0.0, 0.0, 0.0, 1.6518360658785553E9, 0.0, 2022-05-06 12:21:05.878
45.0, -265.3963905056007, -169.85316633759066, -184.6014618128538, -183.49258147599176, 0.1600000075995922, 0.11200000531971455, 1.008000047877431, 0.0, 0.0, 0.0, 0.0, 0.0, 1.6518360658785553E9, 0.0, 2022-05-06 12:21:05.878
46.0, -231.32590190926567, -82.1338128768839, -119.48232378438115, -162.91939181974158, 0.1600000075995922, 0.11200000531971455, 1.008000047877431, 0.0, 0.0, 0.0, 0.0, 0.0, 1.651836065879461E9, 0.0, 2022-05-06 12:21:05.879
46.0, -216.1980065885, -87.01812221901491, -114.18662544712424, -147.1220544069074, 0.1600000075995922, 0.11200000531971455, 1.008000047877431, 0.0, 0.0, 0.0, 0.0, 0.0, 1.651836065879461E9, 0.0, 2022-05-06 12:21:05.879
47.0, -251.173550974112, -168.52550185332075, -189.14918015897274, -170.46277003036812, 0.1600000075995922, 0.11200000531971455, 1.008000047877431, 0.0, 0.0, 0.0, 0.0, 0.0, 1.6518360659095252E9, 0.0, 2022-05-06 12:21:05.909
47.0, -269.8880103523843, -168.73867615079507, -191.25848373398185, -181.94426289433613, 0.1600000075995922, 0.11200000531971455, 1.008000047877431, 0.0, 0.0, 0.0, 0.0, 0.0, 1.6518360659095252E9, 0.0, 2022-05-06 12:21:05.909
48.0, -236.73005734523758, -87.05552121857181, -119.51972278393805, -161.96571733104065, 0.1600000075995922, 0.11200000531971455, 1.008000047877431, 0.0, 0.0, 0.0, 0.0, 0.0, 1.6518360659106174E9, 0.0, 2022-05-06 12:21:05.910
48.0, -222.24542481685057, -85.85501333279535, -116.48292401991785, -145.88788742152974, 0.1600000075995922, 0.11200000531971455, 1.008000047877431, 0.0, 0.0, 0.0, 0.0, 0.0, 1.6518360659106174E9, 0.0, 2022-05-06 12:21:05.910
49.0, -247.58698691660538, -170.23463613307104, -189.59048835374415, -167.26515556825325, 0.1600000075995922, 0.11200000531971455, 1.008000047877431, 0.0, 0.0, 0.0, 0.0, 0.0, 1.6518360659115756E9, 0.0, 2022-05-06 12:21:05.911
49.0, -256.7422620081343, -158.60354727087542, -181.70303934719414, -178.30160033749416, 0.1600000075995922, 0.11200000531971455, 1.008000047877431, 0.0, 0.0, 0.0, 0.0, 0.0, 1.6518360659115756E9, 0.0, 2022-05-06 12:21:05.911
50.0, -232.04770260071382, -86.41225842619315, -121.35975356213748, -165.48496318934485, 0.1600000075995922, 0.11200000531971455, 1.008000047877431, 0.0, 0.0, 0.0, 0.0, 0.0, 1.6518360659125707E9, 0.0, 2022-05-06 12:21:05.912
50.0, -222.43615971459076, -92.88228534953669, -127.66148498747498, -159.30290856258944, 0.1600000075995922, 0.11200000531971455, 1.008000047877431, 0.0, 0.0, 0.0, 0.0, 0.0, 1.6518360659125707E9, 0.0, 2022-05-06 12:21:05.912
51.0, -263.1487106322311, -185.95343564683571, -205.15595196932554, -191.75028057815507, 0.1600000075995922, 0.11200000531971455, 1.008000047877431, 0.0, 0.0, 0.0, 0.0, 0.0, 1.6518360659386013E9, 0.0, 2022-05-06 12:21:05.938
51.0, -266.1518502966501, -171.5024622180499, -189.73260455206037, -179.3263329253532, 0.1600000075995922, 0.11200000531971455, 1.008000047877431, 0.0, 0.0, 0.0, 0.0, 0.0, 1.6518360659386013E9, 0.0, 2022-05-06 12:21:05.938
52.0, -236.18029205175117, -86.04200833057985, -116.83821451570839, -148.4945976906456, 0.1600000075995922, 0.11200000531971455, 1.008000047877431, 0.0, 0.0, 0.0, 0.0, 0.0, 1.651836065970516E9, 0.0, 2022-05-06 12:21:05.970
52.0, -224.21635209349915, -88.42806450231001, -123.6523122349754, -151.613674253691, 0.1600000075995922, 0.11200000531971455, 1.008000047877431, 0.0, 0.0, 0.0, 0.0, 0.0, 1.651836065970516E9, 0.0, 2022-05-06 12:21:05.970
53.0, -253.09211965138093, -170.71708322735503, -203.54779498837888, -187.81964572472498, 0.1600000075995922, 0.11200000531971455, 1.008000047877431, 0.0, 0.0, 0.0, 0.0, 0.0, 1.651836065971486E9, 0.0, 2022-05-06 12:21:05.971
53.0, -260.291427066084, -169.75218903878704, -190.26741024572402, -180.2500882144086, 0.1600000075995922, 0.11200000531971455, 1.008000047877431, 0.0, 0.0, 0.0, 0.0, 0.0, 1.651836065971486E9, 0.0, 2022-05-06 12:21:05.971
54.0, -224.5342435897328, -81.70372438197955, -113.41620605625212, -149.79982277518138, 0.1600000075995922, 0.11200000531971455, 1.008000047877431, 0.0, 0.0, 0.0, 0.0, 0.0, 1.6518360659724972E9, 0.0, 2022-05-06 12:21:05.972
54.0, -231.26606350997463, -96.79422070318833, -125.48112331330776, -170.48146953014657, 0.1600000075995922, 0.11200000531971455, 1.008000047877431, 0.0, 0.0, 0.0, 0.0, 0.0, 1.6518360659724972E9, 0.0, 2022-05-06 12:21:05.972
55.0, -251.73827586742118, -171.85401281388476, -194.71041139308363, -182.28085389034823, 0.1600000075995922, 0.11200000531971455, 1.008000047877431, 0.0, 0.0, 0.0, 0.0, 0.0, 1.6518360659734592E9, 0.0, 2022-05-06 12:21:05.973
55.0, -266.7016155901365, -179.46096932375804, -194.77398969233036, -185.12691775662825, 0.1600000075995922, 0.11200000531971455, 1.008000047877431, 0.0, 0.0, 0.0, 0.0, 0.0, 1.6518360659734592E9, 0.0, 2022-05-06 12:21:05.973
56.0, -234.276682974305, -91.14697177009657, -123.3531202385202, -157.9864637781866, 0.1600000075995922, 0.11200000531971455, 1.008000047877431, 0.0, 0.0, 0.0, 0.0, 0.0, 1.6518360659995508E9, 0.0, 2022-05-06 12:21:05.999
56.0, -218.03429746674374, -84.83028074493632, -118.7979220924899, -147.65312020061538, 0.1600000075995922, 0.11200000531971455, 1.008000047877431, 0.0, 0.0, 0.0, 0.0, 0.0, 1.6518360659995508E9, 0.0, 2022-05-06 12:21:05.999
57.0, -249.08668679883704, -169.19868384534493, -187.1221543829888, -172.12328561069444, 0.1600000075995922, 0.11200000531971455, 1.008000047877431, 0.0, 0.0, 0.0, 0.0, 0.0, 1.6518360660004857E9, 0.0, 2022-05-06 12:21:06.000
57.0, -263.0664328332059, -160.45479774894193, -182.31638293992728, -169.22860304499045, 0.1600000075995922, 0.11200000531971455, 1.008000047877431, 0.0, 0.0, 0.0, 0.0, 0.0, 1.6518360660004857E9, 0.0, 2022-05-06 12:21:06.000
58.0, -223.69276609970257, -73.25155048212036, -101.0857559023425, -131.57529029110447, 0.1600000075995922, 0.11200000531971455, 1.008000047877431, 0.0, 0.0, 0.0, 0.0, 0.0, 1.6518360660014672E9, 0.0, 2022-05-06 12:21:06.001
58.0, -218.1577141652815, -76.26964974636212, -114.76257004030049, -157.33946108585224, 0.1600000075995922, 0.11200000531971455, 1.008000047877431, 0.0, 0.0, 0.0, 0.0, 0.0, 1.6518360660014672E9, 0.0, 2022-05-06 12:21:06.001
59.0, -263.7470946251415, -175.57521326979622, -203.73478998616338, -189.82049220101908, 0.1600000075995922, 0.11200000531971455, 1.008000047877431, 0.0, 0.0, 0.0, 0.0, 0.0, 1.6518360660024564E9, 0.0, 2022-05-06 12:21:06.002
59.0, -278.6244166488759, -194.58138484461233, -211.05003429949284, -191.49222748121247, 0.1600000075995922, 0.11200000531971455, 1.008000047877431, 0.0, 0.0, 0.0, 0.0, 0.0, 1.6518360660024564E9, 0.0, 2022-05-06 12:21:06.002
60.0, -241.0608614939265, -99.26629457389936, -129.86802596133202, -167.30629446776584, 0.1600000075995922, 0.11200000531971455, 1.008000047877431, 0.0, 0.0, 0.0, 0.0, 0.0, 1.6518360660285676E9, 0.0, 2022-05-06 12:21:06.028
60.0, -221.90883382083848, -90.8029009741731, -125.09965351782739, -163.2410232159309, 0.1600000075995922, 0.11200000531971455, 1.008000047877431, 0.0, 0.0, 0.0, 0.0, 0.0, 1.6518360660285676E9, 0.0, 2022-05-06 12:21:06.028
61.0, -262.50170793989673, -181.55531329894438, -199.25064993929118, -181.38327790098265, 0.1600000075995922, 0.11200000531971455, 1.008000047877431, 0.0, 0.0, 0.0, 0.0, 0.0, 1.6518360660295265E9, 0.0, 2022-05-06 12:21:06.029
61.0, -254.08319313963875, -171.15091162221506, -188.40494006779045, -174.05681388778612, 0.1600000075995922, 0.11200000531971455, 1.008000047877431, 0.0, 0.0, 0.0, 0.0, 0.0, 1.6518360660295265E9, 0.0, 2022-05-06 12:21:06.029
62.0, -237.70243133371696, -88.63001909991726, -120.58185437135398, -157.08140798890963, 0.1600000075995922, 0.11200000531971455, 1.008000047877431, 0.0, 0.0, 0.0, 0.0, 0.0, 1.6518360660435295E9, 0.0, 2022-05-06 12:21:06.043
62.0, -220.45027283811942, -88.86189289717004, -121.9469178551808, -158.7643629689701, 0.1600000075995922, 0.11200000531971455, 1.008000047877431, 0.0, 0.0, 0.0, 0.0, 0.0, 1.6518360660435295E9, 0.0, 2022-05-06 12:21:06.043
63.0, -251.18851057393476, -174.71503627998754, -192.3879335206002, -175.19000357436016, 0.1600000075995922, 0.11200000531971455, 1.008000047877431, 0.0, 0.0, 0.0, 0.0, 0.0, 1.6518360660445528E9, 0.0, 2022-05-06 12:21:06.044
63.0, -251.35306617198512, -162.70621752226725, -181.89377424493432, -157.18238528771326, 0.1600000075995922, 0.11200000531971455, 1.008000047877431, 0.0, 0.0, 0.0, 0.0, 0.0, 1.6518360660445528E9, 0.0, 2022-05-06 12:21:06.044
64.0, -224.48936479026452, -82.52276247227564, -113.8687339508906, -158.34549417393282, 0.1600000075995922, 0.11200000531971455, 1.008000047877431, 0.0, 0.0, 0.0, 0.0, 0.0, 1.6518360660575964E9, 0.0, 2022-05-06 12:21:06.057
64.0, -209.62700236635283, -76.75583674060181, -111.07128878403455, -150.3869870682247, 0.1600000075995922, 0.11200000531971455, 1.008000047877431, 0.0, 0.0, 0.0, 0.0, 0.0, 1.6518360660575964E9, 0.0, 2022-05-06 12:21:06.057
65.0, -246.34534013131633, -165.80659458553419, -193.70437830500305, -181.96670229407027, 0.1600000075995922, 0.11200000531971455, 1.008000047877431, 0.0, 0.0, 0.0, 0.0, 0.0, 1.651836066088584E9, 0.0, 2022-05-06 12:21:06.088
65.0, -251.62981876870617, -180.35106551321223, -199.4675641367212, -185.68416285002604, 0.1600000075995922, 0.11200000531971455, 1.008000047877431, 0.0, 0.0, 0.0, 0.0, 0.0, 1.651836066088584E9, 0.0, 2022-05-06 12:21:06.088
66.0, -243.86952636064962, -90.68322417559102, -120.92218526732177, -157.49279698403552, 0.1600000075995922, 0.11200000531971455, 1.008000047877431, 0.0, 0.0, 0.0, 0.0, 0.0, 1.651836066089456E9, 0.0, 2022-05-06 12:21:06.089
66.0, -230.61532091768458, -89.84548658551648, -119.66557888220996, -156.88693319121376, 0.1600000075995922, 0.11200000531971455, 1.008000047877431, 0.0, 0.0, 0.0, 0.0, 0.0, 1.651836066089456E9, 0.0, 2022-05-06 12:21:06.089
67.0, -238.97399731865153, -158.51378967193887, -177.39467459823936, -162.9156519197859, 0.1600000075995922, 0.11200000531971455, 1.008000047877431, 0.0, 0.0, 0.0, 0.0, 0.0, 1.6518360661045735E9, 0.0, 2022-05-06 12:21:06.104
67.0, -259.2891338779591, -171.12099242256954, -195.08066148869693, -187.24370113154873, 0.1600000075995922, 0.11200000531971455, 1.008000047877431, 0.0, 0.0, 0.0, 0.0, 0.0, 1.6518360661045735E9, 0.0, 2022-05-06 12:21:06.104
68.0, -236.70013814559206, -87.77358201006427, -123.95150423143059, -165.64203898748383, 0.1600000075995922, 0.11200000531971455, 1.008000047877431, 0.0, 0.0, 0.0, 0.0, 0.0, 1.651836066105522E9, 0.0, 2022-05-06 12:21:06.105
68.0, -217.51819127285853, -82.75837616948411, -116.50536341965199, -153.9062329265289, 0.1600000075995922, 0.11200000531971455, 1.008000047877431, 0.0, 0.0, 0.0, 0.0, 0.0, 1.651836066105522E9, 0.0, 2022-05-06 12:21:06.105
69.0, -237.86324703181162, -161.4271717374213, -175.14325482491404, -161.7600228334777, 0.1600000075995922, 0.11200000531971455, 1.008000047877431, 0.0, 0.0, 0.0, 0.0, 0.0, 1.651836066106518E9, 0.0, 2022-05-06 12:21:06.106
69.0, -271.16331623727456, -185.72530174953863, -205.85531326103956, -189.93268919968978, 0.1600000075995922, 0.11200000531971455, 1.008000047877431, 0.0, 0.0, 0.0, 0.0, 0.0, 1.651836066106518E9, 0.0, 2022-05-06 12:21:06.106
70.0, -226.5724890655838, -84.10100025357679, -112.08106177207083, -154.99454381363466, 0.1600000075995922, 0.11200000531971455, 1.008000047877431, 0.0, 0.0, 0.0, 0.0, 0.0, 1.6518360661175256E9, 0.0, 2022-05-06 12:21:06.117
70.0, -222.98218510812148, -89.30694099189714, -113.50596365518868, -146.07862231926993, 0.1600000075995922, 0.11200000531971455, 1.008000047877431, 0.0, 0.0, 0.0, 0.0, 0.0, 1.6518360661175256E9, 0.0, 2022-05-06 12:21:06.117
71.0, -250.08897998696193, -168.15899165766314, -190.40578654408455, -186.5144206401892, 0.1600000075995922, 0.11200000531971455, 1.008000047877431, 0.0, 0.0, 0.0, 0.0, 0.0, 1.6518360661806169E9, 0.0, 2022-05-06 12:21:06.180
71.0, -260.34378566546366, -176.88791815424338, -199.29178883880377, -186.91458993544802, 0.1600000075995922, 0.11200000531971455, 1.008000047877431, 0.0, 0.0, 0.0, 0.0, 0.0, 1.6518360661806169E9, 0.0, 2022-05-06 12:21:06.180
72.0, -233.71195808099583, -94.90557122556493, -125.48112331330776, -161.322454538662, 0.1600000075995922, 0.11200000531971455, 1.008000047877431, 0.0, 0.0, 0.0, 0.0, 0.0, 1.6518360661815596E9, 0.0, 2022-05-06 12:21:06.181
72.0, -209.01739867357537, -79.51588290790096, -107.59692172519863, -147.98597129667178, 0.1600000075995922, 0.11200000531971455, 1.008000047877431, 0.0, 0.0, 0.0, 0.0, 0.0, 1.6518360661815596E9, 0.0, 2022-05-06 12:21:06.181
73.0, -244.08270065812394, -165.84773348504677, -182.26402434054762, -177.08239295193925, 0.1600000075995922, 0.11200000531971455, 1.008000047877431, 0.0, 0.0, 0.0, 0.0, 0.0, 1.6518360661825244E9, 0.0, 2022-05-06 12:21:06.182
73.0, -276.4552746745758, -188.1113579212688, -207.70282383915037, -192.5917580681853, 0.1600000075995922, 0.11200000531971455, 1.008000047877431, 0.0, 0.0, 0.0, 0.0, 0.0, 1.6518360661825244E9, 0.0, 2022-05-06 12:21:06.182
74.0, -229.93465912574902, -90.7281029750593, -117.56749500706792, -147.98597129667178, 0.1600000075995922, 0.11200000531971455, 1.008000047877431, 0.0, 0.0, 0.0, 0.0, 0.0, 1.651836066183489E9, 0.0, 2022-05-06 12:21:06.183
74.0, -200.09773727925494, -71.68827230064198, -101.25031150039285, -134.65696785459295, 0.1600000075995922, 0.11200000531971455, 1.008000047877431, 0.0, 0.0, 0.0, 0.0, 0.0, 1.651836066183489E9, 0.0, 2022-05-06 12:21:06.183
75.0, -244.4716502535157, -159.89007285563275, -183.43461302667856, -168.70127715123817, 0.1600000075995922, 0.11200000531971455, 1.008000047877431, 0.0, 0.0, 0.0, 0.0, 0.0, 1.65183606621064E9, 0.0, 2022-05-06 12:21:06.210
75.0, -267.86472447635606, -181.24490160262212, -208.177791133523, -190.1795225967653, 0.1600000075995922, 0.11200000531971455, 1.008000047877431, 0.0, 0.0, 0.0, 0.0, 0.0, 1.65183606621064E9, 0.0, 2022-05-06 12:21:06.210
76.0, -240.9898033947684, -92.81870705028996, -120.45469777286053, -158.93265846697614, 0.1600000075995922, 0.11200000531971455, 1.008000047877431, 0.0, 0.0, 0.0, 0.0, 0.0, 1.6518360662115843E9, 0.0, 2022-05-06 12:21:06.211
76.0, -207.8954286868684, -68.80854933476076, -98.64360123127699, -130.24388590687886, 0.1600000075995922, 0.11200000531971455, 1.008000047877431, 0.0, 0.0, 0.0, 0.0, 0.0, 1.6518360662115843E9, 0.0, 2022-05-06 12:21:06.211
77.0, -231.9467253019102, -151.52765655471012, -168.94624059833586, -161.89465923188254, 0.1600000075995922, 0.11200000531971455, 1.008000047877431, 0.0, 0.0, 0.0, 0.0, 0.0, 1.651836066212443E9, 0.0, 2022-05-06 12:21:06.212
77.0, -247.40373181877658, -165.82903398526832, -184.41446681506932, -166.78644837392494, 0.1600000075995922, 0.11200000531971455, 1.008000047877431, 0.0, 0.0, 0.0, 0.0, 0.0, 1.651836066212443E9, 0.0, 2022-05-06 12:21:06.212
78.0, -217.48453217325732, -88.10269320616499, -119.03727568965405, -156.3184683979489, 0.1600000075995922, 0.11200000531971455, 1.008000047877431, 0.0, 0.0, 0.0, 0.0, 0.0, 1.651836066213572E9, 0.0, 2022-05-06 12:21:06.213
78.0, -214.9339204034768, -84.01498255459592, -113.14693325944245, -157.9116657790728, 0.1600000075995922, 0.11200000531971455, 1.008000047877431, 0.0, 0.0, 0.0, 0.0, 0.0, 1.651836066213572E9, 0.0, 2022-05-06 12:21:06.213
79.0, -241.2815155913122, -164.7257634983398, -184.7136588115245, -176.79442065535113, 0.1600000075995922, 0.11200000531971455, 1.008000047877431, 0.0, 0.0, 0.0, 0.0, 0.0, 1.6518360662235904E9, 0.0, 2022-05-06 12:21:06.223
79.0, -264.9999611102976, -184.11340486863628, -204.04146178252995, -193.27241986012086, 0.1600000075995922, 0.11200000531971455, 1.008000047877431, 0.0, 0.0, 0.0, 0.0, 0.0, 1.6518360662235904E9, 0.0, 2022-05-06 12:21:06.223
80.0, -233.87651367904618, -94.67743732826784, -125.30160811543465, -157.8293879800476, 0.1600000075995922, 0.11200000531971455, 1.008000047877431, 0.0, 0.0, 0.0, 0.0, 0.0, 1.6518360662245212E9, 0.0, 2022-05-06 12:21:06.224
80.0, -202.6371293491684, -68.58415533741936, -102.51065778546035, -140.16584048932418, 0.1600000075995922, 0.11200000531971455, 1.008000047877431, 0.0, 0.0, 0.0, 0.0, 0.0, 1.6518360662245212E9, 0.0, 2022-05-06 12:21:06.224
81.0, -230.7162982164882, -148.52077699033543, -172.18499395996332, -166.41619827831164, 0.1600000075995922, 0.11200000531971455, 1.008000047877431, 0.0, 0.0, 0.0, 0.0, 0.0, 1.6518360662255614E9, 0.0, 2022-05-06 12:21:06.225
81.0, -272.27032662415877, -187.01556723425165, -207.63176573999226, -195.1835087374784, 0.1600000075995922, 0.11200000531971455, 1.008000047877431, 0.0, 0.0, 0.0, 0.0, 0.0, 1.6518360662255614E9, 0.0, 2022-05-06 12:21:06.225
82.0, -237.25738323898986, -98.28270088555291, -126.2814619038254, -152.88524023862556, 0.1600000075995922, 0.11200000531971455, 1.008000047877431, 0.0, 0.0, 0.0, 0.0, 0.0, 1.6518360662375605E9, 0.0, 2022-05-06 12:21:06.237
82.0, -217.43965337378904, -76.95779133820906, -111.14608678314835, -155.07682161265984, 0.1600000075995922, 0.11200000531971455, 1.008000047877431, 0.0, 0.0, 0.0, 0.0, 0.0, 1.6518360662375605E9, 0.0, 2022-05-06 12:21:06.237
83.0, -235.7614232567139, -158.38289317348972, -185.10260840691626, -182.60622518649325, 0.1600000075995922, 0.11200000531971455, 1.008000047877431, 0.0, 0.0, 0.0, 0.0, 0.0, 1.6518360662535682E9, 0.0, 2022-05-06 12:21:06.253
83.0, -256.59640590986237, -178.7279489324428, -200.6119735231623, -188.0739589217119, 0.1600000075995922, 0.11200000531971455, 1.008000047877431, 0.0, 0.0, 0.0, 0.0, 0.0, 1.6518360662535682E9, 0.0, 2022-05-06 12:21:06.253
84.0, -239.03757561789826, -97.41130419587716, -126.19170430488884, -158.3941128733568, 0.1600000075995922, 0.11200000531971455, 1.008000047877431, 0.0, 0.0, 0.0, 0.0, 0.0, 1.651836066254542E9, 0.0, 2022-05-06 12:21:06.254
84.0, -216.43736018566415, -66.89372055744752, -96.54177745617926, -135.34884934639558, 0.1600000075995922, 0.11200000531971455, 1.008000047877431, 0.0, 0.0, 0.0, 0.0, 0.0, 1.651836066254542E9, 0.0, 2022-05-06 12:21:06.254
85.0, -232.346894597169, -145.48023832635954, -169.66430138982832, -158.06500167725608, 0.1600000075995922, 0.11200000531971455, 1.008000047877431, 0.0, 0.0, 0.0, 0.0, 0.0, 1.6518360662835767E9, 0.0, 2022-05-06 12:21:06.283
85.0, -253.87001884216443, -193.5155133572407, -217.41534402407706, -194.37569034704939, 0.1600000075995922, 0.11200000531971455, 1.008000047877431, 0.0, 0.0, 0.0, 0.0, 0.0, 1.6518360662835767E9, 0.0, 2022-05-06 12:21:06.283
86.0, -244.32953405519947, -107.11634458089247, -139.22151575051248, -171.18831062177196, 0.1600000075995922, 0.11200000531971455, 1.008000047877431, 0.0, 0.0, 0.0, 0.0, 0.0, 1.6518360662845883E9, 0.0, 2022-05-06 12:21:06.284
86.0, -230.17775262286887, -95.03646772401407, -116.81203521601856, -156.6513194940053, 0.1600000075995922, 0.11200000531971455, 1.008000047877431, 0.0, 0.0, 0.0, 0.0, 0.0, 1.6518360662845883E9, 0.0, 2022-05-06 12:21:06.284
87.0, -237.0965675408952, -159.45250456081703, -173.01525175012648, -148.2028854941018, 0.1600000075995922, 0.11200000531971455, 1.008000047877431, 0.0, 0.0, 0.0, 0.0, 0.0, 1.6518360662855732E9, 0.0, 2022-05-06 12:21:06.285
87.0, -256.6637241090648, -178.37639833660796, -202.69509779848158, -168.2861482561566, 0.1600000075995922, 0.11200000531971455, 1.008000047877431, 0.0, 0.0, 0.0, 0.0, 0.0, 1.6518360662855732E9, 0.0, 2022-05-06 12:21:06.285
88.0, -229.32505543297157, -104.79386670840904, -137.29546727333218, -177.96126944152638, 0.1600000075995922, 0.11200000531971455, 1.008000047877431, 0.0, 0.0, 0.0, 0.0, 0.0, 1.65183606629755E9, 0.0, 2022-05-06 12:21:06.297
88.0, -203.46364723937586, -72.19315879466012, -99.0475104264915, -146.07488241931424, 0.1600000075995922, 0.11200000531971455, 1.008000047877431, 0.0, 0.0, 0.0, 0.0, 0.0, 1.65183606629755E9, 0.0, 2022-05-06 12:21:06.297
89.0, -210.191727259662, -137.95555961551145, -164.43966115172952, -156.77099629258737, 0.1600000075995922, 0.11200000531971455, 1.008000047877431, 0.0, 0.0, 0.0, 0.0, 0.0, 1.651836066313526E9, 0.0, 2022-05-06 12:21:06.313
89.0, -244.2846552557312, -155.36853380920365, -180.22203896474093, -154.57941491855308, 0.1600000075995922, 0.11200000531971455, 1.008000047877431, 0.0, 0.0, 0.0, 0.0, 0.0, 1.651836066313526E9, 0.0, 2022-05-06 12:21:06.313
90.0, -230.03563642455265, -88.88807219685987, -123.46905713714659, -166.19554418092594, 0.1600000075995922, 0.11200000531971455, 1.008000047877431, 0.0, 0.0, 0.0, 0.0, 0.0, 1.6518360663146093E9, 0.0, 2022-05-06 12:21:06.314
90.0, -214.92270070360973, -73.5731818783097, -105.41282015107572, -154.41485932050273, 0.1600000075995922, 0.11200000531971455, 1.008000047877431, 0.0, 0.0, 0.0, 0.0, 0.0, 1.6518360663146093E9, 0.0, 2022-05-06 12:21:06.314
91.0, -252.68073065625504, -160.357560350094, -185.15122710634023, -179.9583760178648, 0.1600000075995922, 0.11200000531971455, 1.008000047877431, 0.0, 0.0, 0.0, 0.0, 0.0, 1.6518360663275597E9, 0.0, 2022-05-06 12:21:06.327
91.0, -272.9210692164488, -194.4056095466949, -217.07875302806497, -200.31465147668496, 0.1600000075995922, 0.11200000531971455, 1.008000047877431, 0.0, 0.0, 0.0, 0.0, 0.0, 1.6518360663275597E9, 0.0, 2022-05-06 12:21:06.327
92.0, -226.62858756491914, -100.21996906260028, -130.16721795778722, -163.60379351163283, 0.1600000075995922, 0.11200000531971455, 1.008000047877431, 0.0, 0.0, 0.0, 0.0, 0.0, 1.6518360663435752E9, 0.0, 2022-05-06 12:21:06.343
92.0, -210.9733663504012, -75.51418995531276, -102.94822608027607, -147.14823370659724, 0.1600000075995922, 0.11200000531971455, 1.008000047877431, 0.0, 0.0, 0.0, 0.0, 0.0, 1.6518360663435752E9, 0.0, 2022-05-06 12:21:06.343
93.0, -235.48841055994853, -146.99115790845826, -165.39333564043045, -160.67919174628332, 0.1600000075995922, 0.11200000531971455, 1.008000047877431, 0.0, 0.0, 0.0, 0.0, 0.0, 1.6518360663445878E9, 0.0, 2022-05-06 12:21:06.344
93.0, -256.9255171059631, -171.19205052172765, -189.84854145068675, -172.66931100422516, 0.1600000075995922, 0.11200000531971455, 1.008000047877431, 0.0, 0.0, 0.0, 0.0, 0.0, 1.6518360663445878E9, 0.0, 2022-05-06 12:21:06.344
94.0, -227.58974185353145, -92.0632472592406, -121.872119856067, -147.32400900451466, 0.1600000075995922, 0.11200000531971455, 1.008000047877431, 0.0, 0.0, 0.0, 0.0, 0.0, 1.6518360663575912E9, 0.0, 2022-05-06 12:21:06.357
94.0, -199.65642908448353, -65.83158897003159, -101.381207998842, -150.20747187035158, 0.1600000075995922, 0.11200000531971455, 1.008000047877431, 0.0, 0.0, 0.0, 0.0, 0.0, 1.6518360663575912E9, 0.0, 2022-05-06 12:21:06.357
95.0, -239.7631162093021, -149.41087317978963, -179.88170806877315, -173.46216979483142, 0.1600000075995922, 0.11200000531971455, 1.008000047877431, 0.0, 0.0, 0.0, 0.0, 0.0, 1.651836066405616E9, 0.0, 2022-05-06 12:21:06.405
95.0, -264.2183220195584, -180.0630932166241, -205.00261607114226, -186.20026904391125, 0.1600000075995922, 0.11200000531971455, 1.008000047877431, 0.0, 0.0, 0.0, 0.0, 0.0, 1.651836066405616E9, 0.0, 2022-05-06 12:21:06.405
96.0, -232.7545436923392, -101.90666394261643, -133.09181972313672, -158.41655227309093, 0.1600000075995922, 0.11200000531971455, 1.008000047877431, 0.0, 0.0, 0.0, 0.0, 0.0, 1.6518360664064548E9, 0.0, 2022-05-06 12:21:06.406
96.0, -201.88540945807472, -67.79503644676879, -89.54816453903913, -134.65696785459295, 0.1600000075995922, 0.11200000531971455, 1.008000047877431, 0.0, 0.0, 0.0, 0.0, 0.0, 1.6518360664064548E9, 0.0, 2022-05-06 12:21:06.406
97.0, -228.89870683802292, -138.77833760576323, -159.45811441075057, -152.75060384022072, 0.1600000075995922, 0.11200000531971455, 1.008000047877431, 0.0, 0.0, 0.0, 0.0, 0.0, 1.651836066407453E9, 0.0, 2022-05-06 12:21:06.407
97.0, -251.173550974112, -171.70441681565717, -188.12070767115802, -163.360700014513, 0.1600000075995922, 0.11200000531971455, 1.008000047877431, 0.0, 0.0, 0.0, 0.0, 0.0, 1.651836066407453E9, 0.0, 2022-05-06 12:21:06.407
98.0, -235.11068066442385, -101.30080014979467, -129.05272777099162, -153.6145207299851, 0.1600000075995922, 0.11200000531971455, 1.008000047877431, 0.0, 0.0, 0.0, 0.0, 0.0, 1.6518360664085832E9, 0.0, 2022-05-06 12:21:06.408
98.0, -205.0082259210758, -73.28520958172157, -107.35382822807878, -160.4697573487647, 0.1600000075995922, 0.11200000531971455, 1.008000047877431, 0.0, 0.0, 0.0, 0.0, 0.0, 1.6518360664085832E9, 0.0, 2022-05-06 12:21:06.408
99.0, -250.52654828177765, -164.92771809594706, -190.25245064590126, -186.60791813908145, 0.1600000075995922, 0.11200000531971455, 1.008000047877431, 0.0, 0.0, 0.0, 0.0, 0.0, 1.651836066418533E9, 0.0, 2022-05-06 12:21:06.418
99.0, -269.13255056133494, -185.92725634714589, -215.11530555132776, -193.16396276140586, 0.1600000075995922, 0.11200000531971455, 1.008000047877431, 0.0, 0.0, 0.0, 0.0, 0.0, 1.651836066418533E9, 0.0, 2022-05-06 12:21:06.418
100.0, -241.84998038457707, -109.46500175306574, -134.1389917107299, -162.4668639251031, 0.1600000075995922, 0.11200000531971455, 1.008000047877431, 0.0, 0.0, 0.0, 0.0, 0.0, 1.6518360664194565E9, 0.0, 2022-05-06 12:21:06.419
100.0, -206.70240060100332, -71.69201220059767, -99.95256621576846, -140.6782067832537, 0.1600000075995922, 0.11200000531971455, 1.008000047877431, 0.0, 0.0, 0.0, 0.0, 0.0, 1.6518360664194565E9, 0.0, 2022-05-06 12:21:06.419
0.0, -229.85238132672384, -140.43137338617817, -167.98134640976787, -153.08532488625497, 0.1600000075995922, 0.11200000531971455, 1.008000047877431, 0.0, 0.0, 0.0, 0.0, 0.0, 1.651836066420528E9, 0.0, 2022-05-06 12:21:06.420
1.0, -257.2172293025069, -177.5835395460017, -203.9891031831503, -187.73549797572196, 0.1600000075995922, 0.11200000531971455, 1.008000047877431, 0.0, 0.0, 0.0, 0.0, 0.0, 1.6518360664325747E9, 0.0, 2022-05-06 12:21:06.432
1.0, -222.0098111196421, -91.18437076965347, -116.41934572067112, -140.78853383194655, 0.1600000075995922, 0.11200000531971455, 1.008000047877431, 0.0, 0.0, 0.0, 0.0, 0.0, 1.6518360664325747E9, 0.0, 2022-05-06 12:21:06.432
2.0, -210.3450631578453, -70.03149662027135, -96.44827995728701, -136.59236608166248, 0.1600000075995922, 0.11200000531971455, 1.008000047877431, 0.0, 0.0, 0.0, 0.0, 0.0, 1.6518360664806108E9, 0.0, 2022-05-06 12:21:06.480
2.0, -240.3876795019023, -154.25404362240806, -178.0454171905294, -180.92514015641063, 0.1600000075995922, 0.11200000531971455, 1.008000047877431, 0.0, 0.0, 0.0, 0.0, 0.0, 1.6518360664806108E9, 0.0, 2022-05-06 12:21:06.480
3.0, -263.1150515326299, -178.46615593554452, -204.18357798084617, -185.03903010766953, 0.1600000075995922, 0.11200000531971455, 1.008000047877431, 0.0, 0.0, 0.0, 0.0, 0.0, 1.6518360664815502E9, 0.0, 2022-05-06 12:21:06.481
3.0, -237.19006503978744, -110.71412833826616, -136.25577508565038, -165.69626753684133, 0.1600000075995922, 0.11200000531971455, 1.008000047877431, 0.0, 0.0, 0.0, 0.0, 0.0, 1.6518360664815502E9, 0.0, 2022-05-06 12:21:06.481
4.0, -210.33384345797822, -78.34903412172571, -100.76786440610886, -142.64352420996875, 0.1600000075995922, 0.11200000531971455, 1.008000047877431, 0.0, 0.0, 0.0, 0.0, 0.0, 1.651836066482463E9, 0.0, 2022-05-06 12:21:06.482
4.0, -219.81822974560782, -129.23411291884258, -150.61699091549963, -137.0299343764782, 0.1600000075995922, 0.11200000531971455, 1.008000047877431, 0.0, 0.0, 0.0, 0.0, 0.0, 1.651836066482463E9, 0.0, 2022-05-06 12:21:06.482
5.0, -258.42521698819473, -171.90637141326442, -202.22387040406466, -189.62040755338967, 0.1600000075995922, 0.11200000531971455, 1.008000047877431, 0.0, 0.0, 0.0, 0.0, 0.0, 1.6518360664834692E9, 0.0, 2022-05-06 12:21:06.483
5.0, -243.37585956649855, -117.51326645771042, -144.03850689344108, -173.40420134551823, 0.1600000075995922, 0.11200000531971455, 1.008000047877431, 0.0, 0.0, 0.0, 0.0, 0.0, 1.6518360664834692E9, 0.0, 2022-05-06 12:21:06.483
6.0, -215.9773524911143, -79.1306732124649, -105.99624454416335, -152.02693319879472, 0.1600000075995922, 0.11200000531971455, 1.008000047877431, 0.0, 0.0, 0.0, 0.0, 0.0, 1.6518360664935195E9, 0.0, 2022-05-06 12:21:06.493
6.0, -230.97061141347513, -153.51728333113715, -173.88664843980223, -167.36800281703472, 0.1600000075995922, 0.11200000531971455, 1.008000047877431, 0.0, 0.0, 0.0, 0.0, 0.0, 1.6518360664935195E9, 0.0, 2022-05-06 12:21:06.493
7.0, -276.80308537045494, -191.78393967775628, -217.35550562478602, -194.17934559937567, 0.1600000075995922, 0.11200000531971455, 1.008000047877431, 0.0, 0.0, 0.0, 0.0, 0.0, 1.651836066494467E9, 0.0, 2022-05-06 12:21:06.494
7.0, -253.05098075186834, -125.65876856120303, -149.65583662688732, -177.94443989172578, 0.1600000075995922, 0.11200000531971455, 1.008000047877431, 0.0, 0.0, 0.0, 0.0, 0.0, 1.651836066494467E9, 0.0, 2022-05-06 12:21:06.494
8.0, -220.0164444432594, -77.09616763656959, -106.531050237827, -149.12477083317935, 0.1600000075995922, 0.11200000531971455, 1.008000047877431, 0.0, 0.0, 0.0, 0.0, 0.0, 1.651836066524548E9, 0.0, 2022-05-06 12:21:06.524
8.0, -233.4950438835658, -138.40434761019424, -170.83862997591496, -168.42265460453928, 0.1600000075995922, 0.11200000531971455, 1.008000047877431, 0.0, 0.0, 0.0, 0.0, 0.0, 1.651836066524548E9, 0.0, 2022-05-06 12:21:06.524
9.0, -263.2235086313449, -185.31017285445705, -206.99972264748067, -182.72777193505317, 0.1600000075995922, 0.11200000531971455, 1.008000047877431, 0.0, 0.0, 0.0, 0.0, 0.0, 1.6518360665255477E9, 0.0, 2022-05-06 12:21:06.525
9.0, -253.27911464916542, -119.28971893666312, -137.52734107058495, -162.73800667189062, 0.1600000075995922, 0.11200000531971455, 1.008000047877431, 0.0, 0.0, 0.0, 0.0, 0.0, 1.6518360665255477E9, 0.0, 2022-05-06 12:21:06.525
10.0, -230.9780912133865, -88.22984980465844, -115.04306253697723, -158.51191972196102, 0.1600000075995922, 0.11200000531971455, 1.008000047877431, 0.0, 0.0, 0.0, 0.0, 0.0, 1.6518360665264552E9, 0.0, 2022-05-06 12:21:06.526
10.0, -238.10260062897578, -151.10878775967285, -174.2307192357257, -178.01923789083958, 0.1600000075995922, 0.11200000531971455, 1.008000047877431, 0.0, 0.0, 0.0, 0.0, 0.0, 1.6518360665264552E9, 0.0, 2022-05-06 12:21:06.526
11.0, -264.5474332156591, -191.39872998232022, -214.6590377567336, -188.32640216872096, 0.1600000075995922, 0.11200000531971455, 1.008000047877431, 0.0, 0.0, 0.0, 0.0, 0.0, 1.65183606652748E9, 0.0, 2022-05-06 12:21:06.527
11.0, -248.97074990021065, -119.31215833639726, -145.30633297841996, -167.0014926213771, 0.1600000075995922, 0.11200000531971455, 1.008000047877431, 0.0, 0.0, 0.0, 0.0, 0.0, 1.65183606652748E9, 0.0, 2022-05-06 12:21:06.527
12.0, -226.10126167116687, -79.54580210754648, -110.87307408638299, -146.8060328606516, 0.1600000075995922, 0.11200000531971455, 1.008000047877431, 0.0, 0.0, 0.0, 0.0, 0.0, 1.6518360665375028E9, 0.0, 2022-05-06 12:21:06.537
12.0, -239.9127122075297, -145.72707172343507, -172.6337819546461, -167.8579297112301, 0.1600000075995922, 0.11200000531971455, 1.008000047877431, 0.0, 0.0, 0.0, 0.0, 0.0, 1.6518360665375028E9, 0.0, 2022-05-06 12:21:06.537
13.0, -258.9974216814153, -173.68282389221713, -200.81392812076956, -177.1179220015183, 0.1600000075995922, 0.11200000531971455, 1.008000047877431, 0.0, 0.0, 0.0, 0.0, 0.0, 1.6518360665525265E9, 0.0, 2022-05-06 12:21:06.552
13.0, -236.098014252726, -111.72764122625813, -130.66836455184966, -159.3384376121685, 0.1600000075995922, 0.11200000531971455, 1.008000047877431, 0.0, 0.0, 0.0, 0.0, 0.0, 1.6518360665525265E9, 0.0, 2022-05-06 12:21:06.552
14.0, -218.20633286470547, -76.20981134707108, -104.54516336135566, -145.2913733785972, 0.1600000075995922, 0.11200000531971455, 1.008000047877431, 0.0, 0.0, 0.0, 0.0, 0.0, 1.651836066584555E9, 0.0, 2022-05-06 12:21:06.584
14.0, -230.34230822091922, -137.88076161639765, -161.60855688527226, -152.54303939267993, 0.1600000075995922, 0.11200000531971455, 1.008000047877431, 0.0, 0.0, 0.0, 0.0, 0.0, 1.651836066584555E9, 0.0, 2022-05-06 12:21:06.584
15.0, -259.0722196805291, -170.2084568333812, -189.9046399500221, -152.06433219835162, 0.1600000075995922, 0.11200000531971455, 1.008000047877431, 0.0, 0.0, 0.0, 0.0, 0.0, 1.651836066585558E9, 0.0, 2022-05-06 12:21:06.585
15.0, -237.9866637303494, -100.09281246410683, -131.2443091450259, -162.77540567144752, 0.1600000075995922, 0.11200000531971455, 1.008000047877431, 0.0, 0.0, 0.0, 0.0, 0.0, 1.651836066585558E9, 0.0, 2022-05-06 12:21:06.585
16.0, -216.80761028127745, -71.03752970835194, -104.68727955967188, -158.1080105267465, 0.1600000075995922, 0.11200000531971455, 1.008000047877431, 0.0, 0.0, 0.0, 0.0, 0.0, 1.6518360665865426E9, 0.0, 2022-05-06 12:21:06.586
16.0, -242.96073067141697, -155.06186201283708, -180.53619056101888, -183.1578604299575, 0.1600000075995922, 0.11200000531971455, 1.008000047877431, 0.0, 0.0, 0.0, 0.0, 0.0, 1.6518360665865426E9, 0.0, 2022-05-06 12:21:06.586
17.0, -267.5991915795021, -192.1467099734582, -211.88403198961169, -192.17849912308156, 0.1600000075995922, 0.11200000531971455, 1.008000047877431, 0.0, 0.0, 0.0, 0.0, 0.0, 1.6518360665874543E9, 0.0, 2022-05-06 12:21:06.587
17.0, -254.15051133884117, -128.99849922163412, -149.86153112445027, -171.57539026718587, 0.1600000075995922, 0.11200000531971455, 1.008000047877431, 0.0, 0.0, 0.0, 0.0, 0.0, 1.6518360665874543E9, 0.0, 2022-05-06 12:21:06.587
18.0, -209.02113857353106, -69.46677172696218, -87.83903025928885, -119.63565968256444, 0.1600000075995922, 0.11200000531971455, 1.008000047877431, 0.0, 0.0, 0.0, 0.0, 0.0, 1.6518360665975568E9, 0.0, 2022-05-06 12:21:06.597
18.0, -225.8619080740027, -128.68060772540048, -158.64655612036586, -161.39912248775363, 0.1600000075995922, 0.11200000531971455, 1.008000047877431, 0.0, 0.0, 0.0, 0.0, 0.0, 1.6518360665975568E9, 0.0, 2022-05-06 12:21:06.597
19.0, -266.20046899607405, -181.05416670488194, -210.20107700955123, -192.62354721780866, 0.1600000075995922, 0.11200000531971455, 1.008000047877431, 0.0, 0.0, 0.0, 0.0, 0.0, 1.6518360666125524E9, 0.0, 2022-05-06 12:21:06.612
19.0, -249.09042669879273, -120.39672932354733, -143.1035319045186, -167.40166191663593, 0.1600000075995922, 0.11200000531971455, 1.008000047877431, 0.0, 0.0, 0.0, 0.0, 0.0, 1.6518360666125524E9, 0.0, 2022-05-06 12:21:06.612
20.0, -226.22841826966032, -87.79602140979841, -114.10808754805475, -154.75332026649266, 0.1600000075995922, 0.11200000531971455, 1.008000047877431, 0.0, 0.0, 0.0, 0.0, 0.0, 1.6518360666445932E9, 0.0, 2022-05-06 12:21:06.644
20.0, -244.32953405519947, -137.95555961551145, -162.47621367499232, -169.35762959346175, 0.1600000075995922, 0.11200000531971455, 1.008000047877431, 0.0, 0.0, 0.0, 0.0, 0.0, 1.6518360666445932E9, 0.0, 2022-05-06 12:21:06.644
21.0, -260.4298033644445, -181.25986120244488, -208.9182913247496, -185.58131560124457, 0.1600000075995922, 0.11200000531971455, 1.008000047877431, 0.0, 0.0, 0.0, 0.0, 0.0, 1.6518360666455362E9, 0.0, 2022-05-06 12:21:06.645
21.0, -248.15919160982594, -123.60930338548496, -150.29909941926599, -171.43327406886965, 0.1600000075995922, 0.11200000531971455, 1.008000047877431, 0.0, 0.0, 0.0, 0.0, 0.0, 1.6518360666455362E9, 0.0, 2022-05-06 12:21:06.645
22.0, -219.64993424760178, -76.1275335480459, -104.31328956410289, -146.20390896778554, 0.1600000075995922, 0.11200000531971455, 1.008000047877431, 0.0, 0.0, 0.0, 0.0, 0.0, 1.6518360666465232E9, 0.0, 2022-05-06 12:21:06.646
22.0, -231.92054600222036, -138.38938801037148, -163.53086546249688, -160.65862229652703, 0.1600000075995922, 0.11200000531971455, 1.008000047877431, 0.0, 0.0, 0.0, 0.0, 0.0, 1.6518360666465232E9, 0.0, 2022-05-06 12:21:06.646
23.0, -273.53815270913765, -184.5135741638951, -211.60353949293494, -183.76746412273496, 0.1600000075995922, 0.11200000531971455, 1.008000047877431, 0.0, 0.0, 0.0, 0.0, 0.0, 1.651836066647518E9, 0.0, 2022-05-06 12:21:06.647
23.0, -247.2429161206819, -124.15906867897138, -147.75970734935254, -169.84755648765713, 0.1600000075995922, 0.11200000531971455, 1.008000047877431, 0.0, 0.0, 0.0, 0.0, 0.0, 1.651836066647518E9, 0.0, 2022-05-06 12:21:06.647
24.0, -215.95117319142446, -74.32864166935906, -94.27913798298687, -138.42865695990622, 0.1600000075995922, 0.11200000531971455, 1.008000047877431, 0.0, 0.0, 0.0, 0.0, 0.0, 1.6518360666735644E9, 0.0, 2022-05-06 12:21:06.673
24.0, -233.73439748072997, -138.00043841497973, -168.02996510919183, -171.4183144690469, 0.1600000075995922, 0.11200000531971455, 1.008000047877431, 0.0, 0.0, 0.0, 0.0, 0.0, 1.6518360666735644E9, 0.0, 2022-05-06 12:21:06.673
25.0, -252.37405885988846, -180.3622852130793, -204.55756797641516, -180.6371678598225, 0.1600000075995922, 0.11200000531971455, 1.008000047877431, 0.0, 0.0, 0.0, 0.0, 0.0, 1.6518360667055695E9, 0.0, 2022-05-06 12:21:06.705
25.0, -252.12722546281293, -123.7813387834467, -146.17398976814002, -159.13648301456124, 0.1600000075995922, 0.11200000531971455, 1.008000047877431, 0.0, 0.0, 0.0, 0.0, 0.0, 1.6518360667055695E9, 0.0, 2022-05-06 12:21:06.705
26.0, -206.4106884044595, -63.999037991743535, -85.80452468339354, -132.53457462973893, 0.1600000075995922, 0.11200000531971455, 1.008000047877431, 0.0, 0.0, 0.0, 0.0, 0.0, 1.6518360667065125E9, 0.0, 2022-05-06 12:21:06.706
26.0, -224.15277379425243, -126.0439782566391, -153.22744108457118, -159.6712887082249, 0.1600000075995922, 0.11200000531971455, 1.008000047877431, 0.0, 0.0, 0.0, 0.0, 0.0, 1.6518360667065125E9, 0.0, 2022-05-06 12:21:06.706
27.0, -257.987648693379, -174.90577117772773, -206.8725660489872, -196.86459376756102, 0.1600000075995922, 0.11200000531971455, 1.008000047877431, 0.0, 0.0, 0.0, 0.0, 0.0, 1.6518360667075229E9, 0.0, 2022-05-06 12:21:06.707
27.0, -255.35475912457332, -132.1138358847238, -155.90146955288947, -184.10031521879137, 0.1600000075995922, 0.11200000531971455, 1.008000047877431, 0.0, 0.0, 0.0, 0.0, 0.0, 1.6518360667075229E9, 0.0, 2022-05-06 12:21:06.707
28.0, -228.43495924351737, -88.83571359748021, -112.21569817047566, -160.17243530228734, 0.1600000075995922, 0.11200000531971455, 1.008000047877431, 0.0, 0.0, 0.0, 0.0, 0.0, 1.6518360667085164E9, 0.0, 2022-05-06 12:21:06.708
28.0, -235.52954945946112, -146.1571602183394, -171.49685236811638, -159.36461691185832, 0.1600000075995922, 0.11200000531971455, 1.008000047877431, 0.0, 0.0, 0.0, 0.0, 0.0, 1.6518360667085164E9, 0.0, 2022-05-06 12:21:06.708
29.0, -251.39046517154202, -184.33779886597767, -202.78859529737383, -166.76213902421296, 0.1600000075995922, 0.11200000531971455, 1.008000047877431, 0.0, 0.0, 0.0, 0.0, 0.0, 1.651836066735508E9, 0.0, 2022-05-06 12:21:06.735
29.0, -259.64442437374964, -126.2646323540248, -152.12791049759835, -177.88086159247905, 0.1600000075995922, 0.11200000531971455, 1.008000047877431, 0.0, 0.0, 0.0, 0.0, 0.0, 1.651836066735508E9, 0.0, 2022-05-06 12:21:06.735
30.0, -231.25484381010756, -80.92582519119605, -113.13945345953107, -161.75815288349986, 0.1600000075995922, 0.11200000531971455, 1.008000047877431, 0.0, 0.0, 0.0, 0.0, 0.0, 1.6518360667365303E9, 0.0, 2022-05-06 12:21:06.736
30.0, -232.89665989065543, -136.25764503562823, -162.3378373766318, -172.54776425566524, 0.1600000075995922, 0.11200000531971455, 1.008000047877431, 0.0, 0.0, 0.0, 0.0, 0.0, 1.6518360667365303E9, 0.0, 2022-05-06 12:21:06.736
31.0, -257.49772179918364, -182.98395508201793, -208.58918012864888, -188.69291236437857, 0.1600000075995922, 0.11200000531971455, 1.008000047877431, 0.0, 0.0, 0.0, 0.0, 0.0, 1.6518360667375064E9, 0.0, 2022-05-06 12:21:06.737
31.0, -246.60713312821463, -125.0790840680711, -147.23986125551164, -167.17726791929454, 0.1600000075995922, 0.11200000531971455, 1.008000047877431, 0.0, 0.0, 0.0, 0.0, 0.0, 1.6518360667375064E9, 0.0, 2022-05-06 12:21:06.737
32.0, -233.89895307878032, -80.1292265006341, -104.81817605812103, -150.6319505153224, 0.1600000075995922, 0.11200000531971455, 1.008000047877431, 0.0, 0.0, 0.0, 0.0, 0.0, 1.6518360667385406E9, 0.0, 2022-05-06 12:21:06.738
32.0, -238.2073178277351, -130.8946284991689, -159.06168501544744, -156.02114635147154, 0.1600000075995922, 0.11200000531971455, 1.008000047877431, 0.0, 0.0, 0.0, 0.0, 0.0, 1.6518360667385406E9, 0.0, 2022-05-06 12:21:06.738
33.0, -268.1751361726783, -185.624324450735, -210.1374987103045, -185.7944898987189, 0.1600000075995922, 0.11200000531971455, 1.008000047877431, 0.0, 0.0, 0.0, 0.0, 0.0, 1.6518360667635689E9, 0.0, 2022-05-06 12:21:06.763
33.0, -254.53572103427723, -135.11323564918712, -153.79216597788036, -171.39213516935706, 0.1600000075995922, 0.11200000531971455, 1.008000047877431, 0.0, 0.0, 0.0, 0.0, 0.0, 1.6518360667635689E9, 0.0, 2022-05-06 12:21:06.763
34.0, -216.3438626867719, -77.13730653608218, -100.11712181381881, -148.08881854545325, 0.1600000075995922, 0.11200000531971455, 1.008000047877431, 0.0, 0.0, 0.0, 0.0, 0.0, 1.651836066764443E9, 0.0, 2022-05-06 12:21:06.764
34.0, -231.26232361001894, -134.36899555800483, -166.39936872851104, -171.3061174703762, 0.1600000075995922, 0.11200000531971455, 1.008000047877431, 0.0, 0.0, 0.0, 0.0, 0.0, 1.651836066764443E9, 0.0, 2022-05-06 12:21:06.764
35.0, -255.16776412678882, -176.31197356106713, -208.75373572669923, -186.98377808462828, 0.1600000075995922, 0.11200000531971455, 1.008000047877431, 0.0, 0.0, 0.0, 0.0, 0.0, 1.651836066778509E9, 0.0, 2022-05-06 12:21:06.778
35.0, -243.7984682614915, -126.11129645584151, -150.33649841882288, -164.47706015128642, 0.1600000075995922, 0.11200000531971455, 1.008000047877431, 0.0, 0.0, 0.0, 0.0, 0.0, 1.651836066778509E9, 0.0, 2022-05-06 12:21:06.778
36.0, -213.69601351814345, -75.96671784995124, -98.69595983065665, -138.78394745569676, 0.1600000075995922, 0.11200000531971455, 1.008000047877431, 0.0, 0.0, 0.0, 0.0, 0.0, 1.6518360667794907E9, 0.0, 2022-05-06 12:21:06.779
36.0, -228.25170414568856, -125.8195842592977, -159.74982660729438, -166.91173502244055, 0.1600000075995922, 0.11200000531971455, 1.008000047877431, 0.0, 0.0, 0.0, 0.0, 0.0, 1.6518360667794907E9, 0.0, 2022-05-06 12:21:06.779
37.0, -257.16487070312724, -180.79611360793933, -202.78859529737383, -180.33423596341163, 0.1600000075995922, 0.11200000531971455, 1.008000047877431, 0.0, 0.0, 0.0, 0.0, 0.0, 1.6518360667925713E9, 0.0, 2022-05-06 12:21:06.792
37.0, -249.47937629418448, -126.5600844505243, -151.06577891018242, -173.69965344201773, 0.1600000075995922, 0.11200000531971455, 1.008000047877431, 0.0, 0.0, 0.0, 0.0, 0.0, 1.6518360667925713E9, 0.0, 2022-05-06 12:21:06.792
38.0, -218.62520165974274, -77.5000768317841, -102.63407448399812, -142.6248247101903, 0.1600000075995922, 0.11200000531971455, 1.008000047877431, 0.0, 0.0, 0.0, 0.0, 0.0, 1.651836066808525E9, 0.0, 2022-05-06 12:21:06.808
38.0, -233.59228128241375, -130.68519410165027, -161.6272563850507, -165.54293163865805, 0.1600000075995922, 0.11200000531971455, 1.008000047877431, 0.0, 0.0, 0.0, 0.0, 0.0, 1.651836066808525E9, 0.0, 2022-05-06 12:21:06.808
39.0, -265.2467945073731, -180.48570191161707, -208.49568262975663, -189.51195045467466, 0.1600000075995922, 0.11200000531971455, 1.008000047877431, 0.0, 0.0, 0.0, 0.0, 0.0, 1.6518360668235776E9, 0.0, 2022-05-06 12:21:06.823
39.0, -248.2863482083194, -128.40759502863511, -146.3983837654814, -155.26568656042218, 0.1600000075995922, 0.11200000531971455, 1.008000047877431, 0.0, 0.0, 0.0, 0.0, 0.0, 1.6518360668235776E9, 0.0, 2022-05-06 12:21:06.823
40.0, -220.43905313825235, -76.64363974193111, -100.416313810274, -146.82847226038575, 0.1600000075995922, 0.11200000531971455, 1.008000047877431, 0.0, 0.0, 0.0, 0.0, 0.0, 1.651836066824534E9, 0.0, 2022-05-06 12:21:06.824
40.0, -225.36450137989596, -117.74888015491888, -148.33939184248447, -156.60831064451486, 0.1600000075995922, 0.11200000531971455, 1.008000047877431, 0.0, 0.0, 0.0, 0.0, 0.0, 1.651836066824534E9, 0.0, 2022-05-06 12:21:06.824
41.0, -259.86133857117966, -185.34757185401395, -207.62802584003657, -193.51738330721855, 0.1600000075995922, 0.11200000531971455, 1.008000047877431, 0.0, 0.0, 0.0, 0.0, 0.0, 1.65183606683851E9, 0.0, 2022-05-06 12:21:06.838
41.0, -252.84902615426108, -134.29045765893534, -159.84706400614232, -169.66430138982832, 0.1600000075995922, 0.11200000531971455, 1.008000047877431, 0.0, 0.0, 0.0, 0.0, 0.0, 1.65183606683851E9, 0.0, 2022-05-06 12:21:06.838
42.0, -221.8976141209714, -84.71060394635424, -106.61706793680787, -148.1486569447443, 0.1600000075995922, 0.11200000531971455, 1.008000047877431, 0.0, 0.0, 0.0, 0.0, 0.0, 1.6518360668395023E9, 0.0, 2022-05-06 12:21:06.839
42.0, -226.54256986593828, -131.66504789004102, -161.56741798575968, -169.3015310941264, 0.1600000075995922, 0.11200000531971455, 1.008000047877431, 0.0, 0.0, 0.0, 0.0, 0.0, 1.6518360668395023E9, 0.0, 2022-05-06 12:21:06.839
43.0, -252.64707155665383, -176.9178373538889, -197.2086645634845, -175.9024545159191, 0.1600000075995922, 0.11200000531971455, 1.008000047877431, 0.0, 0.0, 0.0, 0.0, 0.0, 1.6518360668525696E9, 0.0, 2022-05-06 12:21:06.852
43.0, -240.15580570464954, -128.69930722517893, -145.2165753794834, -158.09679082687944, 0.1600000075995922, 0.11200000531971455, 1.008000047877431, 0.0, 0.0, 0.0, 0.0, 0.0, 1.6518360668525696E9, 0.0, 2022-05-06 12:21:06.852
44.0, -216.39996118610725, -68.39342043967918, -98.07887633796781, -137.45254307147115, 0.1600000075995922, 0.11200000531971455, 1.008000047877431, 0.0, 0.0, 0.0, 0.0, 0.0, 1.6518360668685822E9, 0.0, 2022-05-06 12:21:06.868
44.0, -226.69964566407725, -122.38261620001867, -154.84307786542922, -156.3016388481483, 0.1600000075995922, 0.11200000531971455, 1.008000047877431, 0.0, 0.0, 0.0, 0.0, 0.0, 1.6518360668685822E9, 0.0, 2022-05-06 12:21:06.868
45.0, -260.4073639647104, -182.92785658268258, -209.6924506155774, -187.17077308241278, 0.1600000075995922, 0.11200000531971455, 1.008000047877431, 0.0, 0.0, 0.0, 0.0, 0.0, 1.6518360668694696E9, 0.0, 2022-05-06 12:21:06.869
45.0, -254.92841052962467, -135.98463233886287, -155.7817927543074, -163.227933566086, 0.1600000075995922, 0.11200000531971455, 1.008000047877431, 0.0, 0.0, 0.0, 0.0, 0.0, 1.6518360668694696E9, 0.0, 2022-05-06 12:21:06.869
46.0, -217.66778727108613, -71.77802989957854, -101.69161969516426, -148.35061154235154, 0.1600000075995922, 0.11200000531971455, 1.008000047877431, 0.0, 0.0, 0.0, 0.0, 0.0, 1.6518360668985338E9, 0.0, 2022-05-06 12:21:06.898
46.0, -232.41421279637143, -130.05689090909436, -161.26822598930448, -171.87084236368537, 0.1600000075995922, 0.11200000531971455, 1.008000047877431, 0.0, 0.0, 0.0, 0.0, 0.0, 1.6518360668985338E9, 0.0, 2022-05-06 12:21:06.898
47.0, -260.22784876683727, -189.0762521098368, -213.61186576914042, -189.47081155516207, 0.1600000075995922, 0.11200000531971455, 1.008000047877431, 0.0, 0.0, 0.0, 0.0, 0.0, 1.6518360668994668E9, 0.0, 2022-05-06 12:21:06.899
47.0, -254.40482453582808, -137.32725642295554, -155.05625216290355, -168.14216210786253, 0.1600000075995922, 0.11200000531971455, 1.008000047877431, 0.0, 0.0, 0.0, 0.0, 0.0, 1.6518360668994668E9, 0.0, 2022-05-06 12:21:06.899
48.0, -215.51734479656443, -71.13476710719988, -100.4200537102297, -141.31959962565452, 0.1600000075995922, 0.11200000531971455, 1.008000047877431, 0.0, 0.0, 0.0, 0.0, 0.0, 1.6518360669004798E9, 0.0, 2022-05-06 12:21:06.900
48.0, -229.77384342765436, -128.90874162269756, -160.31455150060356, -172.91053455136716, 0.1600000075995922, 0.11200000531971455, 1.008000047877431, 0.0, 0.0, 0.0, 0.0, 0.0, 1.6518360669004798E9, 0.0, 2022-05-06 12:21:06.900
49.0, -252.9537433530204, -174.9581297771074, -198.84300084412098, -179.7470716703683, 0.1600000075995922, 0.11200000531971455, 1.008000047877431, 0.0, 0.0, 0.0, 0.0, 0.0, 1.6518360669126165E9, 0.0, 2022-05-06 12:21:06.912
49.0, -249.0305882995017, -132.42424758104607, -148.24215444363654, -155.64341645594686, 0.1600000075995922, 0.11200000531971455, 1.008000047877431, 0.0, 0.0, 0.0, 0.0, 0.0, 1.6518360669126165E9, 0.0, 2022-05-06 12:21:06.912
50.0, -211.18654064787552, -68.84594833431765, -102.31244308780879, -144.8051863843575, 0.1600000075995922, 0.11200000531971455, 1.008000047877431, 0.0, 0.0, 0.0, 0.0, 0.0, 1.6518360669286091E9, 0.0, 2022-05-06 12:21:06.928
50.0, -222.85128860967234, -111.32747193099931, -146.3684645658359, -158.12297012656927, 0.1600000075995922, 0.11200000531971455, 1.008000047877431, 0.0, 0.0, 0.0, 0.0, 0.0, 1.6518360669286091E9, 0.0, 2022-05-06 12:21:06.928
51.0, -266.38372409390286, -185.82253914838657, -214.42342405952513, -191.87556722667068, 0.1600000075995922, 0.12800000607967377, 1.008000047877431, 0.0, 0.0, 0.0, 0.0, 0.0, 1.6518360669295197E9, 0.0, 2022-05-06 12:21:06.929
51.0, -250.7696417788975, -134.45875315694138, -152.69263539090753, -176.88230830430984, 0.1600000075995922, 0.12800000607967377, 1.008000047877431, 0.0, 0.0, 0.0, 0.0, 0.0, 1.6518360669295197E9, 0.0, 2022-05-06 12:21:06.929
52.0, -219.0478103547357, -77.55243543116376, -106.39267393946648, -155.88277005311102, 0.1600000075995922, 0.12800000607967377, 1.008000047877431, 0.0, 0.0, 0.0, 0.0, 0.0, 1.6518360669586248E9, 0.0, 2022-05-06 12:21:06.958
52.0, -214.99749870272353, -112.81969201331958, -144.31899939011782, -154.05769887473434, 0.1600000075995922, 0.12800000607967377, 1.008000047877431, 0.0, 0.0, 0.0, 0.0, 0.0, 1.6518360669586248E9, 0.0, 2022-05-06 12:21:06.958
53.0, -246.26306233229116, -169.78584813838825, -197.66867225803435, -177.50687159691006, 0.1600000075995922, 0.12800000607967377, 1.008000047877431, 0.0, 0.0, 0.0, 0.0, 0.0, 1.6518360669595177E9, 0.0, 2022-05-06 12:21:06.959
53.0, -245.11865294585004, -139.50387819716707, -155.72943415492773, -169.21551339514554, 0.1600000075995922, 0.12800000607967377, 1.008000047877431, 0.0, 0.0, 0.0, 0.0, 0.0, 1.6518360669595177E9, 0.0, 2022-05-06 12:21:06.959
54.0, -227.2007922581397, -85.09207374183461, -113.98841074947268, -160.4865868985653, 0.1600000075995922, 0.12800000607967377, 1.008000047877431, 0.0, 0.0, 0.0, 0.0, 0.0, 1.6518360669605231E9, 0.0, 2022-05-06 12:21:06.960
54.0, -212.49924553232267, -120.2583530251868, -154.25217367243022, -158.5567985214293, 0.1600000075995922, 0.12800000607967377, 1.008000047877431, 0.0, 0.0, 0.0, 0.0, 0.0, 1.6518360669605231E9, 0.0, 2022-05-06 12:21:06.960
55.0, -261.56299305101857, -183.64965727413073, -211.48386269435287, -189.02202356047928, 0.1600000075995922, 0.12800000607967377, 1.008000047877431, 0.0, 0.0, 0.0, 0.0, 0.0, 1.6518360669725792E9, 0.0, 2022-05-06 12:21:06.972
55.0, -264.12482452066615, -137.94433991564438, -156.82148494198918, -180.73440525867045, 0.1600000075995922, 0.12800000607967377, 1.008000047877431, 0.0, 0.0, 0.0, 0.0, 0.0, 1.6518360669725792E9, 0.0, 2022-05-06 12:21:06.972
56.0, -220.21091924095526, -78.93993831472471, -101.08201600238681, -150.46365501731634, 0.1600000075995922, 0.12800000607967377, 1.008000047877431, 0.0, 0.0, 0.0, 0.0, 0.0, 1.651836066988577E9, 0.0, 2022-05-06 12:21:06.988
56.0, -224.00691769598052, -117.86855695350096, -147.52035375218838, -160.41926869936287, 0.1600000075995922, 0.12800000607967377, 1.008000047877431, 0.0, 0.0, 0.0, 0.0, 0.0, 1.651836066988577E9, 0.0, 2022-05-06 12:21:06.988
57.0, -253.70920314406976, -176.26709476159886, -204.32943407911807, -175.96229291521013, 0.1600000075995922, 0.12800000607967377, 1.008000047877431, 0.0, 0.0, 0.0, 0.0, 0.0, 1.6518360670195026E9, 0.0, 2022-05-06 12:21:07.019
57.0, -255.85964561859146, -135.05713714985177, -155.2544668605551, -165.84212363511324, 0.1600000075995922, 0.12800000607967377, 1.008000047877431, 0.0, 0.0, 0.0, 0.0, 0.0, 1.6518360670195026E9, 0.0, 2022-05-06 12:21:07.019
58.0, -214.7843244052492, -69.87068092217669, -100.44997290987521, -145.76260077301413, 0.1600000075995922, 0.12800000607967377, 1.008000047877431, 0.0, 0.0, 0.0, 0.0, 0.0, 1.65183606702052E9, 0.0, 2022-05-06 12:21:07.020
58.0, -222.82136941002682, -119.484193734359, -153.60143108014017, -160.41926869936287, 0.1600000075995922, 0.12800000607967377, 1.008000047877431, 0.0, 0.0, 0.0, 0.0, 0.0, 1.65183606702052E9, 0.0, 2022-05-06 12:21:07.020
59.0, -251.71957636764273, -175.1376449749805, -196.85337406769395, -177.80980349332094, 0.1600000075995922, 0.12800000607967377, 1.008000047877431, 0.0, 0.0, 0.0, 0.0, 0.0, 1.6518360670214493E9, 0.0, 2022-05-06 12:21:07.021
59.0, -245.1298726457171, -135.57324334373698, -150.142023621127, -165.35219674091786, 0.1600000075995922, 0.12800000607967377, 1.008000047877431, 0.0, 0.0, 0.0, 0.0, 0.0, 1.6518360670214493E9, 0.0, 2022-05-06 12:21:07.021
60.0, -220.44279303820804, -78.43131192075089, -111.66593287698925, -160.06771810352802, 0.1600000075995922, 0.12800000607967377, 1.008000047877431, 0.0, 0.0, 0.0, 0.0, 0.0, 1.651836067022465E9, 0.0, 2022-05-06 12:21:07.022
60.0, -224.9044936853461, -116.83260466577485, -150.72918791417032, -160.47162729874253, 0.1600000075995922, 0.12800000607967377, 1.008000047877431, 0.0, 0.0, 0.0, 0.0, 0.0, 1.651836067022465E9, 0.0, 2022-05-06 12:21:07.022
61.0, -254.18791033839807, -179.3225930253975, -206.86882614903152, -183.51315092574805, 0.1600000075995922, 0.12800000607967377, 1.008000047877431, 0.0, 0.0, 0.0, 0.0, 0.0, 1.6518360670325477E9, 0.0, 2022-05-06 12:21:07.032
61.0, -248.25642900867388, -140.32665618741885, -157.595644232817, -169.62690239027143, 0.1600000075995922, 0.12800000607967377, 1.008000047877431, 0.0, 0.0, 0.0, 0.0, 0.0, 1.6518360670325477E9, 0.0, 2022-05-06 12:21:07.032
62.0, -216.51589808473364, -76.89421303896233, -102.99310487974435, -147.06408595759422, 0.1600000075995922, 0.12800000607967377, 1.008000047877431, 0.0, 0.0, 0.0, 0.0, 0.0, 1.651836067048542E9, 0.0, 2022-05-06 12:21:07.048
62.0, -218.66634055925533, -118.02937265159562, -145.46714867651463, -160.56512479763478, 0.1600000075995922, 0.12800000607967377, 1.008000047877431, 0.0, 0.0, 0.0, 0.0, 0.0, 1.651836067048542E9, 0.0, 2022-05-06 12:21:07.048
63.0, -254.8423928306438, -183.6646168739535, -209.03796812333167, -183.84226212184876, 0.1600000075995922, 0.12800000607967377, 1.008000047877431, 0.0, 0.0, 0.0, 0.0, 0.0, 1.6518360670494847E9, 0.0, 2022-05-06 12:21:07.049
63.0, -251.1398918745108, -156.40822599688545, -167.67841451335698, -182.37622133921832, 0.1600000075995922, 0.12800000607967377, 1.008000047877431, 0.0, 0.0, 0.0, 0.0, 0.0, 1.6518360670494847E9, 0.0, 2022-05-06 12:21:07.049
64.0, -207.96274688607082, -76.36314724525437, -102.454559286125, -151.8848170004785, 0.1600000075995922, 0.12800000607967377, 1.008000047877431, 0.0, 0.0, 0.0, 0.0, 0.0, 1.6518360670785239E9, 0.0, 2022-05-06 12:21:07.078
64.0, -211.92330093914643, -117.9246554528363, -148.05141954589635, -157.58068463299423, 0.1600000075995922, 0.12800000607967377, 1.008000047877431, 0.0, 0.0, 0.0, 0.0, 0.0, 1.6518360670785239E9, 0.0, 2022-05-06 12:21:07.078
65.0, -271.0361596387811, -192.23272767243907, -214.78993425518274, -192.9414387140423, 0.1600000075995922, 0.12800000607967377, 1.008000047877431, 0.0, 0.0, 0.0, 0.0, 0.0, 1.651836067079464E9, 0.0, 2022-05-06 12:21:07.079
65.0, -249.78230819059536, -140.62958808382973, -151.12561730947345, -166.72847992461175, 0.1600000075995922, 0.12800000607967377, 1.008000047877431, 0.0, 0.0, 0.0, 0.0, 0.0, 1.651836067079464E9, 0.0, 2022-05-06 12:21:07.079
66.0, -208.43397428048775, -70.50646391464397, -97.787164141424, -136.9925353769213, 0.1600000075995922, 0.12800000607967377, 1.008000047877431, 0.0, 0.0, 0.0, 0.0, 0.0, 1.6518360670805364E9, 0.0, 2022-05-06 12:21:07.080
66.0, -223.22901850519702, -105.19777590362355, -136.45398978330195, -145.63170427456498, 0.1600000075995922, 0.12800000607967377, 1.008000047877431, 0.0, 0.0, 0.0, 0.0, 0.0, 1.6518360670805364E9, 0.0, 2022-05-06 12:21:07.080
