%OpenBCI Raw EEG Data
%Number of channels = 4
%Sample Rate = 200 Hz
%Board = OpenBCI_GUI$BoardGanglionBLE
Sample Index, EXG Channel 0, EXG Channel 1, EXG Channel 2, EXG Channel 3, Accel Channel 0, Accel Channel 1, Accel Channel 2, Other, Other, Other, Other, Other, Timestamp, Other, Timestamp (Formatted)
0.0, -288.69222732959315, -197.5246861097403, -202.49688310083002, -201.72833365993574, 0.0, 0.0, 0.0, 0.0, 0.0, 0.0, 0.0, 0.0, 1.6518364901475577E9, 0.0, 2022-05-06 12:28:10.147
1.0, -220.94767953222618, -71.90892639802769, -117.57123490702361, -150.99659076100215, 0.0, 0.11200000531971455, 0.0, 0.0, 0.0, 0.0, 0.0, 0.0, 1.6518364901776173E9, 0.0, 2022-05-06 12:28:10.177
1.0, -205.46075381571427, -91.86129266163334, -131.689357239753, -149.76242377562448, 0.0, 0.11200000531971455, 0.0, 0.0, 0.0, 0.0, 0.0, 0.0, 1.6518364901776173E9, 0.0, 2022-05-06 12:28:10.177
2.0, -276.87414346961305, -216.66923398291692, -223.09625205677003, -201.21596736600623, 0.1600000075995922, 0.11200000531971455, 0.0, 0.0, 0.0, 0.0, 0.0, 0.0, 1.65183649017954E9, 0.0, 2022-05-06 12:28:10.179
2.0, -284.9972061733715, -197.6294033084996, -210.38059220742434, -203.4112886399962, 0.1600000075995922, 0.11200000531971455, 0.0, 0.0, 0.0, 0.0, 0.0, 0.0, 1.65183649017954E9, 0.0, 2022-05-06 12:28:10.179
3.0, -230.6452401173301, -87.33975361520424, -130.39909175504, -170.29447453236207, 0.1600000075995922, 0.11200000531971455, 0.0, 0.0, 0.0, 0.0, 0.0, 0.0, 1.6518364901805449E9, 0.0, 2022-05-06 12:28:10.180
3.0, -200.73352027172223, -101.83934574341401, -144.50225448794663, -151.41171965608373, 0.1600000075995922, 0.11200000531971455, 0.0, 0.0, 0.0, 0.0, 0.0, 0.0, 1.6518364901805449E9, 0.0, 2022-05-06 12:28:10.180
4.0, -272.3301650234498, -214.79928400507197, -223.83301234804094, -197.86501700570807, 0.1600000075995922, 0.11200000531971455, 0.0, 0.0, 0.0, 0.0, 0.0, 0.0, 1.6518364901906068E9, 0.0, 2022-05-06 12:28:10.190
4.0, -289.98249281430617, -191.45482848165557, -198.03144255373627, -202.67826824868098, 0.1600000075995922, 0.11200000531971455, 0.0, 0.0, 0.0, 0.0, 0.0, 0.0, 1.6518364901906068E9, 0.0, 2022-05-06 12:28:10.190
5.0, -226.44533246709034, -77.47763743204996, -117.69091170560569, -155.3909732089378, 0.1600000075995922, 0.11200000531971455, 0.0, 0.0, 0.0, 0.0, 0.0, 0.0, 1.6518364902066047E9, 0.0, 2022-05-06 12:28:10.206
5.0, -205.95442060986534, -99.68890326889232, -145.74016137328, -157.21230448735878, 0.1600000075995922, 0.11200000531971455, 0.0, 0.0, 0.0, 0.0, 0.0, 0.0, 1.6518364902066047E9, 0.0, 2022-05-06 12:28:10.206
6.0, -263.0701727331616, -214.89278150396422, -225.34393193013966, -205.28497851779684, 0.1600000075995922, 0.11200000531971455, 0.0, 0.0, 0.0, 0.0, 0.0, 0.0, 1.6518364902075527E9, 0.0, 2022-05-06 12:28:10.207
6.0, -282.7046475005336, -202.42769495164976, -213.2528353733942, -204.66415512515232, 0.1600000075995922, 0.11200000531971455, 0.0, 0.0, 0.0, 0.0, 0.0, 0.0, 1.6518364902075527E9, 0.0, 2022-05-06 12:28:10.207
7.0, -235.55198885919526, -80.00206990214065, -120.12184667680413, -152.6421467415057, 0.1600000075995922, 0.11200000531971455, 0.0, 0.0, 0.0, 0.0, 0.0, 0.0, 1.6518364902205997E9, 0.0, 2022-05-06 12:28:10.220
7.0, -224.84839518601075, -101.97024224186316, -137.01871467661113, -152.91889933822677, 0.1600000075995922, 0.11200000531971455, 0.0, 0.0, 0.0, 0.0, 0.0, 0.0, 1.6518364902205997E9, 0.0, 2022-05-06 12:28:10.220
8.0, -282.2334201061167, -221.36654832726344, -230.56109236832708, -207.13622899586335, 0.1600000075995922, 0.11200000531971455, 0.0, 0.0, 0.0, 0.0, 0.0, 0.0, 1.6518364902365932E9, 0.0, 2022-05-06 12:28:10.236
8.0, -296.1645474410616, -197.5246861097403, -211.3230469962582, -209.2343128710054, 0.1600000075995922, 0.11200000531971455, 0.0, 0.0, 0.0, 0.0, 0.0, 0.0, 1.6518364902365932E9, 0.0, 2022-05-06 12:28:10.236
9.0, -228.07966874772683, -80.24890329921618, -128.2823083801195, -153.4237858322449, 0.1600000075995922, 0.11200000531971455, 0.0, 0.0, 0.0, 0.0, 0.0, 0.0, 1.6518364902375665E9, 0.0, 2022-05-06 12:28:10.237
9.0, -217.11054217768833, -102.64716413384303, -148.4366292413324, -159.48242376046255, 0.1600000075995922, 0.11200000531971455, 0.0, 0.0, 0.0, 0.0, 0.0, 0.0, 1.6518364902375665E9, 0.0, 2022-05-06 12:28:10.237
10.0, -272.4348822222091, -215.6744205947034, -223.70959564950317, -191.8512578769587, 0.1600000075995922, 0.11200000531971455, 1.0240000486373901, 0.0, 0.0, 0.0, 0.0, 0.0, 1.6518364902506752E9, 0.0, 2022-05-06 12:28:10.250
10.0, -285.2627390702255, -194.26723324833438, -213.39121167175472, -202.90266224602237, 0.1600000075995922, 0.11200000531971455, 1.0240000486373901, 0.0, 0.0, 0.0, 0.0, 0.0, 1.6518364902506752E9, 0.0, 2022-05-06 12:28:10.250
11.0, -237.9043859313242, -84.3553134505637, -137.75547496788204, -169.5053556417115, 0.1600000075995922, 0.04800000227987766, 1.0240000486373901, 0.0, 0.0, 0.0, 0.0, 0.0, 1.6518364902826393E9, 0.0, 2022-05-06 12:28:10.282
11.0, -222.6755133117549, -119.79086553072557, -152.5879181921482, -160.24910325137898, 0.1600000075995922, 0.04800000227987766, 1.0240000486373901, 0.0, 0.0, 0.0, 0.0, 0.0, 1.6518364902826393E9, 0.0, 2022-05-06 12:28:10.282
12.0, -284.701754076872, -221.7554979226552, -233.0780450385064, -208.43397428048775, 0.0800000037997961, 0.04800000227987766, 1.0240000486373901, 0.0, 0.0, 0.0, 0.0, 0.0, 1.6518364902836485E9, 0.0, 2022-05-06 12:28:10.283
12.0, -278.28782565286383, -181.06164650479332, -198.55502854753286, -201.12994966702536, 0.0800000037997961, 0.04800000227987766, 1.0240000486373901, 0.0, 0.0, 0.0, 0.0, 0.0, 1.6518364902836485E9, 0.0, 2022-05-06 12:28:10.283
13.0, -232.62364719389006, -90.38029227918014, -129.22476316895336, -150.04291627230123, 0.0800000037997961, 0.04800000227987766, 1.0240000486373901, 0.0, 0.0, 0.0, 0.0, 0.0, 1.65183649028467E9, 0.0, 2022-05-06 12:28:10.284
13.0, -246.8726660250686, -127.30806444166228, -161.67587508447468, -177.46760264737532, 0.0800000037997961, 0.04800000227987766, 1.0240000486373901, 0.0, 0.0, 0.0, 0.0, 0.0, 1.65183649028467E9, 0.0, 2022-05-06 12:28:10.284
14.0, -281.84447051072493, -211.94574033888057, -231.00988036300987, -207.64859528979287, 0.0800000037997961, 0.04800000227987766, 1.0240000486373901, 0.0, 0.0, 0.0, 0.0, 0.0, 1.6518364902856445E9, 0.0, 2022-05-06 12:28:10.285
14.0, -279.64540933677927, -173.89973808964714, -198.23713705129921, -205.35229671699926, 0.0800000037997961, 0.04800000227987766, 1.0240000486373901, 0.0, 0.0, 0.0, 0.0, 0.0, 1.6518364902856445E9, 0.0, 2022-05-06 12:28:10.285
15.0, -235.86614045547321, -100.92681015422568, -138.38377816043794, -172.51597510604188, 0.0800000037997961, 0.04800000227987766, 1.0240000486373901, 0.0, 0.0, 0.0, 0.0, 0.0, 1.6518364902957537E9, 0.0, 2022-05-06 12:28:10.295
15.0, -237.54535553557798, -128.31409752974287, -168.72558650095016, -173.3574525960721, 0.0800000037997961, 0.04800000227987766, 1.0240000486373901, 0.0, 0.0, 0.0, 0.0, 0.0, 1.6518364902957537E9, 0.0, 2022-05-06 12:28:10.295
16.0, -272.3376448233612, -195.3742436352186, -218.86268530692905, -192.64785656752065, 0.0800000037997961, 0.04800000227987766, 1.0240000486373901, 0.0, 0.0, 0.0, 0.0, 0.0, 1.6518364903106596E9, 0.0, 2022-05-06 12:28:10.310
16.0, -258.3204997894354, -164.52754880068824, -176.02587121445686, -176.11375886341557, 0.0800000037997961, 0.04800000227987766, 1.0240000486373901, 0.0, 0.0, 0.0, 0.0, 0.0, 1.6518364903106596E9, 0.0, 2022-05-06 12:28:10.310
17.0, -225.71231207577512, -88.37944580288604, -123.11376664135605, -161.95823753112927, 0.0800000037997961, 0.04800000227987766, 1.0240000486373901, 0.0, 0.0, 0.0, 0.0, 0.0, 1.6518364903267443E9, 0.0, 2022-05-06 12:28:10.326
17.0, -232.73958409251645, -119.68614833196625, -154.5513656688854, -152.63840684155002, 0.0800000037997961, 0.04800000227987766, 1.0240000486373901, 0.0, 0.0, 0.0, 0.0, 0.0, 1.6518364903267443E9, 0.0, 2022-05-06 12:28:10.326
18.0, -276.7694262708537, -195.15732943778858, -215.04050755221397, -188.75462071364745, 0.0800000037997961, 0.04800000227987766, 1.0240000486373901, 0.0, 0.0, 0.0, 0.0, 0.0, 1.6518364903276172E9, 0.0, 2022-05-06 12:28:10.327
18.0, -274.98923389194533, -171.2818081206642, -188.3451016684994, -190.85644448874518, 0.0800000037997961, 0.04800000227987766, 1.0240000486373901, 0.0, 0.0, 0.0, 0.0, 0.0, 1.6518364903276172E9, 0.0, 2022-05-06 12:28:10.327
19.0, -223.22527860524133, -86.61795292375609, -121.74496325757354, -153.2031317348592, 0.0800000037997961, 0.04800000227987766, 1.0240000486373901, 0.0, 0.0, 0.0, 0.0, 0.0, 1.6518364903406827E9, 0.0, 2022-05-06 12:28:10.340
19.0, -246.4687568298541, -136.1192687372677, -172.1176757607609, -180.17155031533912, 0.0800000037997961, 0.04800000227987766, 1.0240000486373901, 0.0, 0.0, 0.0, 0.0, 0.0, 1.6518364903406827E9, 0.0, 2022-05-06 12:28:10.340
20.0, -279.4097956395708, -206.0105191092007, -226.473381716758, -205.72254681261256, 0.0800000037997961, 0.04800000227987766, 0.5120000243186951, 0.0, 0.0, 0.0, 0.0, 0.0, 1.651836490356712E9, 0.0, 2022-05-06 12:28:10.356
20.0, -273.8897033049725, -167.44093086617067, -187.58964187745005, -185.2952132546343, 0.0800000037997961, 0.04800000227987766, 0.5120000243186951, 0.0, 0.0, 0.0, 0.0, 0.0, 1.651836490356712E9, 0.0, 2022-05-06 12:28:10.356
21.0, -245.85915313707665, -95.67973051639274, -136.2520351856947, -167.73638296267018, 0.0800000037997961, 0.0800000037997961, 0.5120000243186951, 0.0, 0.0, 0.0, 0.0, 0.0, 1.6518364903576465E9, 0.0, 2022-05-06 12:28:10.357
21.0, -249.31108079617843, -139.72827219450846, -174.98243912681937, -187.86826442414895, 0.0800000037997961, 0.0800000037997961, 0.5120000243186951, 0.0, 0.0, 0.0, 0.0, 0.0, 1.6518364903576465E9, 0.0, 2022-05-06 12:28:10.357
22.0, -284.76907227607444, -210.71905315341428, -227.7786068012938, -209.8252170640044, 0.11200000531971455, 0.0800000037997961, 0.5120000243186951, 0.0, 0.0, 0.0, 0.0, 0.0, 1.6518364903706071E9, 0.0, 2022-05-06 12:28:10.370
22.0, -274.1888953014277, -168.5068023535423, -186.6060481891036, -186.93328943522647, 0.11200000531971455, 0.0800000037997961, 0.5120000243186951, 0.0, 0.0, 0.0, 0.0, 0.0, 1.6518364903706071E9, 0.0, 2022-05-06 12:28:10.370
23.0, -248.66781800379977, -104.98086170619354, -137.22814907412976, -172.3962983074598, 0.11200000531971455, 0.0800000037997961, 0.5120000243186951, 0.0, 0.0, 0.0, 0.0, 0.0, 1.6518364903866568E9, 0.0, 2022-05-06 12:28:10.386
23.0, -229.73270452814177, -125.96170045761392, -157.7788993306458, -161.50944953644648, 0.11200000531971455, 0.0800000037997961, 0.5120000243186951, 0.0, 0.0, 0.0, 0.0, 0.0, 1.6518364903866568E9, 0.0, 2022-05-06 12:28:10.386
24.0, -267.93578257551417, -195.94644832843915, -215.01058835256845, -200.75221977150068, 0.11200000531971455, 0.0800000037997961, 0.5120000243186951, 0.0, 0.0, 0.0, 0.0, 0.0, 1.6518364903876069E9, 0.0, 2022-05-06 12:28:10.387
24.0, -280.40834892774, -175.807087067049, -198.0202228538692, -201.71711396006867, 0.11200000531971455, 0.0800000037997961, 0.5120000243186951, 0.0, 0.0, 0.0, 0.0, 0.0, 1.6518364903876069E9, 0.0, 2022-05-06 12:28:10.387
25.0, -255.16776412678882, -99.51312797097489, -136.15105788689107, -170.0626007351093, 0.11200000531971455, 0.0800000037997961, 0.5120000243186951, 0.0, 0.0, 0.0, 0.0, 0.0, 1.651836490400668E9, 0.0, 2022-05-06 12:28:10.400
25.0, -244.56140785245225, -134.66444765450433, -167.7793918121606, -174.5130816823803, 0.11200000531971455, 0.0800000037997961, 0.5120000243186951, 0.0, 0.0, 0.0, 0.0, 0.0, 1.651836490400668E9, 0.0, 2022-05-06 12:28:10.400
26.0, -274.7386605949141, -198.8486106940545, -212.41883768327534, -182.41923018870875, 0.11200000531971455, 0.0800000037997961, 0.5120000243186951, 0.0, 0.0, 0.0, 0.0, 0.0, 1.6518364904166503E9, 0.0, 2022-05-06 12:28:10.416
26.0, -273.2987991119735, -161.0905807414092, -170.524478379637, -152.85906093893573, 0.11200000531971455, 0.0800000037997961, 0.5120000243186951, 0.0, 0.0, 0.0, 0.0, 0.0, 1.6518364904166503E9, 0.0, 2022-05-06 12:28:10.416
27.0, -233.41650598449633, -88.5028625014238, -135.60877239331603, -178.7279489324428, 0.11200000531971455, 0.0800000037997961, 0.5120000243186951, 0.0, 0.0, 0.0, 0.0, 0.0, 1.651836490417647E9, 0.0, 2022-05-06 12:28:10.417
27.0, -239.89027280779555, -129.75769891263917, -170.04951108526438, -181.68620979739353, 0.11200000531971455, 0.0800000037997961, 0.5120000243186951, 0.0, 0.0, 0.0, 0.0, 0.0, 1.651836490417647E9, 0.0, 2022-05-06 12:28:10.417
28.0, -272.35634432313964, -209.54098466737196, -231.38387035857886, -209.92245446285233, 0.11200000531971455, 0.0800000037997961, 0.5120000243186951, 0.0, 0.0, 0.0, 0.0, 0.0, 1.6518364904306047E9, 0.0, 2022-05-06 12:28:10.430
28.0, -268.97921466315165, -179.9546361179091, -194.54585579503328, -192.7450939663686, 0.11200000531971455, 0.0800000037997961, 0.5120000243186951, 0.0, 0.0, 0.0, 0.0, 0.0, 1.6518364904306047E9, 0.0, 2022-05-06 12:28:10.430
29.0, -244.5015694531612, -100.02175436494872, -136.139838187024, -167.871019361075, 0.11200000531971455, 0.0800000037997961, 0.5120000243186951, 0.0, 0.0, 0.0, 0.0, 0.0, 1.6518364904466748E9, 0.0, 2022-05-06 12:28:10.446
29.0, -243.89944556029513, -134.80282395286486, -169.94853378646076, -176.37929176026955, 0.11200000531971455, 0.0800000037997961, 0.5120000243186951, 0.0, 0.0, 0.0, 0.0, 0.0, 1.6518364904466748E9, 0.0, 2022-05-06 12:28:10.446
30.0, -275.91672908095643, -203.8937357342802, -223.4066637530923, -201.57499776175246, 0.11200000531971455, 0.0800000037997961, 0.7680000364780426, 0.0, 0.0, 0.0, 0.0, 0.0, 1.6518364904476285E9, 0.0, 2022-05-06 12:28:10.447
30.0, -285.0009460733272, -174.81601357879117, -191.10140793584287, -195.71831443114206, 0.11200000531971455, 0.0800000037997961, 0.7680000364780426, 0.0, 0.0, 0.0, 0.0, 0.0, 1.6518364904476285E9, 0.0, 2022-05-06 12:28:10.447
31.0, -238.3157749264501, -97.29162739729509, -124.9463176196441, -154.59811441833153, 0.11200000531971455, 0.09600000455975533, 0.7680000364780426, 0.0, 0.0, 0.0, 0.0, 0.0, 1.6518364904606016E9, 0.0, 2022-05-06 12:28:10.460
31.0, -234.8750669672154, -126.34317025309429, -161.12984969094396, -162.2462098277174, 0.11200000531971455, 0.09600000455975533, 0.7680000364780426, 0.0, 0.0, 0.0, 0.0, 0.0, 1.6518364904606016E9, 0.0, 2022-05-06 12:28:10.460
32.0, -263.9602689226158, -194.8917965409346, -210.46287000644952, -189.56991890398785, 0.12800000607967377, 0.09600000455975533, 0.7680000364780426, 0.0, 0.0, 0.0, 0.0, 0.0, 1.6518364904766514E9, 0.0, 2022-05-06 12:28:10.476
32.0, -275.6362365842797, -172.62817210471258, -188.95470536127687, -192.98444756353274, 0.12800000607967377, 0.09600000455975533, 0.7680000364780426, 0.0, 0.0, 0.0, 0.0, 0.0, 1.6518364904766514E9, 0.0, 2022-05-06 12:28:10.476
33.0, -231.3146822093986, -92.78504795068875, -129.01158887147903, -157.0926276887767, 0.12800000607967377, 0.09600000455975533, 0.7680000364780426, 0.0, 0.0, 0.0, 0.0, 0.0, 1.65183649047759E9, 0.0, 2022-05-06 12:28:10.477
33.0, -232.4628314957954, -123.40734878787771, -148.27955344319344, -143.1278412542306, 0.12800000607967377, 0.09600000455975533, 0.7680000364780426, 0.0, 0.0, 0.0, 0.0, 0.0, 1.65183649047759E9, 0.0, 2022-05-06 12:28:10.477
34.0, -261.630311250221, -190.87888388847932, -209.78594811446965, -172.429957407061, 0.12800000607967377, 0.09600000455975533, 0.7680000364780426, 0.0, 0.0, 0.0, 0.0, 0.0, 1.6518364904906144E9, 0.0, 2022-05-06 12:28:10.490
34.0, -267.61415117932484, -163.63745261123404, -191.52775653079152, -209.95985346240923, 0.12800000607967377, 0.09600000455975533, 0.7680000364780426, 0.0, 0.0, 0.0, 0.0, 0.0, 1.6518364904906144E9, 0.0, 2022-05-06 12:28:10.490
35.0, -243.57033436419442, -95.35435922024772, -139.1392379514873, -180.50066151143983, 0.12800000607967377, 0.09600000455975533, 0.7680000364780426, 0.0, 0.0, 0.0, 0.0, 0.0, 1.6518364905066998E9, 0.0, 2022-05-06 12:28:10.506
35.0, -242.82609427301213, -136.3773218342103, -168.594690002501, -177.6209385455586, 0.12800000607967377, 0.09600000455975533, 0.7680000364780426, 0.0, 0.0, 0.0, 0.0, 0.0, 1.6518364905066998E9, 0.0, 2022-05-06 12:28:10.506
36.0, -274.6040241965093, -202.98494004504755, -223.4029238531366, -203.8937357342802, 0.12800000607967377, 0.09600000455975533, 0.7680000364780426, 0.0, 0.0, 0.0, 0.0, 0.0, 1.6518364905076091E9, 0.0, 2022-05-06 12:28:10.507
36.0, -281.95666750939563, -174.1016926872544, -193.93625210225582, -193.2911193598993, 0.12800000607967377, 0.09600000455975533, 0.7680000364780426, 0.0, 0.0, 0.0, 0.0, 0.0, 1.6518364905076091E9, 0.0, 2022-05-06 12:28:10.507
37.0, -228.92488613771275, -87.96805680776015, -121.70382435806096, -154.6429932177998, 0.12800000607967377, 0.09600000455975533, 0.7680000364780426, 0.0, 0.0, 0.0, 0.0, 0.0, 1.6518364905206609E9, 0.0, 2022-05-06 12:28:10.520
37.0, -238.7645629211329, -136.0444707381539, -170.09064998477697, -163.99648300698027, 0.12800000607967377, 0.09600000455975533, 0.7680000364780426, 0.0, 0.0, 0.0, 0.0, 0.0, 1.6518364905206609E9, 0.0, 2022-05-06 12:28:10.520
38.0, -279.1592223425396, -202.46135405125096, -222.5464867632836, -208.45641368022189, 0.12800000607967377, 0.09600000455975533, 0.7680000364780426, 0.0, 0.0, 0.0, 0.0, 0.0, 1.6518364905366693E9, 0.0, 2022-05-06 12:28:10.536
38.0, -277.31919156434014, -171.88767191348597, -193.07233521249145, -199.98928018053994, 0.12800000607967377, 0.09600000455975533, 0.7680000364780426, 0.0, 0.0, 0.0, 0.0, 0.0, 1.6518364905366693E9, 0.0, 2022-05-06 12:28:10.536
39.0, -228.03478994825855, -89.09002679446712, -125.64193901140243, -157.23100398713723, 0.12800000607967377, 0.09600000455975533, 0.7680000364780426, 0.0, 0.0, 0.0, 0.0, 0.0, 1.6518364905376232E9, 0.0, 2022-05-06 12:28:10.537
39.0, -237.1638857400976, -132.4167677811347, -162.8576834704727, -172.4000382074155, 0.12800000607967377, 0.09600000455975533, 0.7680000364780426, 0.0, 0.0, 0.0, 0.0, 0.0, 1.6518364905376232E9, 0.0, 2022-05-06 12:28:10.537
40.0, -252.33665986033157, -195.9988069278188, -213.9147976655513, -189.5213002045639, 0.12800000607967377, 0.09600000455975533, 0.8960000425577164, 0.0, 0.0, 0.0, 0.0, 0.0, 1.6518364905506687E9, 0.0, 2022-05-06 12:28:10.550
40.0, -301.66968017583713, -178.09216593997553, -194.9460250902921, -205.06432442041114, 0.12800000607967377, 0.09600000455975533, 0.8960000425577164, 0.0, 0.0, 0.0, 0.0, 0.0, 1.6518364905506687E9, 0.0, 2022-05-06 12:28:10.550
41.0, -237.14892614027485, -92.80748735042289, -129.92412446066737, -166.0945668821223, 0.12800000607967377, 0.09600000455975533, 0.8960000425577164, 0.0, 0.0, 0.0, 0.0, 0.0, 1.6518364905666795E9, 0.0, 2022-05-06 12:28:10.566
41.0, -237.171365540009, -132.33448998210952, -163.0371986683458, -171.79417441459373, 0.12800000607967377, 0.09600000455975533, 0.8960000425577164, 0.0, 0.0, 0.0, 0.0, 0.0, 1.6518364905666795E9, 0.0, 2022-05-06 12:28:10.566
42.0, -267.2476409836672, -197.79021900659427, -206.33776035532355, -172.34767960803583, 0.144000006839633, 0.09600000455975533, 0.8960000425577164, 0.0, 0.0, 0.0, 0.0, 0.0, 1.6518364905676818E9, 0.0, 2022-05-06 12:28:10.567
42.0, -266.75771408947185, -162.21629062807187, -178.62510168366134, -170.66098472801968, 0.144000006839633, 0.09600000455975533, 0.8960000425577164, 0.0, 0.0, 0.0, 0.0, 0.0, 1.6518364905676818E9, 0.0, 2022-05-06 12:28:10.567
43.0, -239.01139631820843, -100.5864792582579, -143.41768350079656, -189.76439370168373, 0.144000006839633, 0.09600000455975533, 0.8960000425577164, 0.0, 0.0, 0.0, 0.0, 0.0, 1.6518364905806391E9, 0.0, 2022-05-06 12:28:10.580
43.0, -236.55802194727585, -135.0047785504721, -170.21406668331474, -181.4356365003623, 0.144000006839633, 0.09600000455975533, 0.8960000425577164, 0.0, 0.0, 0.0, 0.0, 0.0, 1.6518364905806391E9, 0.0, 2022-05-06 12:28:10.580
44.0, -268.8034393652342, -200.3408307763748, -216.16247753892094, -199.892042781692, 0.144000006839633, 0.09600000455975533, 0.8960000425577164, 0.0, 0.0, 0.0, 0.0, 0.0, 1.651836490596652E9, 0.0, 2022-05-06 12:28:10.596
44.0, -276.1523427781649, -170.4739897302352, -192.49265071935952, -196.3690570234321, 0.144000006839633, 0.09600000455975533, 0.8960000425577164, 0.0, 0.0, 0.0, 0.0, 0.0, 1.651836490596652E9, 0.0, 2022-05-06 12:28:10.596
45.0, -237.2087645395659, -96.63714490504935, -133.40597131941468, -165.6869177869521, 0.144000006839633, 0.09600000455975533, 0.8960000425577164, 0.0, 0.0, 0.0, 0.0, 0.0, 1.6518364905975606E9, 0.0, 2022-05-06 12:28:10.597
45.0, -237.14892614027485, -140.46503248577937, -168.77420520037413, -178.3614387367852, 0.144000006839633, 0.09600000455975533, 0.8960000425577164, 0.0, 0.0, 0.0, 0.0, 0.0, 1.6518364905975606E9, 0.0, 2022-05-06 12:28:10.597
46.0, -272.146909925621, -200.47172727482393, -220.49702158756554, -195.09001123858616, 0.144000006839633, 0.09600000455975533, 0.8960000425577164, 0.0, 0.0, 0.0, 0.0, 0.0, 1.6518364906106186E9, 0.0, 2022-05-06 12:28:10.610
46.0, -270.9538818397559, -171.09107322292402, -187.43630597926676, -194.9628546400927, 0.144000006839633, 0.09600000455975533, 0.8960000425577164, 0.0, 0.0, 0.0, 0.0, 0.0, 1.6518364906106186E9, 0.0, 2022-05-06 12:28:10.610
47.0, -226.30321626877412, -95.20102332206443, -128.01303558330983, -156.49424369586632, 0.144000006839633, 0.09600000455975533, 0.8960000425577164, 0.0, 0.0, 0.0, 0.0, 0.0, 1.6518364906266506E9, 0.0, 2022-05-06 12:28:10.626
47.0, -233.59602118236944, -130.53185820346698, -163.91233525797725, -160.63431294681504, 0.144000006839633, 0.09600000455975533, 0.8960000425577164, 0.0, 0.0, 0.0, 0.0, 0.0, 1.6518364906266506E9, 0.0, 2022-05-06 12:28:10.626
48.0, -265.67688300227746, -194.43178884638473, -207.96087693609297, -177.11979195149615, 0.144000006839633, 0.09600000455975533, 0.8960000425577164, 0.0, 0.0, 0.0, 0.0, 0.0, 1.6518364906275904E9, 0.0, 2022-05-06 12:28:10.627
48.0, -265.6245244028978, -159.70681775780395, -180.35293546319008, -176.94027675362304, 0.144000006839633, 0.09600000455975533, 0.8960000425577164, 0.0, 0.0, 0.0, 0.0, 0.0, 1.6518364906275904E9, 0.0, 2022-05-06 12:28:10.627
49.0, -234.5758749707602, -91.12827227031812, -136.59236608166248, -175.65001126891002, 0.144000006839633, 0.09600000455975533, 0.8960000425577164, 0.0, 0.0, 0.0, 0.0, 0.0, 1.6518364906406343E9, 0.0, 2022-05-06 12:28:10.640
49.0, -229.21659833425656, -128.21312023093924, -164.57803745009005, -176.5475872582756, 0.144000006839633, 0.09600000455975533, 0.8960000425577164, 0.0, 0.0, 0.0, 0.0, 0.0, 1.6518364906406343E9, 0.0, 2022-05-06 12:28:10.640
50.0, -270.0824851500802, -206.62760260188952, -222.27721396647394, -193.74738715449348, 0.144000006839633, 0.09600000455975533, 0.944000044837594, 0.0, 0.0, 0.0, 0.0, 0.0, 1.6518364906565926E9, 0.0, 2022-05-06 12:28:10.656
50.0, -268.6314039672725, -161.11676004109904, -179.84804896917194, -188.57510551577434, 0.144000006839633, 0.09600000455975533, 0.944000044837594, 0.0, 0.0, 0.0, 0.0, 0.0, 1.6518364906565926E9, 0.0, 2022-05-06 12:28:10.656
51.0, -246.06858753459528, -100.88941115466878, -129.37435916718096, -172.77402820298448, 0.144000006839633, 0.11200000531971455, 0.944000044837594, 0.0, 0.0, 0.0, 0.0, 0.0, 1.6518364906576395E9, 0.0, 2022-05-06 12:28:10.657
51.0, -237.30600193841383, -129.9297343106009, -174.81040372885764, -182.1798765915446, 0.144000006839633, 0.11200000531971455, 0.944000044837594, 0.0, 0.0, 0.0, 0.0, 0.0, 1.6518364906576395E9, 0.0, 2022-05-06 12:28:10.657
52.0, -258.42521698819473, -194.20739484904334, -218.9150439063087, -196.91134251700714, 0.144000006839633, 0.11200000531971455, 0.944000044837594, 0.0, 0.0, 0.0, 0.0, 0.0, 1.6518364906706488E9, 0.0, 2022-05-06 12:28:10.670
52.0, -276.16730237798765, -167.78874156204984, -185.7159519996494, -191.98215437540784, 0.144000006839633, 0.11200000531971455, 0.944000044837594, 0.0, 0.0, 0.0, 0.0, 0.0, 1.6518364906706488E9, 0.0, 2022-05-06 12:28:10.670
53.0, -229.80750252725556, -86.77876862185076, -120.72023066971451, -149.92323947371915, 0.144000006839633, 0.11200000531971455, 0.944000044837594, 0.0, 0.0, 0.0, 0.0, 0.0, 1.6518364906867232E9, 0.0, 2022-05-06 12:28:10.686
53.0, -231.03418971272185, -130.73755270102993, -164.2264868542552, -162.56784122390673, 0.144000006839633, 0.11200000531971455, 0.944000044837594, 0.0, 0.0, 0.0, 0.0, 0.0, 1.6518364906867232E9, 0.0, 2022-05-06 12:28:10.686
54.0, -275.35200418764725, -203.57584423804656, -227.80478610098362, -200.56896467367187, 0.144000006839633, 0.11200000531971455, 0.944000044837594, 0.0, 0.0, 0.0, 0.0, 0.0, 1.6518364906876445E9, 0.0, 2022-05-06 12:28:10.687
54.0, -269.0315732625313, -165.38398589054123, -186.6434471886605, -196.17084232578054, 0.144000006839633, 0.11200000531971455, 0.944000044837594, 0.0, 0.0, 0.0, 0.0, 0.0, 1.6518364906876445E9, 0.0, 2022-05-06 12:28:10.687
55.0, -239.47888381266966, -97.89749119011685, -138.38751806039363, -174.5430008820258, 0.144000006839633, 0.11200000531971455, 0.944000044837594, 0.0, 0.0, 0.0, 0.0, 0.0, 1.6518364907006135E9, 0.0, 2022-05-06 12:28:10.700
55.0, -236.29622895037755, -140.51739108515903, -172.39816825743765, -179.93593661813065, 0.144000006839633, 0.11200000531971455, 0.944000044837594, 0.0, 0.0, 0.0, 0.0, 0.0, 1.6518364907006135E9, 0.0, 2022-05-06 12:28:10.700
56.0, -269.5888183559291, -201.93776805745438, -222.55770646315068, -202.8577834465541, 0.144000006839633, 0.11200000531971455, 0.944000044837594, 0.0, 0.0, 0.0, 0.0, 0.0, 1.651836490716654E9, 0.0, 2022-05-06 12:28:10.716
56.0, -283.54986489051953, -167.21653686882928, -187.3091493807733, -195.74823363078758, 0.144000006839633, 0.11200000531971455, 0.944000044837594, 0.0, 0.0, 0.0, 0.0, 0.0, 1.651836490716654E9, 0.0, 2022-05-06 12:28:10.716
57.0, -233.5025236834772, -85.83257393306121, -130.08120025880635, -167.85979966120794, 0.144000006839633, 0.11200000531971455, 0.944000044837594, 0.0, 0.0, 0.0, 0.0, 0.0, 1.6518364907176828E9, 0.0, 2022-05-06 12:28:10.717
57.0, -215.29295079922304, -125.23241996625438, -151.69408210273832, -160.33886085031554, 0.144000006839633, 0.11200000531971455, 0.944000044837594, 0.0, 0.0, 0.0, 0.0, 0.0, 1.6518364907176828E9, 0.0, 2022-05-06 12:28:10.717
58.0, -272.9210692164488, -202.25191965373233, -221.76484767254442, -202.4501343513839, 0.144000006839633, 0.11200000531971455, 0.944000044837594, 0.0, 0.0, 0.0, 0.0, 0.0, 1.6518364907306428E9, 0.0, 2022-05-06 12:28:10.730
58.0, -274.54044589726254, -167.23897626856342, -185.9029469974339, -195.23960723681375, 0.144000006839633, 0.11200000531971455, 0.944000044837594, 0.0, 0.0, 0.0, 0.0, 0.0, 1.6518364907306428E9, 0.0, 2022-05-06 12:28:10.730
59.0, -232.15615969942883, -92.8037474504672, -136.07999978773296, -167.45589046599343, 0.144000006839633, 0.11200000531971455, 0.944000044837594, 0.0, 0.0, 0.0, 0.0, 0.0, 1.651836490762622E9, 0.0, 2022-05-06 12:28:10.762
59.0, -235.2789761624299, -135.1244553490542, -167.18100781925023, -165.48870308930054, 0.144000006839633, 0.11200000531971455, 0.944000044837594, 0.0, 0.0, 0.0, 0.0, 0.0, 1.651836490762622E9, 0.0, 2022-05-06 12:28:10.762
60.0, -261.9856017460115, -186.6303575388156, -200.96726401895285, -161.9844168308191, 0.144000006839633, 0.11200000531971455, 0.9920000471174717, 0.0, 0.0, 0.0, 0.0, 0.0, 1.6518364907636538E9, 0.0, 2022-05-06 12:28:10.763
60.0, -268.28359327139333, -158.5736280712299, -176.5681567080319, -179.6965830209665, 0.144000006839633, 0.11200000531971455, 0.9920000471174717, 0.0, 0.0, 0.0, 0.0, 0.0, 1.6518364907636538E9, 0.0, 2022-05-06 12:28:10.763
61.0, -227.63462065299973, -86.37859932659194, -130.38039225526154, -166.12822598172352, 0.144000006839633, 0.11200000531971455, 0.9920000471174717, 0.0, 0.0, 0.0, 0.0, 0.0, 1.6518364907646637E9, 0.0, 2022-05-06 12:28:10.764
61.0, -228.93236593762413, -133.20214677182958, -166.5639243265614, -181.74230829672888, 0.144000006839633, 0.11200000531971455, 0.9920000471174717, 0.0, 0.0, 0.0, 0.0, 0.0, 1.6518364907646637E9, 0.0, 2022-05-06 12:28:10.764
62.0, -241.8051015851088, -195.2583067365922, -209.69993041548878, -190.08228519791737, 0.1600000075995922, 0.11200000531971455, 0.9920000471174717, 0.0, 0.0, 0.0, 0.0, 0.0, 1.6518364907656264E9, 0.0, 2022-05-06 12:28:10.765
62.0, -284.4474408798851, -182.9166368828155, -207.22037674486637, -216.5645167841576, 0.1600000075995922, 0.11200000531971455, 0.9920000471174717, 0.0, 0.0, 0.0, 0.0, 0.0, 1.6518364907656264E9, 0.0, 2022-05-06 12:28:10.765
63.0, -260.09321236843243, -111.42470932984725, -148.00280084647238, -184.67812976194546, 0.1600000075995922, 0.11200000531971455, 0.9920000471174717, 0.0, 0.0, 0.0, 0.0, 0.0, 1.6518364907755904E9, 0.0, 2022-05-06 12:28:10.775
63.0, -234.9797841659747, -138.66988050704822, -165.4531740397215, -165.29422829160467, 0.1600000075995922, 0.11200000531971455, 0.9920000471174717, 0.0, 0.0, 0.0, 0.0, 0.0, 1.6518364907755904E9, 0.0, 2022-05-06 12:28:10.775
64.0, -266.5221003922634, -202.61468994943425, -217.71453602053225, -204.8174910233356, 0.1600000075995922, 0.11200000531971455, 0.9920000471174717, 0.0, 0.0, 0.0, 0.0, 0.0, 1.651836490790668E9, 0.0, 2022-05-06 12:28:10.790
64.0, -276.7769060707651, -168.96681004809216, -187.81403587479144, -204.1517888312228, 0.1600000075995922, 0.11200000531971455, 0.9920000471174717, 0.0, 0.0, 0.0, 0.0, 0.0, 1.651836490790668E9, 0.0, 2022-05-06 12:28:10.790
65.0, -242.6540588750504, -106.05795289343223, -137.57221987005323, -175.11520557524636, 0.1600000075995922, 0.11200000531971455, 0.9920000471174717, 0.0, 0.0, 0.0, 0.0, 0.0, 1.6518364908066993E9, 0.0, 2022-05-06 12:28:10.806
65.0, -231.2024852107279, -135.25909174745902, -163.55330486223102, -169.88308553723618, 0.1600000075995922, 0.11200000531971455, 0.9920000471174717, 0.0, 0.0, 0.0, 0.0, 0.0, 1.6518364908066993E9, 0.0, 2022-05-06 12:28:10.806
66.0, -262.4306498407386, -194.61878384416923, -211.97004968859255, -194.12885694997385, 0.1600000075995922, 0.11200000531971455, 0.9920000471174717, 0.0, 0.0, 0.0, 0.0, 0.0, 1.6518364908076472E9, 0.0, 2022-05-06 12:28:10.807
66.0, -276.61983027262613, -170.64228522824124, -190.86205433867872, -197.5209462097846, 0.1600000075995922, 0.11200000531971455, 0.9920000471174717, 0.0, 0.0, 0.0, 0.0, 0.0, 1.6518364908076472E9, 0.0, 2022-05-06 12:28:10.807
67.0, -229.25025743385777, -90.18207758152857, -129.3182606678456, -163.81696780910715, 0.1600000075995922, 0.11200000531971455, 0.9920000471174717, 0.0, 0.0, 0.0, 0.0, 0.0, 1.6518364908206384E9, 0.0, 2022-05-06 12:28:10.820
67.0, -217.2339588762261, -128.57589052664116, -163.119476467371, -172.57207360537723, 0.1600000075995922, 0.11200000531971455, 0.9920000471174717, 0.0, 0.0, 0.0, 0.0, 0.0, 1.6518364908206384E9, 0.0, 2022-05-06 12:28:10.820
68.0, -277.4201688631438, -207.1923274951987, -221.49183497577906, -198.67657529609278, 0.1600000075995922, 0.11200000531971455, 0.9920000471174717, 0.0, 0.0, 0.0, 0.0, 0.0, 1.6518364908366787E9, 0.0, 2022-05-06 12:28:10.836
68.0, -274.3272715997882, -163.6561521110125, -177.73500549420714, -187.02304703416303, 0.1600000075995922, 0.11200000531971455, 0.9920000471174717, 0.0, 0.0, 0.0, 0.0, 0.0, 1.6518364908366787E9, 0.0, 2022-05-06 12:28:10.836
69.0, -223.25893770484254, -90.42143117869273, -116.15381282381713, -149.42957267956808, 0.1600000075995922, 0.11200000531971455, 0.9920000471174717, 0.0, 0.0, 0.0, 0.0, 0.0, 1.651836490837566E9, 0.0, 2022-05-06 12:28:10.837
69.0, -232.2720965980552, -129.36874931724742, -160.7782990951091, -150.89935336215422, 0.1600000075995922, 0.11200000531971455, 0.9920000471174717, 0.0, 0.0, 0.0, 0.0, 0.0, 1.651836490837566E9, 0.0, 2022-05-06 12:28:10.837
70.0, -266.86617118818685, -195.75197353074327, -218.57845291029662, -193.2612001602538, 0.1600000075995922, 0.11200000531971455, 1.008000047877431, 0.0, 0.0, 0.0, 0.0, 0.0, 1.651836490850652E9, 0.0, 2022-05-06 12:28:10.850
70.0, -267.5804920797236, -157.69475158164278, -177.27499779965729, -198.90844909334555, 0.1600000075995922, 0.11200000531971455, 1.008000047877431, 0.0, 0.0, 0.0, 0.0, 0.0, 1.651836490850652E9, 0.0, 2022-05-06 12:28:10.850
71.0, -238.08390112919733, -96.33047310868278, -133.79866081476212, -175.55651377001777, 0.1600000075995922, 0.11200000531971455, 1.008000047877431, 0.0, 0.0, 0.0, 0.0, 0.0, 1.6518364908666077E9, 0.0, 2022-05-06 12:28:10.866
71.0, -229.717744928319, -129.0059790215455, -165.32601744122803, -172.36637910781428, 0.1600000075995922, 0.11200000531971455, 1.008000047877431, 0.0, 0.0, 0.0, 0.0, 0.0, 1.6518364908666077E9, 0.0, 2022-05-06 12:28:10.866
72.0, -281.2311269179918, -222.529657213483, -244.69791420083493, -230.574182018172, 0.1600000075995922, 0.11200000531971455, 1.008000047877431, 0.0, 0.0, 0.0, 0.0, 0.0, 1.6518364908677115E9, 0.0, 2022-05-06 12:28:10.867
72.0, -278.8151515466161, -176.60742565756664, -198.66348564624786, -213.29958412284032, 0.1600000075995922, 0.11200000531971455, 1.008000047877431, 0.0, 0.0, 0.0, 0.0, 0.0, 1.6518364908677115E9, 0.0, 2022-05-06 12:28:10.867
73.0, -238.45041132485494, -95.74704871559516, -134.65135800465941, -161.63286623498425, 0.1600000075995922, 0.11200000531971455, 1.008000047877431, 0.0, 0.0, 0.0, 0.0, 0.0, 1.6518364908806207E9, 0.0, 2022-05-06 12:28:10.880
73.0, -235.04336246522143, -139.70583279477432, -175.47610592097044, -182.46410898817703, 0.1600000075995922, 0.11200000531971455, 1.008000047877431, 0.0, 0.0, 0.0, 0.0, 0.0, 1.6518364908806207E9, 0.0, 2022-05-06 12:28:10.880
74.0, -281.1488491189666, -210.47969955625013, -224.6296110386029, -212.53664453187957, 0.1600000075995922, 0.11200000531971455, 1.008000047877431, 0.0, 0.0, 0.0, 0.0, 0.0, 1.651836490896698E9, 0.0, 2022-05-06 12:28:10.896
74.0, -265.5534663037397, -158.81298166839406, -179.36186197493225, -189.8504114006646, 0.1600000075995922, 0.11200000531971455, 1.008000047877431, 0.0, 0.0, 0.0, 0.0, 0.0, 1.651836490896698E9, 0.0, 2022-05-06 12:28:10.896
75.0, -227.46632515499368, -102.3629317372106, -140.590319134295, -177.82289314316586, 0.1600000075995922, 0.11200000531971455, 1.008000047877431, 0.0, 0.0, 0.0, 0.0, 0.0, 1.6518364908975687E9, 0.0, 2022-05-06 12:28:10.897
75.0, -244.55766795249656, -147.9410924972035, -183.344855427742, -177.38906474830583, 0.1600000075995922, 0.11200000531971455, 1.008000047877431, 0.0, 0.0, 0.0, 0.0, 0.0, 1.6518364908975687E9, 0.0, 2022-05-06 12:28:10.897
76.0, -276.90780256921425, -212.90689462749287, -219.63310469780117, -190.85644448874518, 0.1600000075995922, 0.11200000531971455, 1.008000047877431, 0.0, 0.0, 0.0, 0.0, 0.0, 1.6518364909105961E9, 0.0, 2022-05-06 12:28:10.910
76.0, -259.7753208721988, -156.7934356923215, -175.28911092318594, -173.93713708920404, 0.1600000075995922, 0.11200000531971455, 1.008000047877431, 0.0, 0.0, 0.0, 0.0, 0.0, 1.6518364909105961E9, 0.0, 2022-05-06 12:28:10.910
77.0, -225.48417817847803, -99.32239307323471, -140.42576353624463, -171.92507091304287, 0.1600000075995922, 0.11200000531971455, 1.008000047877431, 0.0, 0.0, 0.0, 0.0, 0.0, 1.65183649092668E9, 0.0, 2022-05-06 12:28:10.926
77.0, -200.4455479751341, -110.18680244451389, -141.38691782485694, -139.54127719672397, 0.1600000075995922, 0.11200000531971455, 1.008000047877431, 0.0, 0.0, 0.0, 0.0, 0.0, 1.65183649092668E9, 0.0, 2022-05-06 12:28:10.926
78.0, -273.6952285072766, -196.90386271709576, -210.26091540884227, -187.68126942636445, 0.1600000075995922, 0.11200000531971455, 1.008000047877431, 0.0, 0.0, 0.0, 0.0, 0.0, 1.6518364909275908E9, 0.0, 2022-05-06 12:28:10.927
78.0, -278.7777525470592, -172.5870332052, -186.07124249543995, -192.69273536698893, 0.1600000075995922, 0.11200000531971455, 1.008000047877431, 0.0, 0.0, 0.0, 0.0, 0.0, 1.6518364909275908E9, 0.0, 2022-05-06 12:28:10.927
79.0, -223.20657910546288, -73.34130808105692, -122.66123874671757, -157.82564808009192, 0.1600000075995922, 0.11200000531971455, 1.008000047877431, 0.0, 0.0, 0.0, 0.0, 0.0, 1.6518364909406052E9, 0.0, 2022-05-06 12:28:10.940
79.0, -226.389233967755, -122.51725259842351, -162.06856457982212, -183.95258917054161, 0.1600000075995922, 0.11200000531971455, 1.008000047877431, 0.0, 0.0, 0.0, 0.0, 0.0, 1.6518364909406052E9, 0.0, 2022-05-06 12:28:10.940
80.0, -276.6983681716956, -218.00437826709822, -233.27625973615795, -212.57030363148078, 0.1600000075995922, 0.11200000531971455, 1.008000047877431, 0.0, 0.0, 0.0, 0.0, 0.0, 1.6518364909556544E9, 0.0, 2022-05-06 12:28:10.955
80.0, -289.47386642033234, -187.6214310270734, -198.19225825183094, -213.79699081694707, 0.1600000075995922, 0.11200000531971455, 1.008000047877431, 0.0, 0.0, 0.0, 0.0, 0.0, 1.6518364909556544E9, 0.0, 2022-05-06 12:28:10.955
81.0, -221.35532862739637, -86.85356662096456, -126.66667159926146, -164.49762960104272, 0.1600000075995922, 0.11200000531971455, 1.008000047877431, 0.0, 0.0, 0.0, 0.0, 0.0, 1.651836490971645E9, 0.0, 2022-05-06 12:28:10.971
81.0, -224.36968799168244, -123.05579819204286, -157.23661383707076, -165.92627138411626, 0.1600000075995922, 0.11200000531971455, 1.008000047877431, 0.0, 0.0, 0.0, 0.0, 0.0, 1.651836490971645E9, 0.0, 2022-05-06 12:28:10.971
82.0, -270.0824851500802, -209.39138866914436, -219.13195810373873, -194.06153875077143, 0.1600000075995922, 0.11200000531971455, 1.008000047877431, 0.0, 0.0, 0.0, 0.0, 0.0, 1.6518364909726465E9, 0.0, 2022-05-06 12:28:10.972
82.0, -269.72719465428963, -168.92193124862388, -180.99245835561305, -185.52334715193138, 0.1600000075995922, 0.11200000531971455, 1.008000047877431, 0.0, 0.0, 0.0, 0.0, 0.0, 1.6518364909726465E9, 0.0, 2022-05-06 12:28:10.972
83.0, -217.5256710727699, -74.91954586235806, -114.00337034929544, -144.17875314177945, 0.1600000075995922, 0.11200000531971455, 1.008000047877431, 0.0, 0.0, 0.0, 0.0, 0.0, 1.6518364909866579E9, 0.0, 2022-05-06 12:28:10.986
83.0, -218.3110500634648, -119.09524413896725, -155.0712117627263, -151.44537875568494, 0.1600000075995922, 0.11200000531971455, 1.008000047877431, 0.0, 0.0, 0.0, 0.0, 0.0, 1.6518364909866579E9, 0.0, 2022-05-06 12:28:10.986
84.0, -262.0005613458343, -202.9998996448703, -212.48615588247776, -197.74908010708168, 0.1600000075995922, 0.11200000531971455, 1.008000047877431, 0.0, 0.0, 0.0, 0.0, 0.0, 1.65183649098765E9, 0.0, 2022-05-06 12:28:10.987
84.0, -277.4874870623462, -171.05367422336712, -189.76252375170588, -196.61963032046333, 0.1600000075995922, 0.11200000531971455, 1.008000047877431, 0.0, 0.0, 0.0, 0.0, 0.0, 1.65183649098765E9, 0.0, 2022-05-06 12:28:10.987
85.0, -218.17641366505995, -76.25095024658367, -116.18373202346265, -165.47748338943347, 0.1600000075995922, 0.11200000531971455, 1.008000047877431, 0.0, 0.0, 0.0, 0.0, 0.0, 1.651836491000651E9, 0.0, 2022-05-06 12:28:11.000
85.0, -227.78421665122733, -118.86337034171447, -154.53266616910696, -166.27034218003973, 0.1600000075995922, 0.11200000531971455, 1.008000047877431, 0.0, 0.0, 0.0, 0.0, 0.0, 1.651836491000651E9, 0.0, 2022-05-06 12:28:11.000
86.0, -270.20590184861794, -207.06891079666093, -222.72226206120104, -200.09773727925494, 0.1600000075995922, 0.11200000531971455, 1.008000047877431, 0.0, 0.0, 0.0, 0.0, 0.0, 1.6518364910166266E9, 0.0, 2022-05-06 12:28:11.016
86.0, -266.6604766906239, -164.52754880068824, -179.58999587222934, -184.44625596469268, 0.1600000075995922, 0.11200000531971455, 1.008000047877431, 0.0, 0.0, 0.0, 0.0, 0.0, 1.6518364910166266E9, 0.0, 2022-05-06 12:28:11.016
87.0, -216.57199658406898, -79.51588290790096, -115.52176973130554, -149.54176967823878, 0.1600000075995922, 0.11200000531971455, 1.008000047877431, 0.0, 0.0, 0.0, 0.0, 0.0, 1.651836491017581E9, 0.0, 2022-05-06 12:28:11.017
87.0, -205.27375881792977, -109.96240844717249, -146.76115406118333, -153.10215443605557, 0.1600000075995922, 0.11200000531971455, 1.008000047877431, 0.0, 0.0, 0.0, 0.0, 0.0, 1.651836491017581E9, 0.0, 2022-05-06 12:28:11.017
88.0, -280.890796022024, -214.95261990325525, -239.93702155724168, -223.04202350741252, 0.1600000075995922, 0.11200000531971455, 1.008000047877431, 0.0, 0.0, 0.0, 0.0, 0.0, 1.651836491030641E9, 0.0, 2022-05-06 12:28:11.030
88.0, -280.3784297280945, -171.64457841636613, -188.49095776677132, -203.66186193702742, 0.1600000075995922, 0.11200000531971455, 1.008000047877431, 0.0, 0.0, 0.0, 0.0, 0.0, 1.651836491030641E9, 0.0, 2022-05-06 12:28:11.030
89.0, -225.26726398104802, -78.04984212527052, -114.96452463790774, -152.29059614567086, 0.1600000075995922, 0.11200000531971455, 1.008000047877431, 0.0, 0.0, 0.0, 0.0, 0.0, 1.65183649104661E9, 0.0, 2022-05-06 12:28:11.046
89.0, -219.77709084609523, -116.90740266488865, -156.35773734748363, -153.60330103011802, 0.1600000075995922, 0.11200000531971455, 1.008000047877431, 0.0, 0.0, 0.0, 0.0, 0.0, 1.65183649104661E9, 0.0, 2022-05-06 12:28:11.046
90.0, -270.3031392474659, -209.75789886480197, -218.72430900856853, -201.84427055856213, 0.1600000075995922, 0.11200000531971455, 1.008000047877431, 0.0, 0.0, 0.0, 0.0, 0.0, 1.6518364910475569E9, 0.0, 2022-05-06 12:28:11.047
90.0, -264.4464559168555, -161.08310094149783, -172.20369345974177, -186.02449374599382, 0.1600000075995922, 0.11200000531971455, 1.008000047877431, 0.0, 0.0, 0.0, 0.0, 0.0, 1.6518364910475569E9, 0.0, 2022-05-06 12:28:11.047
91.0, -214.73196580586955, -71.17964590666816, -108.05692941974849, -136.87846842827275, 0.1600000075995922, 0.11200000531971455, 1.008000047877431, 0.0, 0.0, 0.0, 0.0, 0.0, 1.6518364910606608E9, 0.0, 2022-05-06 12:28:11.060
91.0, -224.85213508596644, -133.9015080635436, -167.51011901535094, -179.5133279231377, 0.1600000075995922, 0.11200000531971455, 1.008000047877431, 0.0, 0.0, 0.0, 0.0, 0.0, 1.6518364910606608E9, 0.0, 2022-05-06 12:28:11.060
92.0, -276.73202727129683, -215.1957134003751, -228.72854139003903, -213.55389731982723, 0.1600000075995922, 0.11200000531971455, 1.008000047877431, 0.0, 0.0, 0.0, 0.0, 0.0, 1.6518364910766635E9, 0.0, 2022-05-06 12:28:11.076
92.0, -285.8648629630916, -179.96211591782048, -200.8027084209025, -210.90604815119877, 0.1600000075995922, 0.11200000531971455, 1.008000047877431, 0.0, 0.0, 0.0, 0.0, 0.0, 1.6518364910766635E9, 0.0, 2022-05-06 12:28:11.076
93.0, -219.4143205503933, -78.51358971977606, -118.47629069630057, -157.21230448735878, 0.1600000075995922, 0.11200000531971455, 1.008000047877431, 0.0, 0.0, 0.0, 0.0, 0.0, 1.651836491077555E9, 0.0, 2022-05-06 12:28:11.077
93.0, -215.3079103990458, -126.20105405477807, -160.333251000382, -170.44781043054536, 0.1600000075995922, 0.11200000531971455, 1.008000047877431, 0.0, 0.0, 0.0, 0.0, 0.0, 1.651836491077555E9, 0.0, 2022-05-06 12:28:11.077
94.0, -279.6790684363805, -212.59274303121492, -222.65120396204293, -200.13513627881184, 0.1600000075995922, 0.11200000531971455, 1.008000047877431, 0.0, 0.0, 0.0, 0.0, 0.0, 1.6518364910906484E9, 0.0, 2022-05-06 12:28:11.090
94.0, -281.10023041954264, -169.22486314503476, -186.7967830868438, -192.53565956884995, 0.1600000075995922, 0.11200000531971455, 1.008000047877431, 0.0, 0.0, 0.0, 0.0, 0.0, 1.6518364910906484E9, 0.0, 2022-05-06 12:28:11.090
95.0, -216.1905267885886, -74.8297882634215, -107.0508963316679, -141.07837607851252, 0.1600000075995922, 0.11200000531971455, 1.008000047877431, 0.0, 0.0, 0.0, 0.0, 0.0, 1.6518364911066213E9, 0.0, 2022-05-06 12:28:11.106
95.0, -217.9333201679401, -114.61484399205074, -146.64895706251264, -141.9011540687643, 0.1600000075995922, 0.11200000531971455, 1.008000047877431, 0.0, 0.0, 0.0, 0.0, 0.0, 1.6518364911066213E9, 0.0, 2022-05-06 12:28:11.106
96.0, -268.395790270064, -205.34481691708788, -221.56663297489285, -185.74400124931708, 0.1600000075995922, 0.11200000531971455, 1.008000047877431, 0.0, 0.0, 0.0, 0.0, 0.0, 1.6518364911077197E9, 0.0, 2022-05-06 12:28:11.107
96.0, -271.12217733776197, -166.23294318048283, -186.25823749322444, -203.18315474269912, 0.1600000075995922, 0.11200000531971455, 1.008000047877431, 0.0, 0.0, 0.0, 0.0, 0.0, 1.6518364911077197E9, 0.0, 2022-05-06 12:28:11.107
97.0, -227.42892615543678, -79.22417071135715, -123.77946883346885, -156.39700629701838, 0.1600000075995922, 0.11200000531971455, 1.008000047877431, 0.0, 0.0, 0.0, 0.0, 0.0, 1.6518364911206412E9, 0.0, 2022-05-06 12:28:11.120
97.0, -231.17256601108238, -137.7872641175054, -167.3418235173449, -180.74375500855967, 0.1600000075995922, 0.11200000531971455, 1.008000047877431, 0.0, 0.0, 0.0, 0.0, 0.0, 1.6518364911206412E9, 0.0, 2022-05-06 12:28:11.120
98.0, -280.50558632658795, -213.10510932514444, -225.42994962912053, -200.1912347781472, 0.1600000075995922, 0.11200000531971455, 1.008000047877431, 0.0, 0.0, 0.0, 0.0, 0.0, 1.6518364911366034E9, 0.0, 2022-05-06 12:28:11.136
98.0, -276.9339818689041, -168.15525175770745, -189.4969908548519, -195.49018053384498, 0.1600000075995922, 0.11200000531971455, 1.008000047877431, 0.0, 0.0, 0.0, 0.0, 0.0, 1.6518364911366034E9, 0.0, 2022-05-06 12:28:11.136
99.0, -233.6072408822365, -86.93584441998973, -130.507548853755, -175.55651377001777, 0.1600000075995922, 0.11200000531971455, 1.008000047877431, 0.0, 0.0, 0.0, 0.0, 0.0, 1.6518364911376488E9, 0.0, 2022-05-06 12:28:11.137
99.0, -232.3842935967259, -131.47431299230084, -165.31105784140527, -173.95957648893818, 0.1600000075995922, 0.11200000531971455, 1.008000047877431, 0.0, 0.0, 0.0, 0.0, 0.0, 1.6518364911376488E9, 0.0, 2022-05-06 12:28:11.137
100.0, -282.1997610065155, -216.31394348712638, -229.82433207705617, -203.4150285399519, 0.1600000075995922, 0.11200000531971455, 1.008000047877431, 0.0, 0.0, 0.0, 0.0, 0.0, 1.651836491151632E9, 0.0, 2022-05-06 12:28:11.151
100.0, -297.21545932861045, -189.12487080926076, -209.1763444216922, -220.61108853621408, 0.1600000075995922, 0.11200000531971455, 1.008000047877431, 0.0, 0.0, 0.0, 0.0, 0.0, 1.651836491151632E9, 0.0, 2022-05-06 12:28:11.151
0.0, -230.28433977160603, -84.27303565153852, -130.70576355140656, -164.16290855500847, 0.1600000075995922, 0.11200000531971455, 1.008000047877431, 0.0, 0.0, 0.0, 0.0, 0.0, 1.6518364911526256E9, 0.0, 2022-05-06 12:28:11.152
1.0, -234.04293922707438, -132.32701018219814, -169.96349338628352, -172.51410515606403, 0.1600000075995922, 0.11200000531971455, 1.008000047877431, 0.0, 0.0, 0.0, 0.0, 0.0, 1.6518364911656032E9, 0.0, 2022-05-06 12:28:11.165
1.0, -272.6798456693068, -209.58212356688455, -228.78089998941869, -201.8685799082741, 0.1600000075995922, 0.11200000531971455, 1.008000047877431, 0.0, 0.0, 0.0, 0.0, 0.0, 1.6518364911656032E9, 0.0, 2022-05-06 12:28:11.165
2.0, -284.77842202596366, -175.48919557081535, -196.430765372701, -200.48107702471316, 0.1600000075995922, 0.11200000531971455, 1.008000047877431, 0.0, 0.0, 0.0, 0.0, 0.0, 1.6518364911976788E9, 0.0, 2022-05-06 12:28:11.197
2.0, -233.59789113234729, -80.4620775966905, -121.74870315752923, -158.86347031779587, 0.1600000075995922, 0.11200000531971455, 1.008000047877431, 0.0, 0.0, 0.0, 0.0, 0.0, 1.6518364911976788E9, 0.0, 2022-05-06 12:28:11.197
3.0, -225.69174262601882, -127.44270084006712, -159.83584430627525, -160.598783897236, 0.1600000075995922, 0.11200000531971455, 1.008000047877431, 0.0, 0.0, 0.0, 0.0, 0.0, 1.6518364911985693E9, 0.0, 2022-05-06 12:28:11.198
3.0, -284.37077293079346, -211.08930324902758, -220.6578372856602, -198.71584424562752, 0.1600000075995922, 0.11200000531971455, 1.008000047877431, 0.0, 0.0, 0.0, 0.0, 0.0, 1.6518364911985693E9, 0.0, 2022-05-06 12:28:11.198
4.0, -272.63122696988285, -167.27263536816463, -187.8701343741268, -187.48492467869073, 0.1600000075995922, 0.11200000531971455, 1.008000047877431, 0.0, 0.0, 0.0, 0.0, 0.0, 1.6518364911996348E9, 0.0, 2022-05-06 12:28:11.199
4.0, -227.84218510054052, -78.92123881494626, -120.28640227485448, -155.26568656042218, 0.1600000075995922, 0.11200000531971455, 1.008000047877431, 0.0, 0.0, 0.0, 0.0, 0.0, 1.6518364911996348E9, 0.0, 2022-05-06 12:28:11.199
5.0, -228.2573139956221, -126.26089245406911, -151.56318560428917, -145.53072697576135, 0.1600000075995922, 0.11200000531971455, 1.008000047877431, 0.0, 0.0, 0.0, 0.0, 0.0, 1.6518364912006423E9, 0.0, 2022-05-06 12:28:11.200
5.0, -281.96601725928485, -215.6781604946591, -230.7406075662002, -207.78510163817555, 0.1600000075995922, 0.11200000531971455, 1.008000047877431, 0.0, 0.0, 0.0, 0.0, 0.0, 1.6518364912006423E9, 0.0, 2022-05-06 12:28:11.200
6.0, -280.8702265722677, -167.3249939675443, -193.30046910978854, -201.34873381443322, 0.1600000075995922, 0.11200000531971455, 1.008000047877431, 0.0, 0.0, 0.0, 0.0, 0.0, 1.6518364912106354E9, 0.0, 2022-05-06 12:28:11.210
6.0, -223.67967644985765, -80.39849929744378, -129.18736416939646, -170.70399357751012, 0.1600000075995922, 0.11200000531971455, 1.008000047877431, 0.0, 0.0, 0.0, 0.0, 0.0, 1.6518364912106354E9, 0.0, 2022-05-06 12:28:11.210
7.0, -229.2970061833039, -129.75395901268348, -161.12984969094396, -165.64764883741736, 0.1600000075995922, 0.11200000531971455, 1.008000047877431, 0.0, 0.0, 0.0, 0.0, 0.0, 1.6518364912255976E9, 0.0, 2022-05-06 12:28:11.225
7.0, -294.15435121487826, -224.59408198902383, -230.06368567422032, -198.311935050413, 0.1600000075995922, 0.11200000531971455, 1.008000047877431, 0.0, 0.0, 0.0, 0.0, 0.0, 1.6518364912255976E9, 0.0, 2022-05-06 12:28:11.225
8.0, -284.85695992503315, -177.55362034635618, -197.92672535497695, -204.25837597995996, 0.1600000075995922, 0.11200000531971455, 1.008000047877431, 0.0, 0.0, 0.0, 0.0, 0.0, 1.6518364912576292E9, 0.0, 2022-05-06 12:28:11.257
8.0, -223.2159288553521, -81.19883788796142, -126.73772969841957, -158.4109424231574, 0.1600000075995922, 0.11200000531971455, 1.008000047877431, 0.0, 0.0, 0.0, 0.0, 0.0, 1.6518364912576292E9, 0.0, 2022-05-06 12:28:11.257
9.0, -246.96055367402732, -142.978245256003, -178.54656378459185, -183.61412822455168, 0.1600000075995922, 0.11200000531971455, 1.008000047877431, 0.0, 0.0, 0.0, 0.0, 0.0, 1.65183649125859E9, 0.0, 2022-05-06 12:28:11.258
9.0, -285.70965711493045, -212.58526323130354, -225.60946482699364, -203.9479642836377, 0.1600000075995922, 0.11200000531971455, 1.008000047877431, 0.0, 0.0, 0.0, 0.0, 0.0, 1.65183649125859E9, 0.0, 2022-05-06 12:28:11.258
10.0, -287.994735987857, -170.84797972580418, -188.49095776677132, -190.25619054585695, 0.1600000075995922, 0.11200000531971455, 1.008000047877431, 0.0, 0.0, 0.0, 0.0, 0.0, 1.6518364912595794E9, 0.0, 2022-05-06 12:28:11.259
10.0, -224.89514393545687, -83.2408232637681, -125.14827221725136, -160.34447070024908, 0.1600000075995922, 0.11200000531971455, 1.008000047877431, 0.0, 0.0, 0.0, 0.0, 0.0, 1.6518364912595794E9, 0.0, 2022-05-06 12:28:11.259
11.0, -231.04727936256677, -126.9677335456945, -160.3706499999389, -167.1211694199592, 0.1600000075995922, 0.11200000531971455, 1.008000047877431, 0.0, 0.0, 0.0, 0.0, 0.0, 1.651836491260578E9, 0.0, 2022-05-06 12:28:11.260
11.0, -274.03368945326656, -210.44604045664892, -224.67074993811548, -193.7268177047372, 0.1600000075995922, 0.11200000531971455, 1.008000047877431, 0.0, 0.0, 0.0, 0.0, 0.0, 1.651836491260578E9, 0.0, 2022-05-06 12:28:11.260
12.0, -278.9441780950874, -166.0272486829199, -181.89003434497863, -183.25509782880545, 0.1600000075995922, 0.11200000531971455, 1.008000047877431, 0.0, 0.0, 0.0, 0.0, 0.0, 1.6518364912706568E9, 0.0, 2022-05-06 12:28:11.270
12.0, -237.23681378923357, -86.5805539241992, -137.55726027023047, -163.97217365726829, 0.1600000075995922, 0.11200000531971455, 1.008000047877431, 0.0, 0.0, 0.0, 0.0, 0.0, 1.6518364912706568E9, 0.0, 2022-05-06 12:28:11.270
13.0, -246.51550557930022, -145.03519023163244, -183.44583272654563, -186.5349900899455, 0.1600000075995922, 0.11200000531971455, 1.008000047877431, 0.0, 0.0, 0.0, 0.0, 0.0, 1.6518364912856228E9, 0.0, 2022-05-06 12:28:11.285
13.0, -288.211650185287, -222.03973031928763, -231.9598149517551, -214.75253525562584, 0.1600000075995922, 0.11200000531971455, 1.008000047877431, 0.0, 0.0, 0.0, 0.0, 0.0, 1.6518364912856228E9, 0.0, 2022-05-06 12:28:11.285
14.0, -275.6455863341689, -166.52839527698234, -189.35487465653569, -192.89282001461834, 0.1600000075995922, 0.11200000531971455, 1.008000047877431, 0.0, 0.0, 0.0, 0.0, 0.0, 1.6518364913176205E9, 0.0, 2022-05-06 12:28:11.317
14.0, -222.49038826394826, -76.3145285458304, -118.25563659891486, -152.46450149361044, 0.1600000075995922, 0.11200000531971455, 1.008000047877431, 0.0, 0.0, 0.0, 0.0, 0.0, 1.6518364913176205E9, 0.0, 2022-05-06 12:28:11.317
15.0, -225.2504344312474, -125.8195842592977, -154.83933796547353, -143.68321639765054, 0.1600000075995922, 0.11200000531971455, 1.008000047877431, 0.0, 0.0, 0.0, 0.0, 0.0, 1.6518364913185537E9, 0.0, 2022-05-06 12:28:11.318
15.0, -281.70422426238656, -207.88046908704564, -227.09794500935823, -213.86991886608303, 0.1600000075995922, 0.11200000531971455, 1.008000047877431, 0.0, 0.0, 0.0, 0.0, 0.0, 1.6518364913185537E9, 0.0, 2022-05-06 12:28:11.318
16.0, -285.33940701931715, -167.63540566386655, -188.28152336925268, -198.89535944350064, 0.1600000075995922, 0.11200000531971455, 1.008000047877431, 0.0, 0.0, 0.0, 0.0, 0.0, 1.6518364913195841E9, 0.0, 2022-05-06 12:28:11.319
16.0, -217.4789223233238, -76.13501334795728, -126.76016909815371, -162.27051917742938, 0.1600000075995922, 0.11200000531971455, 1.008000047877431, 0.0, 0.0, 0.0, 0.0, 0.0, 1.6518364913195841E9, 0.0, 2022-05-06 12:28:11.319
17.0, -219.53960719890893, -128.87134262314066, -157.5545053333044, -155.65463615581393, 0.1600000075995922, 0.11200000531971455, 1.008000047877431, 0.0, 0.0, 0.0, 0.0, 0.0, 1.6518364913205662E9, 0.0, 2022-05-06 12:28:11.320
17.0, -284.86069982498884, -214.9376603034325, -222.18745636753738, -199.6545591345057, 0.1600000075995922, 0.11200000531971455, 1.008000047877431, 0.0, 0.0, 0.0, 0.0, 0.0, 1.6518364913205662E9, 0.0, 2022-05-06 12:28:11.320
18.0, -284.02670213487, -172.12702551065013, -194.93480539042503, -204.1312193814665, 0.1600000075995922, 0.11200000531971455, 1.008000047877431, 0.0, 0.0, 0.0, 0.0, 0.0, 1.6518364913306465E9, 0.0, 2022-05-06 12:28:11.330
18.0, -233.2986991358921, -86.19160432880744, -129.1013464704156, -166.2647323301062, 0.1600000075995922, 0.11200000531971455, 1.008000047877431, 0.0, 0.0, 0.0, 0.0, 0.0, 1.6518364913306465E9, 0.0, 2022-05-06 12:28:11.330
19.0, -239.78742555901408, -139.14484780142084, -170.31130408216268, -176.55319710820913, 0.1600000075995922, 0.11200000531971455, 1.008000047877431, 0.0, 0.0, 0.0, 0.0, 0.0, 1.6518364913456466E9, 0.0, 2022-05-06 12:28:11.345
19.0, -285.0626544225961, -215.43506699753925, -228.7435009898618, -197.11890696454793, 0.1600000075995922, 0.11200000531971455, 1.008000047877431, 0.0, 0.0, 0.0, 0.0, 0.0, 1.6518364913456466E9, 0.0, 2022-05-06 12:28:11.345
20.0, -277.9456248069182, -160.77642914513126, -182.10320864245296, -183.67396662384272, 0.1600000075995922, 0.11200000531971455, 1.008000047877431, 0.0, 0.0, 0.0, 0.0, 0.0, 1.651836491361673E9, 0.0, 2022-05-06 12:28:11.361
20.0, -227.69258910231292, -88.76091559836641, -132.44481703080237, -166.82571732345968, 0.1600000075995922, 0.11200000531971455, 1.008000047877431, 0.0, 0.0, 0.0, 0.0, 0.0, 1.651836491361673E9, 0.0, 2022-05-06 12:28:11.361
21.0, -240.05669835582376, -142.39482086291537, -171.05554417334497, -176.46343950927258, 0.1600000075995922, 0.11200000531971455, 1.008000047877431, 0.0, 0.0, 0.0, 0.0, 0.0, 1.6518364913625665E9, 0.0, 2022-05-06 12:28:11.362
21.0, -274.7891492443159, -209.80277766427025, -224.93254293501377, -202.5043629007414, 0.1600000075995922, 0.11200000531971455, 1.008000047877431, 0.0, 0.0, 0.0, 0.0, 0.0, 1.6518364913625665E9, 0.0, 2022-05-06 12:28:11.362
22.0, -271.7560903802514, -154.08574812440202, -183.01948413159698, -193.7193379048258, 0.1600000075995922, 0.11200000531971455, 1.008000047877431, 0.0, 0.0, 0.0, 0.0, 0.0, 1.6518364913756227E9, 0.0, 2022-05-06 12:28:11.375
22.0, -223.29820665437728, -80.67525189416483, -122.62757964711636, -157.88361652940512, 0.1600000075995922, 0.11200000531971455, 1.008000047877431, 0.0, 0.0, 0.0, 0.0, 0.0, 1.6518364913756227E9, 0.0, 2022-05-06 12:28:11.375
23.0, -235.28084611240774, -132.8917350755073, -162.93996126949787, -170.40854148101062, 0.1600000075995922, 0.11200000531971455, 1.008000047877431, 0.0, 0.0, 0.0, 0.0, 0.0, 1.6518364913916051E9, 0.0, 2022-05-06 12:28:11.391
23.0, -282.8299341490492, -222.57827591290697, -231.57834515627474, -207.1006999462843, 0.1600000075995922, 0.11200000531971455, 1.008000047877431, 0.0, 0.0, 0.0, 0.0, 0.0, 1.6518364913916051E9, 0.0, 2022-05-06 12:28:11.391
24.0, -277.08170791715384, -154.725271016825, -180.21829906478524, -191.66613282915205, 0.1600000075995922, 0.11200000531971455, 1.008000047877431, 0.0, 0.0, 0.0, 0.0, 0.0, 1.65183649139258E9, 0.0, 2022-05-06 12:28:11.392
24.0, -221.87330477125943, -73.84993447503075, -117.56001520715654, -148.08507864549756, 0.1600000075995922, 0.11200000531971455, 1.008000047877431, 0.0, 0.0, 0.0, 0.0, 0.0, 1.65183649139258E9, 0.0, 2022-05-06 12:28:11.392
25.0, -226.93712931126356, -133.91272776341066, -170.0083721857518, -174.36909553408623, 0.1600000075995922, 0.11200000531971455, 1.008000047877431, 0.0, 0.0, 0.0, 0.0, 0.0, 1.6518364914056823E9, 0.0, 2022-05-06 12:28:11.405
25.0, -289.2887413725257, -223.87976109748706, -232.05705235060304, -207.53078844118863, 0.1600000075995922, 0.11200000531971455, 1.008000047877431, 0.0, 0.0, 0.0, 0.0, 0.0, 1.6518364914056823E9, 0.0, 2022-05-06 12:28:11.405
26.0, -284.2548360321671, -163.44671771349385, -188.77145026344806, -198.13989965245128, 0.1600000075995922, 0.11200000531971455, 1.008000047877431, 0.0, 0.0, 0.0, 0.0, 0.0, 1.6518364914216216E9, 0.0, 2022-05-06 12:28:11.421
26.0, -220.38856448885053, -76.75583674060181, -122.18627145234495, -160.31081160064787, 0.1600000075995922, 0.11200000531971455, 1.008000047877431, 0.0, 0.0, 0.0, 0.0, 0.0, 1.6518364914216216E9, 0.0, 2022-05-06 12:28:11.421
27.0, -231.1482566613704, -141.4598458739929, -168.5236319033429, -175.7079797182232, 0.1600000075995922, 0.11200000531971455, 1.008000047877431, 0.0, 0.0, 0.0, 0.0, 0.0, 1.6518364914225855E9, 0.0, 2022-05-06 12:28:11.422
27.0, -295.67275059688836, -226.40419356757775, -231.3315117591992, -210.33197350800037, 0.1600000075995922, 0.11200000531971455, 1.008000047877431, 0.0, 0.0, 0.0, 0.0, 0.0, 1.6518364914225855E9, 0.0, 2022-05-06 12:28:11.422
28.0, -267.9451323254034, -155.65650610579178, -180.3828546628356, -188.72657146397978, 0.1600000075995922, 0.11200000531971455, 1.008000047877431, 0.0, 0.0, 0.0, 0.0, 0.0, 1.6518364914356484E9, 0.0, 2022-05-06 12:28:11.435
28.0, -218.96366260573268, -76.87925343913957, -128.8732125731185, -151.38741030637175, 0.1600000075995922, 0.11200000531971455, 1.008000047877431, 0.0, 0.0, 0.0, 0.0, 0.0, 1.6518364914356484E9, 0.0, 2022-05-06 12:28:11.435
29.0, -249.25685224682093, -140.39771428657696, -172.12515556067228, -178.65876078326255, 0.1600000075995922, 0.11200000531971455, 1.008000047877431, 0.0, 0.0, 0.0, 0.0, 0.0, 1.6518364914516156E9, 0.0, 2022-05-06 12:28:11.451
29.0, -286.3603997072205, -218.62894155969843, -226.86607121210545, -212.31412048451602, 0.1600000075995922, 0.11200000531971455, 1.008000047877431, 0.0, 0.0, 0.0, 0.0, 0.0, 1.6518364914516156E9, 0.0, 2022-05-06 12:28:11.451
30.0, -281.30405496712774, -161.84230063250288, -180.70074615906924, -189.79992275126278, 0.1600000075995922, 0.11200000531971455, 1.008000047877431, 0.0, 0.0, 0.0, 0.0, 0.0, 1.6518364914525504E9, 0.0, 2022-05-06 12:28:11.452
30.0, -221.09166568052024, -78.46871092030779, -122.63879934698343, -156.31285854801536, 0.1600000075995922, 0.11200000531971455, 1.008000047877431, 0.0, 0.0, 0.0, 0.0, 0.0, 1.6518364914525504E9, 0.0, 2022-05-06 12:28:11.452
31.0, -241.32452444080263, -144.33956883987412, -181.44124635029584, -177.2375988001004, 0.1600000075995922, 0.11200000531971455, 1.008000047877431, 0.0, 0.0, 0.0, 0.0, 0.0, 1.6518364914816053E9, 0.0, 2022-05-06 12:28:11.481
31.0, -282.33252745494246, -221.16833362961188, -230.80418586544693, -210.67604430392385, 0.1600000075995922, 0.11200000531971455, 1.008000047877431, 0.0, 0.0, 0.0, 0.0, 0.0, 1.6518364914816053E9, 0.0, 2022-05-06 12:28:11.481
32.0, -274.11596725229174, -160.1294264527969, -182.58565573673695, -194.19804509915411, 0.1600000075995922, 0.11200000531971455, 1.008000047877431, 0.0, 0.0, 0.0, 0.0, 0.0, 1.65183649148254E9, 0.0, 2022-05-06 12:28:11.482
32.0, -216.4766291351989, -69.84824152244255, -119.69175818189979, -151.97083469945937, 0.1600000075995922, 0.11200000531971455, 1.008000047877431, 0.0, 0.0, 0.0, 0.0, 0.0, 1.65183649148254E9, 0.0, 2022-05-06 12:28:11.482
33.0, -229.08009198587388, -129.8998151109554, -163.27655226550996, -164.675274848938, 0.1600000075995922, 0.11200000531971455, 1.008000047877431, 0.0, 0.0, 0.0, 0.0, 0.0, 1.6518364914835663E9, 0.0, 2022-05-06 12:28:11.483
33.0, -272.3245551735163, -209.1557749719359, -220.61669838614762, -193.8651940030977, 0.1600000075995922, 0.11200000531971455, 1.008000047877431, 0.0, 0.0, 0.0, 0.0, 0.0, 1.6518364914835663E9, 0.0, 2022-05-06 12:28:11.483
34.0, -270.4172061961144, -155.77618290437385, -176.5644168080762, -187.6083413772285, 0.1600000075995922, 0.11200000531971455, 1.008000047877431, 0.0, 0.0, 0.0, 0.0, 0.0, 1.6518364915116007E9, 0.0, 2022-05-06 12:28:11.511
34.0, -225.89743712358177, -74.43709876807407, -117.97140420228243, -148.57500553969294, 0.1600000075995922, 0.11200000531971455, 1.008000047877431, 0.0, 0.0, 0.0, 0.0, 0.0, 1.6518364915116007E9, 0.0, 2022-05-06 12:28:11.511
35.0, -237.5995840849355, -138.07149651413783, -173.26208514720201, -164.92210824601352, 0.1600000075995922, 0.11200000531971455, 1.008000047877431, 0.0, 0.0, 0.0, 0.0, 0.0, 1.6518364915125604E9, 0.0, 2022-05-06 12:28:11.512
35.0, -275.18557863961905, -214.50383190857247, -224.6296110386029, -195.1255402881652, 0.1600000075995922, 0.11200000531971455, 1.008000047877431, 0.0, 0.0, 0.0, 0.0, 0.0, 1.6518364915125604E9, 0.0, 2022-05-06 12:28:11.512
36.0, -275.11078064050525, -160.0995072531514, -183.50941102579236, -201.34125401452184, 0.1600000075995922, 0.11200000531971455, 1.008000047877431, 0.0, 0.0, 0.0, 0.0, 0.0, 1.6518364915136344E9, 0.0, 2022-05-06 12:28:11.513
36.0, -218.52609431091696, -75.85452085128054, -117.12618681229651, -156.12212365027517, 0.1600000075995922, 0.11200000531971455, 1.008000047877431, 0.0, 0.0, 0.0, 0.0, 0.0, 1.6518364915136344E9, 0.0, 2022-05-06 12:28:11.513
37.0, -235.27710621245205, -135.68918024236336, -169.09583659656346, -181.10091545432806, 0.1600000075995922, 0.11200000531971455, 1.008000047877431, 0.0, 0.0, 0.0, 0.0, 0.0, 1.651836491525633E9, 0.0, 2022-05-06 12:28:11.525
37.0, -273.8990530548617, -212.11029593693092, -225.882477523759, -199.5722813354805, 0.1600000075995922, 0.11200000531971455, 1.008000047877431, 0.0, 0.0, 0.0, 0.0, 0.0, 1.651836491525633E9, 0.0, 2022-05-06 12:28:11.525
38.0, -278.9516578949988, -158.12484007654712, -186.10864149499685, -195.5331893833354, 0.1600000075995922, 0.11200000531971455, 1.008000047877431, 0.0, 0.0, 0.0, 0.0, 0.0, 1.6518364915416303E9, 0.0, 2022-05-06 12:28:11.541
38.0, -232.8873101407662, -76.43046544445679, -125.48112331330776, -160.35569040011615, 0.1600000075995922, 0.11200000531971455, 1.008000047877431, 0.0, 0.0, 0.0, 0.0, 0.0, 1.6518364915416303E9, 0.0, 2022-05-06 12:28:11.541
39.0, -232.94714854005724, -135.8948747399263, -172.57020365539938, -171.4519735686481, 0.1600000075995922, 0.11200000531971455, 1.008000047877431, 0.0, 0.0, 0.0, 0.0, 0.0, 1.6518364915425932E9, 0.0, 2022-05-06 12:28:11.542
39.0, -278.5440087998286, -214.58610970759764, -231.0360596626997, -213.6567445686087, 0.1600000075995922, 0.11200000531971455, 1.008000047877431, 0.0, 0.0, 0.0, 0.0, 0.0, 1.6518364915425932E9, 0.0, 2022-05-06 12:28:11.542
40.0, -275.40623273700476, -160.33512095035985, -184.4219466149807, -201.47215051297098, 0.1600000075995922, 0.11200000531971455, 1.0240000486373901, 0.0, 0.0, 0.0, 0.0, 0.0, 1.6518364915556855E9, 0.0, 2022-05-06 12:28:11.555
40.0, -228.78089998941869, -82.92667166749015, -126.0982068059966, -162.32287777680904, 0.1600000075995922, 0.11200000531971455, 1.0240000486373901, 0.0, 0.0, 0.0, 0.0, 0.0, 1.6518364915556855E9, 0.0, 2022-05-06 12:28:11.555
41.0, -231.30159255955368, -141.7141590709798, -170.50203897990286, -170.58057687897235, 0.1600000075995922, 0.11200000531971455, 1.0240000486373901, 0.0, 0.0, 0.0, 0.0, 0.0, 1.6518364915716162E9, 0.0, 2022-05-06 12:28:11.571
41.0, -278.29717540275306, -211.35483614588156, -225.8151593245566, -195.00212358962744, 0.1600000075995922, 0.11200000531971455, 1.0240000486373901, 0.0, 0.0, 0.0, 0.0, 0.0, 1.6518364915716162E9, 0.0, 2022-05-06 12:28:11.571
42.0, -274.73679064493626, -155.26007671048865, -182.69411283545196, -197.63875305838883, 0.1600000075995922, 0.11200000531971455, 1.0240000486373901, 0.0, 0.0, 0.0, 0.0, 0.0, 1.651836491572554E9, 0.0, 2022-05-06 12:28:11.572
42.0, -214.62911855708808, -74.25010377028957, -115.28989593405277, -146.7723737610504, 0.1600000075995922, 0.11200000531971455, 1.0240000486373901, 0.0, 0.0, 0.0, 0.0, 0.0, 1.651836491572554E9, 0.0, 2022-05-06 12:28:11.572
43.0, -223.67593654990196, -130.46080010430887, -158.4109424231574, -154.21103477291763, 0.1600000075995922, 0.11200000531971455, 1.0240000486373901, 0.0, 0.0, 0.0, 0.0, 0.0, 1.6518364915856116E9, 0.0, 2022-05-06 12:28:11.585
43.0, -274.5797148467973, -211.87468223972246, -221.93314317055047, -199.45634443685412, 0.1600000075995922, 0.11200000531971455, 1.0240000486373901, 0.0, 0.0, 0.0, 0.0, 0.0, 1.6518364915856116E9, 0.0, 2022-05-06 12:28:11.585
44.0, -270.08061520010233, -155.2039782111533, -175.3377296226099, -191.72971112839878, 0.1600000075995922, 0.11200000531971455, 1.0240000486373901, 0.0, 0.0, 0.0, 0.0, 0.0, 1.6518364916016676E9, 0.0, 2022-05-06 12:28:11.601
44.0, -217.92397041805089, -74.7213311647065, -118.65580589417368, -154.4092494705692, 0.1600000075995922, 0.11200000531971455, 1.0240000486373901, 0.0, 0.0, 0.0, 0.0, 0.0, 1.6518364916016676E9, 0.0, 2022-05-06 12:28:11.601
45.0, -226.26768721919507, -135.79389744112268, -165.2998381415382, -164.58551725000143, 0.1600000075995922, 0.11200000531971455, 1.0240000486373901, 0.0, 0.0, 0.0, 0.0, 0.0, 1.651836491602531E9, 0.0, 2022-05-06 12:28:11.602
45.0, -270.7874562917277, -211.92330093914643, -217.35176572483033, -179.9789454676211, 0.1600000075995922, 0.11200000531971455, 1.0240000486373901, 0.0, 0.0, 0.0, 0.0, 0.0, 1.651836491602531E9, 0.0, 2022-05-06 12:28:11.602
46.0, -252.51056520827115, -144.2311117411591, -175.81269691698253, -184.69869921170175, 0.1600000075995922, 0.11200000531971455, 1.0240000486373901, 0.0, 0.0, 0.0, 0.0, 0.0, 1.6518364916156952E9, 0.0, 2022-05-06 12:28:11.615
46.0, -212.29916088469326, -80.63037309469655, -119.1681721881032, -158.57923792116344, 0.1600000075995922, 0.11200000531971455, 1.0240000486373901, 0.0, 0.0, 0.0, 0.0, 0.0, 1.6518364916156952E9, 0.0, 2022-05-06 12:28:11.615
47.0, -238.35504387598485, -132.92165427515283, -162.09848377946764, -166.13383583165705, 0.1600000075995922, 0.11200000531971455, 1.0240000486373901, 0.0, 0.0, 0.0, 0.0, 0.0, 1.65183649163167E9, 0.0, 2022-05-06 12:28:11.631
47.0, -270.4246859960258, -215.2742512994446, -227.63275070302188, -207.58688694052398, 0.1600000075995922, 0.11200000531971455, 1.0240000486373901, 0.0, 0.0, 0.0, 0.0, 0.0, 1.65183649163167E9, 0.0, 2022-05-06 12:28:11.631
48.0, -268.3789607202634, -149.88210057420656, -171.4145745690912, -181.0448169549927, 0.1600000075995922, 0.11200000531971455, 1.0240000486373901, 0.0, 0.0, 0.0, 0.0, 0.0, 1.6518364916326132E9, 0.0, 2022-05-06 12:28:11.632
48.0, -215.65011124499142, -69.65002682479098, -114.44841844402254, -143.87021139543504, 0.1600000075995922, 0.11200000531971455, 1.0240000486373901, 0.0, 0.0, 0.0, 0.0, 0.0, 1.6518364916326132E9, 0.0, 2022-05-06 12:28:11.632
49.0, -228.9604151872918, -139.13736800150946, -171.79230446461588, -181.81149644590914, 0.1600000075995922, 0.11200000531971455, 1.0240000486373901, 0.0, 0.0, 0.0, 0.0, 0.0, 1.6518364916456304E9, 0.0, 2022-05-06 12:28:11.645
49.0, -271.9356055781245, -219.10016895411536, -228.21243519615382, -206.464916953817, 0.1600000075995922, 0.11200000531971455, 1.0240000486373901, 0.0, 0.0, 0.0, 0.0, 0.0, 1.6518364916456304E9, 0.0, 2022-05-06 12:28:11.645
50.0, -260.9029007088393, -156.015536501538, -181.25051145255566, -194.48227749578655, 0.1600000075995922, 0.11200000531971455, 1.0240000486373901, 0.0, 0.0, 0.0, 0.0, 0.0, 1.6518364916616452E9, 0.0, 2022-05-06 12:28:11.661
50.0, -231.06223896238953, -81.81592138065025, -130.5112887537107, -167.1174295200035, 0.1600000075995922, 0.11200000531971455, 1.0240000486373901, 0.0, 0.0, 0.0, 0.0, 0.0, 1.6518364916616452E9, 0.0, 2022-05-06 12:28:11.661
51.0, -228.56024589203298, -135.31519024679437, -168.56851070281118, -167.72329331282526, 0.1600000075995922, 0.11200000531971455, 1.0240000486373901, 0.0, 0.0, 0.0, 0.0, 0.0, 1.651836491662619E9, 0.0, 2022-05-06 12:28:11.662
51.0, -271.2100649867207, -206.77345870016143, -220.30628668982536, -195.2078180871904, 0.1600000075995922, 0.11200000531971455, 1.0240000486373901, 0.0, 0.0, 0.0, 0.0, 0.0, 1.651836491662619E9, 0.0, 2022-05-06 12:28:11.662
52.0, -257.2340588523075, -139.32436299929395, -164.17038835491985, -179.58251607231796, 0.1600000075995922, 0.11200000531971455, 1.0240000486373901, 0.0, 0.0, 0.0, 0.0, 0.0, 1.6518364916756034E9, 0.0, 2022-05-06 12:28:11.675
52.0, -215.76230824366212, -69.79962282301858, -116.32584822177887, -156.9598612403497, 0.1600000075995922, 0.11200000531971455, 1.0240000486373901, 0.0, 0.0, 0.0, 0.0, 0.0, 1.6518364916756034E9, 0.0, 2022-05-06 12:28:11.675
53.0, -221.90696387086064, -134.03988436190411, -159.76104630716145, -159.71616750769317, 0.1600000075995922, 0.11200000531971455, 1.0240000486373901, 0.0, 0.0, 0.0, 0.0, 0.0, 1.65183649169165E9, 0.0, 2022-05-06 12:28:11.691
53.0, -273.1211538640782, -214.33553641056642, -221.14776417985559, -188.4610385671258, 0.1600000075995922, 0.11200000531971455, 1.0240000486373901, 0.0, 0.0, 0.0, 0.0, 0.0, 1.65183649169165E9, 0.0, 2022-05-06 12:28:11.691
54.0, -267.33552863262594, -156.9056326909922, -173.31070384662598, -166.73969962447882, 0.1600000075995922, 0.11200000531971455, 1.0240000486373901, 0.0, 0.0, 0.0, 0.0, 0.0, 1.6518364916925688E9, 0.0, 2022-05-06 12:28:11.692
54.0, -210.0627007111907, -65.74931117100641, -114.96078473795205, -149.67079622671008, 0.1600000075995922, 0.11200000531971455, 1.0240000486373901, 0.0, 0.0, 0.0, 0.0, 0.0, 1.6518364916925688E9, 0.0, 2022-05-06 12:28:11.692
55.0, -223.9601689465344, -137.9331202157773, -167.83923021145165, -173.10500934906304, 0.1600000075995922, 0.11200000531971455, 1.0240000486373901, 0.0, 0.0, 0.0, 0.0, 0.0, 1.651836491705628E9, 0.0, 2022-05-06 12:28:11.705
55.0, -284.55402802862227, -214.68708700640127, -229.7345744781196, -218.1745437150821, 0.1600000075995922, 0.11200000531971455, 1.0240000486373901, 0.0, 0.0, 0.0, 0.0, 0.0, 1.651836491705628E9, 0.0, 2022-05-06 12:28:11.705
56.0, -257.8212231453508, -150.65999976499006, -175.29659072309732, -192.02890312485397, 0.1600000075995922, 0.11200000531971455, 1.0240000486373901, 0.0, 0.0, 0.0, 0.0, 0.0, 1.6518364917216E9, 0.0, 2022-05-06 12:28:11.721
56.0, -199.04495544172823, -68.8272488345392, -113.07587516028434, -145.86357807181776, 0.1600000075995922, 0.11200000531971455, 1.0240000486373901, 0.0, 0.0, 0.0, 0.0, 0.0, 1.6518364917216E9, 0.0, 2022-05-06 12:28:11.721
57.0, -249.87767563946545, -144.77339723473415, -176.08944951370358, -174.29429753497243, 0.1600000075995922, 0.11200000531971455, 1.0240000486373901, 0.0, 0.0, 0.0, 0.0, 0.0, 1.6518364917225432E9, 0.0, 2022-05-06 12:28:11.722
57.0, -278.4729507006705, -213.8605691161938, -222.6287645623088, -208.0581143349409, 0.1600000075995922, 0.11200000531971455, 1.0240000486373901, 0.0, 0.0, 0.0, 0.0, 0.0, 1.6518364917225432E9, 0.0, 2022-05-06 12:28:11.722
58.0, -268.00497072469443, -148.66663308860734, -175.95107321534306, -191.38190043251961, 0.1600000075995922, 0.11200000531971455, 1.0240000486373901, 0.0, 0.0, 0.0, 0.0, 0.0, 1.6518364917516167E9, 0.0, 2022-05-06 12:28:11.751
58.0, -214.14667146280408, -72.41007299209014, -112.84026146307588, -146.97806825861335, 0.1600000075995922, 0.11200000531971455, 1.0240000486373901, 0.0, 0.0, 0.0, 0.0, 0.0, 1.6518364917516167E9, 0.0, 2022-05-06 12:28:11.751
59.0, -215.1714040506631, -129.05833762092516, -157.02717943955213, -151.28643300756812, 0.1600000075995922, 0.11200000531971455, 1.0240000486373901, 0.0, 0.0, 0.0, 0.0, 0.0, 1.6518364917526429E9, 0.0, 2022-05-06 12:28:11.752
59.0, -265.899407049641, -212.03549793781713, -225.11579803284258, -200.3576603261754, 0.1600000075995922, 0.11200000531971455, 1.0240000486373901, 0.0, 0.0, 0.0, 0.0, 0.0, 1.6518364917526429E9, 0.0, 2022-05-06 12:28:11.752
60.0, -267.3430084325373, -153.18069233512506, -175.18065382447094, -194.37382039707154, 0.1600000075995922, 0.11200000531971455, 1.0240000486373901, 0.0, 0.0, 0.0, 0.0, 0.0, 1.651836491753566E9, 0.0, 2022-05-06 12:28:11.753
60.0, -226.82867221254855, -84.47873014910147, -126.90228529646993, -159.16266231425107, 0.1600000075995922, 0.11200000531971455, 1.0240000486373901, 0.0, 0.0, 0.0, 0.0, 0.0, 1.651836491753566E9, 0.0, 2022-05-06 12:28:11.753
61.0, -241.95282763335854, -147.3464484042488, -169.11079619638622, -171.3435164699331, 0.1600000075995922, 0.11200000531971455, 1.0240000486373901, 0.0, 0.0, 0.0, 0.0, 0.0, 1.6518364917656293E9, 0.0, 2022-05-06 12:28:11.765
61.0, -288.0695339869708, -223.48707160213962, -232.20290844887495, -203.1289261933416, 0.1600000075995922, 0.11200000531971455, 1.0240000486373901, 0.0, 0.0, 0.0, 0.0, 0.0, 1.6518364917656293E9, 0.0, 2022-05-06 12:28:11.765
62.0, -270.7612769920379, -163.82444760901853, -188.12070767115802, -196.8384144678712, 0.1600000075995922, 0.11200000531971455, 1.0240000486373901, 0.0, 0.0, 0.0, 0.0, 0.0, 1.651836491781632E9, 0.0, 2022-05-06 12:28:11.781
62.0, -225.34767183009535, -94.64377822866663, -137.93873006571084, -175.65188121888787, 0.1600000075995922, 0.11200000531971455, 1.0240000486373901, 0.0, 0.0, 0.0, 0.0, 0.0, 1.651836491781632E9, 0.0, 2022-05-06 12:28:11.781
63.0, -228.32463219482452, -147.537183301989, -168.87144259922206, -176.9384068036452, 0.1600000075995922, 0.11200000531971455, 1.0240000486373901, 0.0, 0.0, 0.0, 0.0, 0.0, 1.6518364917825694E9, 0.0, 2022-05-06 12:28:11.782
63.0, -266.14250054676086, -210.92474765097722, -217.06005352828652, -191.3108423333615, 0.1600000075995922, 0.11200000531971455, 1.0240000486373901, 0.0, 0.0, 0.0, 0.0, 0.0, 1.6518364917825694E9, 0.0, 2022-05-06 12:28:11.782
64.0, -259.9791454197839, -139.22338570049033, -161.61977658513933, -176.6055557075888, 0.1600000075995922, 0.11200000531971455, 1.0240000486373901, 0.0, 0.0, 0.0, 0.0, 0.0, 1.651836491795708E9, 0.0, 2022-05-06 12:28:11.795
64.0, -200.6905114222318, -58.68464015470818, -100.73420530650765, -123.87670623231679, 0.1600000075995922, 0.11200000531971455, 1.0240000486373901, 0.0, 0.0, 0.0, 0.0, 0.0, 1.651836491795708E9, 0.0, 2022-05-06 12:28:11.795
65.0, -224.2219619434327, -134.4924122565426, -162.86516327038407, -171.7848246647045, 0.1600000075995922, 0.11200000531971455, 1.0240000486373901, 0.0, 0.0, 0.0, 0.0, 0.0, 1.6518364918116183E9, 0.0, 2022-05-06 12:28:11.811
65.0, -273.89531315490603, -211.94200043892488, -221.46565567608923, -207.71778343897313, 0.1600000075995922, 0.11200000531971455, 1.0240000486373901, 0.0, 0.0, 0.0, 0.0, 0.0, 1.6518364918116183E9, 0.0, 2022-05-06 12:28:11.811
66.0, -247.25600577052683, -140.0125045911409, -161.32432448863983, -174.84406282845885, 0.1600000075995922, 0.11200000531971455, 1.0240000486373901, 0.0, 0.0, 0.0, 0.0, 0.0, 1.6518364918125982E9, 0.0, 2022-05-06 12:28:11.812
66.0, -237.28543248865753, -82.56764127174392, -129.3182606678456, -167.70085391309112, 0.1600000075995922, 0.11200000531971455, 1.0240000486373901, 0.0, 0.0, 0.0, 0.0, 0.0, 1.6518364918125982E9, 0.0, 2022-05-06 12:28:11.812
67.0, -226.52948021609336, -143.63272774824873, -172.35328945796937, -175.10585582535714, 0.1600000075995922, 0.11200000531971455, 1.0240000486373901, 0.0, 0.0, 0.0, 0.0, 0.0, 1.6518364918256133E9, 0.0, 2022-05-06 12:28:11.825
67.0, -283.37595954257995, -217.03574417857453, -231.23427436035126, -211.05377419944853, 0.1600000075995922, 0.11200000531971455, 1.0240000486373901, 0.0, 0.0, 0.0, 0.0, 0.0, 1.6518364918256133E9, 0.0, 2022-05-06 12:28:11.825
68.0, -269.8599611027166, -148.89850688586012, -169.5296649914235, -191.77832982782274, 0.1600000075995922, 0.11200000531971455, 1.0240000486373901, 0.0, 0.0, 0.0, 0.0, 0.0, 1.6518364918416493E9, 0.0, 2022-05-06 12:28:11.841
68.0, -211.3641858957708, -74.11172747192904, -120.80624836869538, -156.7766061425209, 0.1600000075995922, 0.11200000531971455, 1.0240000486373901, 0.0, 0.0, 0.0, 0.0, 0.0, 1.6518364918416493E9, 0.0, 2022-05-06 12:28:11.841
69.0, -229.06513238605112, -142.91840685671195, -173.91656763944775, -176.16424751281738, 0.1600000075995922, 0.11200000531971455, 1.0240000486373901, 0.0, 0.0, 0.0, 0.0, 0.0, 1.651836491842538E9, 0.0, 2022-05-06 12:28:11.842
69.0, -277.44821811281145, -213.8194302166812, -223.38796425331384, -202.1303729051724, 0.1600000075995922, 0.11200000531971455, 1.0240000486373901, 0.0, 0.0, 0.0, 0.0, 0.0, 1.651836491842538E9, 0.0, 2022-05-06 12:28:11.842
70.0, -271.63641358166933, -156.28854919830337, -174.32421673461795, -182.33134253975004, 0.1600000075995922, 0.11200000531971455, 1.008000047877431, 0.0, 0.0, 0.0, 0.0, 0.0, 1.6518364918556404E9, 0.0, 2022-05-06 12:28:11.855
70.0, -217.7668946199119, -79.2391303111799, -128.19629068113863, -160.68480159621686, 0.1600000075995922, 0.11200000531971455, 1.008000047877431, 0.0, 0.0, 0.0, 0.0, 0.0, 1.6518364918556404E9, 0.0, 2022-05-06 12:28:11.855
71.0, -236.339237799868, -150.7946361633949, -174.8590224282816, -179.22722557652742, 0.1600000075995922, 0.11200000531971455, 1.008000047877431, 0.0, 0.0, 0.0, 0.0, 0.0, 1.651836491871604E9, 0.0, 2022-05-06 12:28:11.871
71.0, -279.74077678564936, -216.57573648402467, -233.8559442292899, -213.5108884703368, 0.1600000075995922, 0.11200000531971455, 1.008000047877431, 0.0, 0.0, 0.0, 0.0, 0.0, 1.651836491871604E9, 0.0, 2022-05-06 12:28:11.871
72.0, -261.62096150033176, -149.14908018289134, -172.39442835748196, -190.81343563925475, 0.1600000075995922, 0.11200000531971455, 1.008000047877431, 0.0, 0.0, 0.0, 0.0, 0.0, 1.651836491872566E9, 0.0, 2022-05-06 12:28:11.872
72.0, -213.77642136719078, -66.98347815638408, -110.42802599165589, -145.83739877212793, 0.1600000075995922, 0.11200000531971455, 1.008000047877431, 0.0, 0.0, 0.0, 0.0, 0.0, 1.651836491872566E9, 0.0, 2022-05-06 12:28:11.872
73.0, -232.73397424258292, -145.55503632547334, -167.9701267099008, -168.99485929775983, 0.1600000075995922, 0.11200000531971455, 1.008000047877431, 0.0, 0.0, 0.0, 0.0, 0.0, 1.651836491885706E9, 0.0, 2022-05-06 12:28:11.885
73.0, -269.89362020231783, -199.43203508714214, -214.05691386386752, -188.50591736659408, 0.1600000075995922, 0.11200000531971455, 1.008000047877431, 0.0, 0.0, 0.0, 0.0, 0.0, 1.651836491885706E9, 0.0, 2022-05-06 12:28:11.885
74.0, -253.4567598970607, -132.06521718529984, -161.91896858159453, -167.92524791043252, 0.1600000075995922, 0.11200000531971455, 1.008000047877431, 0.0, 0.0, 0.0, 0.0, 0.0, 1.6518364919016013E9, 0.0, 2022-05-06 12:28:11.901
74.0, -213.46226977091283, -75.75354355247691, -118.52116949576885, -150.52723331656307, 0.1600000075995922, 0.11200000531971455, 1.008000047877431, 0.0, 0.0, 0.0, 0.0, 0.0, 1.6518364919016013E9, 0.0, 2022-05-06 12:28:11.901
75.0, -224.87270453572273, -147.13701400673017, -171.81100396439433, -169.03225829731673, 0.1600000075995922, 0.11200000531971455, 1.008000047877431, 0.0, 0.0, 0.0, 0.0, 0.0, 1.6518364919025493E9, 0.0, 2022-05-06 12:28:11.902
75.0, -257.3873947504908, -199.0056864921935, -220.04823359288275, -205.48506316542625, 0.1600000075995922, 0.11200000531971455, 1.008000047877431, 0.0, 0.0, 0.0, 0.0, 0.0, 1.6518364919025493E9, 0.0, 2022-05-06 12:28:11.902
76.0, -255.7867175694555, -127.24448614241555, -160.19487470202148, -171.2986376704648, 0.1600000075995922, 0.11200000531971455, 1.008000047877431, 0.0, 0.0, 0.0, 0.0, 0.0, 1.651836491915608E9, 0.0, 2022-05-06 12:28:11.915
76.0, -228.48544789291918, -86.69275092286989, -122.41440534964204, -151.09195820987225, 0.1600000075995922, 0.11200000531971455, 1.008000047877431, 0.0, 0.0, 0.0, 0.0, 0.0, 1.651836491915608E9, 0.0, 2022-05-06 12:28:11.915
77.0, -232.8125121416524, -146.680746212136, -168.86770269926637, -161.08871079143137, 0.1600000075995922, 0.11200000531971455, 1.008000047877431, 0.0, 0.0, 0.0, 0.0, 0.0, 1.651836491931705E9, 0.0, 2022-05-06 12:28:11.931
77.0, -268.45001881942153, -199.58911088528112, -212.96112317685038, -204.5014694770798, 0.1600000075995922, 0.11200000531971455, 1.008000047877431, 0.0, 0.0, 0.0, 0.0, 0.0, 1.651836491931705E9, 0.0, 2022-05-06 12:28:11.931
78.0, -244.88116929866374, -134.57842995552346, -157.16555573791265, -179.32446297537535, 0.1600000075995922, 0.11200000531971455, 1.008000047877431, 0.0, 0.0, 0.0, 0.0, 0.0, 1.6518364919325988E9, 0.0, 2022-05-06 12:28:11.932
78.0, -232.16924934927374, -95.47777591878548, -135.3656788961962, -174.66080773063004, 0.1600000075995922, 0.11200000531971455, 1.008000047877431, 0.0, 0.0, 0.0, 0.0, 0.0, 1.6518364919325988E9, 0.0, 2022-05-06 12:28:11.932
79.0, -250.76403192896396, -170.00650223577395, -191.389380232431, -194.3102420978248, 0.1600000075995922, 0.11200000531971455, 1.008000047877431, 0.0, 0.0, 0.0, 0.0, 0.0, 1.6518364919456136E9, 0.0, 2022-05-06 12:28:11.945
79.0, -275.1369599401951, -205.21766031859443, -217.6546976212412, -200.18562492821366, 0.1600000075995922, 0.11200000531971455, 1.008000047877431, 0.0, 0.0, 0.0, 0.0, 0.0, 1.6518364919456136E9, 0.0, 2022-05-06 12:28:11.945
80.0, -256.1120888656005, -134.55225065583363, -165.94310093391687, -178.55778348445892, 0.1600000075995922, 0.11200000531971455, 1.008000047877431, 0.0, 0.0, 0.0, 0.0, 0.0, 1.651836491961644E9, 0.0, 2022-05-06 12:28:11.961
80.0, -230.48629436921328, -87.31357431551442, -130.08494015876204, -166.0403383327648, 0.1600000075995922, 0.11200000531971455, 1.008000047877431, 0.0, 0.0, 0.0, 0.0, 0.0, 1.651836491961644E9, 0.0, 2022-05-06 12:28:11.961
81.0, -252.50308540835977, -164.89031909639016, -189.88220055028796, -189.07812205981463, 0.1600000075995922, 0.11200000531971455, 1.008000047877431, 0.0, 0.0, 0.0, 0.0, 0.0, 1.651836491962602E9, 0.0, 2022-05-06 12:28:11.962
81.0, -264.58296226523817, -194.60008434439078, -209.84952641371638, -192.75070381630212, 0.1600000075995922, 0.11200000531971455, 1.008000047877431, 0.0, 0.0, 0.0, 0.0, 0.0, 1.651836491962602E9, 0.0, 2022-05-06 12:28:11.962
82.0, -256.4898187611252, -139.1972064008005, -170.62919557839632, -188.66299316473305, 0.1600000075995922, 0.11200000531971455, 1.008000047877431, 0.0, 0.0, 0.0, 0.0, 0.0, 1.6518364919756076E9, 0.0, 2022-05-06 12:28:11.975
82.0, -217.66591732110828, -89.1723045934923, -123.03148884233087, -158.58297782111913, 0.1600000075995922, 0.11200000531971455, 1.008000047877431, 0.0, 0.0, 0.0, 0.0, 0.0, 1.6518364919756076E9, 0.0, 2022-05-06 12:28:11.975
83.0, -246.23875298257917, -162.20133102824911, -182.6080951364711, -177.84346259292215, 0.1600000075995922, 0.11200000531971455, 1.008000047877431, 0.0, 0.0, 0.0, 0.0, 0.0, 1.6518364919916606E9, 0.0, 2022-05-06 12:28:11.991
83.0, -277.9792839065194, -212.1963136359118, -227.21014200802892, -205.72067686263472, 0.1600000075995922, 0.11200000531971455, 1.008000047877431, 0.0, 0.0, 0.0, 0.0, 0.0, 1.6518364919916606E9, 0.0, 2022-05-06 12:28:11.991
84.0, -266.8605613382533, -132.05025758547708, -161.86660998221487, -176.2278258120641, 0.1600000075995922, 0.11200000531971455, 1.008000047877431, 0.0, 0.0, 0.0, 0.0, 0.0, 1.6518364919925635E9, 0.0, 2022-05-06 12:28:11.992
84.0, -216.93289692979306, -78.70806451747194, -112.02496327273548, -129.434197566472, 0.1600000075995922, 0.11200000531971455, 1.008000047877431, 0.0, 0.0, 0.0, 0.0, 0.0, 1.6518364919925635E9, 0.0, 2022-05-06 12:28:11.992
85.0, -245.29255829378963, -156.29228909825906, -188.43111936748028, -185.1587069062516, 0.1600000075995922, 0.11200000531971455, 1.008000047877431, 0.0, 0.0, 0.0, 0.0, 0.0, 1.6518364920056415E9, 0.0, 2022-05-06 12:28:12.005
85.0, -275.30151553824544, -208.23575958283618, -224.4800150403753, -207.73648293875158, 0.1600000075995922, 0.11200000531971455, 1.008000047877431, 0.0, 0.0, 0.0, 0.0, 0.0, 1.6518364920056415E9, 0.0, 2022-05-06 12:28:12.005
86.0, -265.67127315234393, -142.46961886202917, -176.0445707142353, -196.18393197562546, 0.1600000075995922, 0.11200000531971455, 1.008000047877431, 0.0, 0.0, 0.0, 0.0, 0.0, 1.6518364920216892E9, 0.0, 2022-05-06 12:28:12.021
86.0, -228.80707928910851, -100.67249695723876, -133.40597131941468, -174.16340103652328, 0.1600000075995922, 0.11200000531971455, 1.008000047877431, 0.0, 0.0, 0.0, 0.0, 0.0, 1.6518364920216892E9, 0.0, 2022-05-06 12:28:12.021
87.0, -246.75485917646438, -165.75423598615453, -179.2347053764388, -173.0414310498163, 0.1600000075995922, 0.11200000531971455, 1.008000047877431, 0.0, 0.0, 0.0, 0.0, 0.0, 1.6518364920226448E9, 0.0, 2022-05-06 12:28:12.022
87.0, -285.0140357231721, -212.07289693737403, -231.75786035414785, -207.71030363906175, 0.1600000075995922, 0.11200000531971455, 1.008000047877431, 0.0, 0.0, 0.0, 0.0, 0.0, 1.6518364920226448E9, 0.0, 2022-05-06 12:28:12.022
88.0, -274.1945051513612, -139.25704480009153, -165.18390124291182, -193.0872948123142, 0.1600000075995922, 0.11200000531971455, 1.008000047877431, 0.0, 0.0, 0.0, 0.0, 0.0, 1.6518364920356145E9, 0.0, 2022-05-06 12:28:12.035
88.0, -239.6340896608308, -94.12393213482574, -132.9871025243774, -168.65826830174774, 0.1600000075995922, 0.11200000531971455, 1.008000047877431, 0.0, 0.0, 0.0, 0.0, 0.0, 1.6518364920356145E9, 0.0, 2022-05-06 12:28:12.035
89.0, -251.57933011930436, -159.77413595700637, -191.81198892742395, -181.415067050606, 0.1600000075995922, 0.11200000531971455, 1.008000047877431, 0.0, 0.0, 0.0, 0.0, 0.0, 1.6518364920515997E9, 0.0, 2022-05-06 12:28:12.051
89.0, -292.19838353805244, -215.8277564928867, -233.04438593890518, -217.28070762567222, 0.1600000075995922, 0.11200000531971455, 1.008000047877431, 0.0, 0.0, 0.0, 0.0, 0.0, 1.6518364920515997E9, 0.0, 2022-05-06 12:28:12.051
90.0, -246.88949557486922, -122.69676779629663, -148.85923793632537, -168.7442860007286, 0.1600000075995922, 0.11200000531971455, 1.008000047877431, 0.0, 0.0, 0.0, 0.0, 0.0, 1.651836492052539E9, 0.0, 2022-05-06 12:28:12.052
90.0, -229.42416278179735, -87.14527881750837, -132.73652922734618, -161.20090779010206, 0.1600000075995922, 0.11200000531971455, 1.008000047877431, 0.0, 0.0, 0.0, 0.0, 0.0, 1.651836492052539E9, 0.0, 2022-05-06 12:28:12.052
91.0, -247.38316236902028, -158.8354210681282, -185.1250478066504, -176.048310614191, 0.1600000075995922, 0.11200000531971455, 1.008000047877431, 0.0, 0.0, 0.0, 0.0, 0.0, 1.651836492065672E9, 0.0, 2022-05-06 12:28:12.065
91.0, -275.0846013408154, -199.12910319073126, -217.3218465251848, -191.37816053256392, 0.1600000075995922, 0.11200000531971455, 1.008000047877431, 0.0, 0.0, 0.0, 0.0, 0.0, 1.651836492065672E9, 0.0, 2022-05-06 12:28:12.065
92.0, -263.7190453754738, -135.3750286460854, -165.157721943222, -181.16823365353048, 0.1600000075995922, 0.11200000531971455, 1.008000047877431, 0.0, 0.0, 0.0, 0.0, 0.0, 1.651836492081656E9, 0.0, 2022-05-06 12:28:12.081
92.0, -238.30642517656088, -92.62423225259408, -134.01557501219213, -162.08352417964488, 0.1600000075995922, 0.11200000531971455, 1.008000047877431, 0.0, 0.0, 0.0, 0.0, 0.0, 1.651836492081656E9, 0.0, 2022-05-06 12:28:12.081
93.0, -243.12341631948948, -156.92807209072635, -181.66564034763724, -177.18524020072073, 0.1600000075995922, 0.11200000531971455, 1.008000047877431, 0.0, 0.0, 0.0, 0.0, 0.0, 1.6518364920826442E9, 0.0, 2022-05-06 12:28:12.082
93.0, -280.60095377545804, -214.4215541095473, -223.68341634981334, -194.75155029259622, 0.1600000075995922, 0.11200000531971455, 1.008000047877431, 0.0, 0.0, 0.0, 0.0, 0.0, 1.6518364920826442E9, 0.0, 2022-05-06 12:28:12.082
94.0, -257.7165059465915, -140.52113098511472, -172.70110015384853, -190.40204664412886, 0.1600000075995922, 0.11200000531971455, 1.008000047877431, 0.0, 0.0, 0.0, 0.0, 0.0, 1.6518364920956426E9, 0.0, 2022-05-06 12:28:12.095
94.0, -221.323539477773, -77.07372823683545, -122.10773355327547, -155.557398756966, 0.1600000075995922, 0.11200000531971455, 1.008000047877431, 0.0, 0.0, 0.0, 0.0, 0.0, 1.6518364920956426E9, 0.0, 2022-05-06 12:28:12.095
95.0, -236.90770259313285, -143.90948034496978, -176.24278541188687, -169.32771039381623, 0.1600000075995922, 0.11200000531971455, 1.008000047877431, 0.0, 0.0, 0.0, 0.0, 0.0, 1.6518364921115968E9, 0.0, 2022-05-06 12:28:12.111
95.0, -264.9307729611173, -195.28448603628203, -210.90417820122093, -195.65660608187318, 0.1600000075995922, 0.11200000531971455, 1.008000047877431, 0.0, 0.0, 0.0, 0.0, 0.0, 1.6518364921115968E9, 0.0, 2022-05-06 12:28:12.111
96.0, -260.21101921703666, -132.4915657802485, -161.3692032881081, -172.68614055402577, 0.1600000075995922, 0.11200000531971455, 1.008000047877431, 0.0, 0.0, 0.0, 0.0, 0.0, 1.6518364921266801E9, 0.0, 2022-05-06 12:28:12.126
96.0, -234.16635592561215, -96.49128880677745, -133.52938801795244, -162.01620598044246, 0.1600000075995922, 0.11200000531971455, 1.008000047877431, 0.0, 0.0, 0.0, 0.0, 0.0, 1.6518364921266801E9, 0.0, 2022-05-06 12:28:12.126
97.0, -249.75425894092768, -162.70995742222294, -186.62100778892636, -180.341715763323, 0.1600000075995922, 0.11200000531971455, 1.008000047877431, 0.0, 0.0, 0.0, 0.0, 0.0, 1.6518364921275756E9, 0.0, 2022-05-06 12:28:12.127
97.0, -285.9452708121389, -202.60721014952287, -221.94062297046185, -209.98042291216552, 0.1600000075995922, 0.11200000531971455, 1.008000047877431, 0.0, 0.0, 0.0, 0.0, 0.0, 1.6518364921275756E9, 0.0, 2022-05-06 12:28:12.127
98.0, -257.4921119492501, -123.27271238947287, -153.02174658700824, -177.978098991327, 0.1600000075995922, 0.11200000531971455, 1.008000047877431, 0.0, 0.0, 0.0, 0.0, 0.0, 1.6518364921416018E9, 0.0, 2022-05-06 12:28:12.141
98.0, -237.06477839127183, -101.03526725294068, -137.695636568591, -169.6381220901385, 0.1600000075995922, 0.11200000531971455, 1.008000047877431, 0.0, 0.0, 0.0, 0.0, 0.0, 1.6518364921416018E9, 0.0, 2022-05-06 12:28:12.141
99.0, -252.42454750929028, -168.45444375416264, -186.84914168622345, -181.96857224404812, 0.1600000075995922, 0.11200000531971455, 1.008000047877431, 0.0, 0.0, 0.0, 0.0, 0.0, 1.6518364921426802E9, 0.0, 2022-05-06 12:28:12.142
99.0, -275.0135432416573, -203.30657144123688, -219.23667530249804, -194.96098469011486, 0.1600000075995922, 0.11200000531971455, 1.008000047877431, 0.0, 0.0, 0.0, 0.0, 0.0, 1.6518364921426802E9, 0.0, 2022-05-06 12:28:12.142
100.0, -250.83509002812207, -129.80631761206314, -157.27775273658335, -175.0086184265092, 0.1600000075995922, 0.11200000531971455, 1.008000047877431, 0.0, 0.0, 0.0, 0.0, 0.0, 1.651836492156608E9, 0.0, 2022-05-06 12:28:12.156
100.0, -235.54263910930604, -99.0306808766909, -137.85645226668566, -168.99485929775983, 0.1600000075995922, 0.11200000531971455, 1.008000047877431, 0.0, 0.0, 0.0, 0.0, 0.0, 1.651836492156608E9, 0.0, 2022-05-06 12:28:12.156
0.0, -239.5218926621601, -167.48954956559464, -186.60043833917007, -179.20478617679328, 0.1600000075995922, 0.11200000531971455, 1.008000047877431, 0.0, 0.0, 0.0, 0.0, 0.0, 1.6518364921575844E9, 0.0, 2022-05-06 12:28:12.157
1.0, -288.97458977624774, -225.54775647772476, -233.89521317882463, -211.89525168947875, 0.1600000075995922, 0.11200000531971455, 1.008000047877431, 0.0, 0.0, 0.0, 0.0, 0.0, 1.6518364921706338E9, 0.0, 2022-05-06 12:28:12.170
1.0, -269.1232008114457, -142.20408596517518, -171.71189661556855, -187.26801048126072, 0.1600000075995922, 0.11200000531971455, 1.008000047877431, 0.0, 0.0, 0.0, 0.0, 0.0, 1.6518364921706338E9, 0.0, 2022-05-06 12:28:12.170
2.0, -225.6580835264176, -76.97275093803182, -119.58891093311831, -151.82497860118747, 0.1600000075995922, 0.11200000531971455, 1.008000047877431, 0.0, 0.0, 0.0, 0.0, 0.0, 1.6518364921867368E9, 0.0, 2022-05-06 12:28:12.186
2.0, -233.553012332879, -147.73165809968486, -170.15609823400155, -168.74054610077292, 0.1600000075995922, 0.11200000531971455, 1.008000047877431, 0.0, 0.0, 0.0, 0.0, 0.0, 1.6518364921867368E9, 0.0, 2022-05-06 12:28:12.186
3.0, -277.6239934107289, -216.07084999000654, -224.56042288942263, -202.3921659020707, 0.1600000075995922, 0.11200000531971455, 1.008000047877431, 0.0, 0.0, 0.0, 0.0, 0.0, 1.6518364921876493E9, 0.0, 2022-05-06 12:28:12.187
3.0, -263.1543204821646, -139.54501709667966, -165.81781428540125, -180.37163496296853, 0.1600000075995922, 0.11200000531971455, 1.008000047877431, 0.0, 0.0, 0.0, 0.0, 0.0, 1.6518364921876493E9, 0.0, 2022-05-06 12:28:12.187
4.0, -224.73058833740652, -72.63820688938722, -120.38550962368026, -147.17254305630922, 0.1600000075995922, 0.11200000531971455, 1.008000047877431, 0.0, 0.0, 0.0, 0.0, 0.0, 1.651836492200676E9, 0.0, 2022-05-06 12:28:12.200
4.0, -243.7068407125771, -155.97065770206973, -181.2860405021347, -173.87916863989085, 0.1600000075995922, 0.11200000531971455, 1.008000047877431, 0.0, 0.0, 0.0, 0.0, 0.0, 1.651836492200676E9, 0.0, 2022-05-06 12:28:12.200
5.0, -282.53074215259403, -222.09582881862298, -231.66997270518914, -202.2799689034, 0.1600000075995922, 0.11200000531971455, 1.008000047877431, 0.0, 0.0, 0.0, 0.0, 0.0, 1.6518364922167072E9, 0.0, 2022-05-06 12:28:12.216
5.0, -272.00292377732694, -136.28382433531806, -167.70646376302466, -184.43690621480346, 0.1600000075995922, 0.11200000531971455, 1.008000047877431, 0.0, 0.0, 0.0, 0.0, 0.0, 1.6518364922167072E9, 0.0, 2022-05-06 12:28:12.216
6.0, -223.0326737575233, -70.02401682035998, -124.79859157139435, -156.05480545107275, 0.1600000075995922, 0.11200000531971455, 1.008000047877431, 0.0, 0.0, 0.0, 0.0, 0.0, 1.6518364922176483E9, 0.0, 2022-05-06 12:28:12.217
6.0, -239.0805844673887, -151.99140414921567, -174.37844528397545, -166.92295472230762, 0.1600000075995922, 0.11200000531971455, 1.008000047877431, 0.0, 0.0, 0.0, 0.0, 0.0, 1.6518364922176483E9, 0.0, 2022-05-06 12:28:12.217
7.0, -293.4998687226325, -221.99485151981935, -229.6466868291609, -196.00067687779665, 0.1600000075995922, 0.11200000531971455, 1.008000047877431, 0.0, 0.0, 0.0, 0.0, 0.0, 1.6518364922306304E9, 0.0, 2022-05-06 12:28:12.230
7.0, -266.3444551443681, -136.21276623615995, -171.52116171782836, -180.5623698607087, 0.1600000075995922, 0.11200000531971455, 1.008000047877431, 0.0, 0.0, 0.0, 0.0, 0.0, 1.6518364922306304E9, 0.0, 2022-05-06 12:28:12.230
8.0, -221.96306237019598, -78.14333962416276, -125.19502096669748, -154.94779506418854, 0.1600000075995922, 0.11200000531971455, 1.008000047877431, 0.0, 0.0, 0.0, 0.0, 0.0, 1.651836492246663E9, 0.0, 2022-05-06 12:28:12.246
8.0, -233.01820663921535, -156.9467715905048, -171.16213132208213, -158.48948032222688, 0.1600000075995922, 0.11200000531971455, 1.008000047877431, 0.0, 0.0, 0.0, 0.0, 0.0, 1.651836492246663E9, 0.0, 2022-05-06 12:28:12.246
9.0, -285.2833085199818, -216.36256218655035, -230.465724919457, -221.53671377524734, 0.1600000075995922, 0.11200000531971455, 1.008000047877431, 0.0, 0.0, 0.0, 0.0, 0.0, 1.6518364922476897E9, 0.0, 2022-05-06 12:28:12.247
9.0, -274.3889799490571, -144.63502093637362, -175.2124429740943, -202.34728710260242, 0.1600000075995922, 0.11200000531971455, 1.008000047877431, 0.0, 0.0, 0.0, 0.0, 0.0, 1.6518364922476897E9, 0.0, 2022-05-06 12:28:12.247
10.0, -217.03761412855238, -70.95525190932676, -114.83549808943644, -155.82293165381998, 0.1600000075995922, 0.11200000531971455, 1.008000047877431, 0.0, 0.0, 0.0, 0.0, 0.0, 1.6518364922606359E9, 0.0, 2022-05-06 12:28:12.260
10.0, -247.121369372122, -164.7631624978967, -191.72784117842093, -185.33822210412472, 0.1600000075995922, 0.11200000531971455, 1.008000047877431, 0.0, 0.0, 0.0, 0.0, 0.0, 1.6518364922606359E9, 0.0, 2022-05-06 12:28:12.260
11.0, -294.32638661284, -224.69505928782746, -233.73065758077428, -206.6893109511584, 0.1600000075995922, 0.11200000531971455, 1.008000047877431, 0.0, 0.0, 0.0, 0.0, 0.0, 1.6518364922766151E9, 0.0, 2022-05-06 12:28:12.276
11.0, -264.6465405644849, -142.73141185892746, -172.5496342056431, -181.88629444502294, 0.1600000075995922, 0.11200000531971455, 1.008000047877431, 0.0, 0.0, 0.0, 0.0, 0.0, 1.6518364922766151E9, 0.0, 2022-05-06 12:28:12.276
12.0, -219.64432439766824, -75.981677449774, -120.99885321641341, -161.72449378389865, 0.1600000075995922, 0.11200000531971455, 1.008000047877431, 0.0, 0.0, 0.0, 0.0, 0.0, 1.6518364922775602E9, 0.0, 2022-05-06 12:28:12.277
12.0, -237.91747558116913, -158.03134257765487, -184.8875641594641, -180.48009206168354, 0.1600000075995922, 0.11200000531971455, 1.008000047877431, 0.0, 0.0, 0.0, 0.0, 0.0, 1.6518364922775602E9, 0.0, 2022-05-06 12:28:12.277
13.0, -293.75792181957513, -225.92548637324944, -239.89775260770693, -219.4348900001496, 0.1600000075995922, 0.11200000531971455, 1.008000047877431, 0.0, 0.0, 0.0, 0.0, 0.0, 1.6518364922906768E9, 0.0, 2022-05-06 12:28:12.290
13.0, -281.9809768591076, -149.8634010744281, -178.9598227296956, -197.69859145767987, 0.1600000075995922, 0.11200000531971455, 1.008000047877431, 0.0, 0.0, 0.0, 0.0, 0.0, 1.6518364922906768E9, 0.0, 2022-05-06 12:28:12.290
14.0, -231.8476179530844, -86.12802602956071, -128.05978433275595, -160.2659328011796, 0.1600000075995922, 0.11200000531971455, 1.008000047877431, 0.0, 0.0, 0.0, 0.0, 0.0, 1.6518364923066125E9, 0.0, 2022-05-06 12:28:12.306
14.0, -249.92629433888942, -161.8310809326358, -185.80009974865243, -178.01923789083958, 0.1600000075995922, 0.11200000531971455, 1.008000047877431, 0.0, 0.0, 0.0, 0.0, 0.0, 1.6518364923066125E9, 0.0, 2022-05-06 12:28:12.306
15.0, -281.74162326194346, -206.06287770858034, -220.51011123741046, -193.60340100619942, 0.1600000075995922, 0.11200000531971455, 1.008000047877431, 0.0, 0.0, 0.0, 0.0, 0.0, 1.6518364923076065E9, 0.0, 2022-05-06 12:28:12.307
15.0, -240.1913347542286, -116.08836457459256, -141.83757576951757, -155.56113865692168, 0.1600000075995922, 0.11200000531971455, 1.008000047877431, 0.0, 0.0, 0.0, 0.0, 0.0, 1.6518364923076065E9, 0.0, 2022-05-06 12:28:12.307
16.0, -221.00190808158368, -85.87745273252949, -125.95422065770254, -147.64377045072615, 0.1600000075995922, 0.11200000531971455, 1.008000047877431, 0.0, 0.0, 0.0, 0.0, 0.0, 1.6518364923206525E9, 0.0, 2022-05-06 12:28:12.320
16.0, -240.51296615041792, -155.1628393116407, -173.9932355885394, -161.23830678965896, 0.1600000075995922, 0.11200000531971455, 1.008000047877431, 0.0, 0.0, 0.0, 0.0, 0.0, 1.6518364923206525E9, 0.0, 2022-05-06 12:28:12.320
17.0, -276.1355132283643, -196.84028441784903, -216.21670608827844, -187.65322017669678, 0.1600000075995922, 0.11200000531971455, 1.008000047877431, 0.0, 0.0, 0.0, 0.0, 0.0, 1.6518364923366265E9, 0.0, 2022-05-06 12:28:12.336
17.0, -256.1195686655119, -125.43437456386164, -162.71743722213432, -184.21251221746206, 0.1600000075995922, 0.11200000531971455, 1.008000047877431, 0.0, 0.0, 0.0, 0.0, 0.0, 1.6518364923366265E9, 0.0, 2022-05-06 12:28:12.336
18.0, -233.82976492960006, -101.54015374695882, -141.747818170581, -178.9729123795405, 0.1600000075995922, 0.11200000531971455, 1.008000047877431, 0.0, 0.0, 0.0, 0.0, 0.0, 1.6518364923375745E9, 0.0, 2022-05-06 12:28:12.337
18.0, -248.92400115076452, -175.00300857657567, -192.90216976450756, -189.33617515675724, 0.1600000075995922, 0.11200000531971455, 1.008000047877431, 0.0, 0.0, 0.0, 0.0, 0.0, 1.6518364923375745E9, 0.0, 2022-05-06 12:28:12.337
19.0, -273.48766405973583, -204.24154643015936, -218.1203151657246, -194.60569419432431, 0.1600000075995922, 0.11200000531971455, 1.008000047877431, 0.0, 0.0, 0.0, 0.0, 0.0, 1.6518364923505995E9, 0.0, 2022-05-06 12:28:12.350
19.0, -256.9797456553206, -124.95940726948902, -159.14583276445046, -173.65851454250515, 0.1600000075995922, 0.11200000531971455, 1.008000047877431, 0.0, 0.0, 0.0, 0.0, 0.0, 1.6518364923505995E9, 0.0, 2022-05-06 12:28:12.350
20.0, -216.24475533794612, -80.7238705935888, -120.65478242048994, -156.24928024876863, 0.1600000075995922, 0.11200000531971455, 1.0240000486373901, 0.0, 0.0, 0.0, 0.0, 0.0, 1.6518364923666518E9, 0.0, 2022-05-06 12:28:12.366
20.0, -233.86342402920127, -146.86026141000912, -176.22595586208627, -168.05240450892597, 0.1600000075995922, 0.11200000531971455, 1.0240000486373901, 0.0, 0.0, 0.0, 0.0, 0.0, 1.6518364923666518E9, 0.0, 2022-05-06 12:28:12.366
21.0, -290.9455170528963, -212.80591732868925, -231.4231393081136, -214.8086337549612, 0.1600000075995922, 0.11200000531971455, 1.0240000486373901, 0.0, 0.0, 0.0, 0.0, 0.0, 1.6518364923675792E9, 0.0, 2022-05-06 12:28:12.367
21.0, -257.94837974384427, -137.0467639262788, -166.9472640720196, -188.73405126389116, 0.1600000075995922, 0.11200000531971455, 1.0240000486373901, 0.0, 0.0, 0.0, 0.0, 0.0, 1.6518364923675792E9, 0.0, 2022-05-06 12:28:12.367
22.0, -221.8807845711708, -75.85826075123623, -121.64211600879207, -159.13274311460555, 0.1600000075995922, 0.11200000531971455, 1.0240000486373901, 0.0, 0.0, 0.0, 0.0, 0.0, 1.6518364923806305E9, 0.0, 2022-05-06 12:28:12.380
22.0, -253.81205039285123, -167.51572886528447, -191.00978038692847, -185.52147720195353, 0.1600000075995922, 0.11200000531971455, 1.0240000486373901, 0.0, 0.0, 0.0, 0.0, 0.0, 1.6518364923806305E9, 0.0, 2022-05-06 12:28:12.380
23.0, -273.8990530548617, -200.95417436910793, -221.7143590231426, -202.3510270025581, 0.1600000075995922, 0.11200000531971455, 1.0240000486373901, 0.0, 0.0, 0.0, 0.0, 0.0, 1.6518364923966565E9, 0.0, 2022-05-06 12:28:12.396
23.0, -256.4449399616569, -121.88520950591192, -160.10698705306277, -179.36934177484363, 0.1600000075995922, 0.11200000531971455, 1.0240000486373901, 0.0, 0.0, 0.0, 0.0, 0.0, 1.6518364923966565E9, 0.0, 2022-05-06 12:28:12.396
24.0, -228.75472068972886, -90.73184287501499, -134.12964196084067, -169.26039219461381, 0.1600000075995922, 0.11200000531971455, 1.0240000486373901, 0.0, 0.0, 0.0, 0.0, 0.0, 1.6518364923975751E9, 0.0, 2022-05-06 12:28:12.397
24.0, -241.15996884275228, -162.07417442975566, -181.97418209398165, -164.1105499556288, 0.1600000075995922, 0.11200000531971455, 1.0240000486373901, 0.0, 0.0, 0.0, 0.0, 0.0, 1.6518364923975751E9, 0.0, 2022-05-06 12:28:12.397
25.0, -268.3789607202634, -190.4787145932205, -204.25650602998212, -179.56007667258382, 0.1600000075995922, 0.11200000531971455, 1.0240000486373901, 0.0, 0.0, 0.0, 0.0, 0.0, 1.6518364924266365E9, 0.0, 2022-05-06 12:28:12.426
25.0, -255.80541706923395, -122.0385454040952, -157.39555958518758, -180.06870306655765, 0.1600000075995922, 0.11200000531971455, 1.0240000486373901, 0.0, 0.0, 0.0, 0.0, 0.0, 1.6518364924266365E9, 0.0, 2022-05-06 12:28:12.426
26.0, -232.0346129508689, -92.38861855538562, -139.61233529588208, -176.44474000949413, 0.1600000075995922, 0.11200000531971455, 1.0240000486373901, 0.0, 0.0, 0.0, 0.0, 0.0, 1.651836492427598E9, 0.0, 2022-05-06 12:28:12.427
26.0, -250.54337783157825, -179.7339820205234, -198.86731019383296, -199.3890262376517, 0.1600000075995922, 0.11200000531971455, 1.0240000486373901, 0.0, 0.0, 0.0, 0.0, 0.0, 1.651836492427598E9, 0.0, 2022-05-06 12:28:12.427
27.0, -282.1679718568921, -209.39138866914436, -224.3472485919483, -202.41460530180484, 0.1600000075995922, 0.11200000531971455, 1.0240000486373901, 0.0, 0.0, 0.0, 0.0, 0.0, 1.651836492428568E9, 0.0, 2022-05-06 12:28:12.428
27.0, -252.5292647080496, -121.88520950591192, -152.14847994735464, -172.57768345531076, 0.1600000075995922, 0.11200000531971455, 1.0240000486373901, 0.0, 0.0, 0.0, 0.0, 0.0, 1.651836492428568E9, 0.0, 2022-05-06 12:28:12.428
28.0, -227.64771030284464, -99.19149657478556, -126.53764505079016, -150.96854151133448, 0.1600000075995922, 0.11200000531971455, 1.0240000486373901, 0.0, 0.0, 0.0, 0.0, 0.0, 1.6518364924406447E9, 0.0, 2022-05-06 12:28:12.440
28.0, -237.82397808227688, -163.34574041469023, -182.82687928387895, -168.84900319948792, 0.1600000075995922, 0.11200000531971455, 1.0240000486373901, 0.0, 0.0, 0.0, 0.0, 0.0, 1.6518364924406447E9, 0.0, 2022-05-06 12:28:12.440
29.0, -276.89471291936934, -209.57090386701748, -220.9401997323148, -201.63296621106565, 0.1600000075995922, 0.11200000531971455, 1.0240000486373901, 0.0, 0.0, 0.0, 0.0, 0.0, 1.6518364924557445E9, 0.0, 2022-05-06 12:28:12.455
29.0, -248.60984955448657, -121.66455540852621, -153.70053842896596, -175.57334331981838, 0.1600000075995922, 0.11200000531971455, 1.0240000486373901, 0.0, 0.0, 0.0, 0.0, 0.0, 1.6518364924557445E9, 0.0, 2022-05-06 12:28:12.455
30.0, -235.3332047117874, -98.04708718834445, -139.384201398585, -177.61158879566938, 0.1600000075995922, 0.11200000531971455, 1.0240000486373901, 0.0, 0.0, 0.0, 0.0, 0.0, 1.651836492471712E9, 0.0, 2022-05-06 12:28:12.471
30.0, -260.0202843192965, -179.5881259222515, -195.84547102963552, -188.7938896631822, 0.1600000075995922, 0.11200000531971455, 1.0240000486373901, 0.0, 0.0, 0.0, 0.0, 0.0, 1.651836492471712E9, 0.0, 2022-05-06 12:28:12.471
31.0, -287.2504958966747, -209.38390886923298, -227.63836055295542, -210.07766031101346, 0.1600000075995922, 0.11200000531971455, 1.0240000486373901, 0.0, 0.0, 0.0, 0.0, 0.0, 1.6518364924726543E9, 0.0, 2022-05-06 12:28:12.472
31.0, -257.0433239545673, -125.84950345894322, -162.51174272457138, -187.70931867603213, 0.1600000075995922, 0.11200000531971455, 1.0240000486373901, 0.0, 0.0, 0.0, 0.0, 0.0, 1.6518364924726543E9, 0.0, 2022-05-06 12:28:12.472
32.0, -229.8093724772334, -90.81412067404017, -134.47371275676414, -170.01959188561887, 0.1600000075995922, 0.11200000531971455, 1.0240000486373901, 0.0, 0.0, 0.0, 0.0, 0.0, 1.651836492486614E9, 0.0, 2022-05-06 12:28:12.486
32.0, -249.86645593959838, -172.34019980812445, -187.8121659248136, -176.36620211042464, 0.1600000075995922, 0.11200000531971455, 1.0240000486373901, 0.0, 0.0, 0.0, 0.0, 0.0, 1.651836492486614E9, 0.0, 2022-05-06 12:28:12.486
33.0, -270.8360749911517, -195.71083463123068, -215.91377419186756, -193.5323429070413, 0.1600000075995922, 0.11200000531971455, 1.0240000486373901, 0.0, 0.0, 0.0, 0.0, 0.0, 1.6518364924875681E9, 0.0, 2022-05-06 12:28:12.487
33.0, -247.28218507021666, -119.79460543068126, -153.2442706343718, -174.3391763344407, 0.1600000075995922, 0.11200000531971455, 1.0240000486373901, 0.0, 0.0, 0.0, 0.0, 0.0, 1.6518364924875681E9, 0.0, 2022-05-06 12:28:12.487
34.0, -224.8876641355455, -86.16168512916192, -127.03505174489692, -163.08581736776978, 0.1600000075995922, 0.11200000531971455, 1.0240000486373901, 0.0, 0.0, 0.0, 0.0, 0.0, 1.6518364925006144E9, 0.0, 2022-05-06 12:28:12.500
34.0, -241.006632944569, -168.27118865633383, -191.06587888626382, -180.91392045654356, 0.1600000075995922, 0.11200000531971455, 1.0240000486373901, 0.0, 0.0, 0.0, 0.0, 0.0, 1.6518364925006144E9, 0.0, 2022-05-06 12:28:12.500
35.0, -272.18243897520006, -219.25724475225434, -219.4554594499059, -195.67904548160732, 0.1600000075995922, 0.11200000531971455, 1.0240000486373901, 0.0, 0.0, 0.0, 0.0, 0.0, 1.6518364925166209E9, 0.0, 2022-05-06 12:28:12.516
35.0, -260.35687531530857, -128.95362042216584, -166.03472848283127, -184.31722941622138, 0.1600000075995922, 0.11200000531971455, 1.0240000486373901, 0.0, 0.0, 0.0, 0.0, 0.0, 1.6518364925166209E9, 0.0, 2022-05-06 12:28:12.516
36.0, -217.75567492004484, -73.38244698056951, -120.26583282509819, -157.05709863919765, 0.1600000075995922, 0.11200000531971455, 1.0240000486373901, 0.0, 0.0, 0.0, 0.0, 0.0, 1.6518364925176635E9, 0.0, 2022-05-06 12:28:12.517
36.0, -255.4127275738865, -178.22680233838037, -197.34143101191148, -195.95579807832837, 0.1600000075995922, 0.11200000531971455, 1.0240000486373901, 0.0, 0.0, 0.0, 0.0, 0.0, 1.6518364925176635E9, 0.0, 2022-05-06 12:28:12.517
37.0, -282.59058055188507, -215.57718319585547, -223.00088460789993, -201.59556721150875, 0.1600000075995922, 0.11200000531971455, 1.0240000486373901, 0.0, 0.0, 0.0, 0.0, 0.0, 1.6518364925306573E9, 0.0, 2022-05-06 12:28:12.530
37.0, -254.50393188465387, -129.36126951733604, -159.04485546564683, -173.9726661387831, 0.1600000075995922, 0.11200000531971455, 1.0240000486373901, 0.0, 0.0, 0.0, 0.0, 0.0, 1.6518364925306573E9, 0.0, 2022-05-06 12:28:12.530
38.0, -207.67664453946054, -71.2768833055161, -121.62341650901362, -153.75102707836777, 0.1600000075995922, 0.11200000531971455, 1.0240000486373901, 0.0, 0.0, 0.0, 0.0, 0.0, 1.6518364925466056E9, 0.0, 2022-05-06 12:28:12.546
38.0, -243.3029315173626, -161.18407824030146, -184.00868766987696, -176.68783350661397, 0.1600000075995922, 0.11200000531971455, 1.0240000486373901, 0.0, 0.0, 0.0, 0.0, 0.0, 1.6518364925466056E9, 0.0, 2022-05-06 12:28:12.546
39.0, -291.9964289404452, -217.27883767569438, -232.23095769854262, -214.71513625606894, 0.1600000075995922, 0.11200000531971455, 1.0240000486373901, 0.0, 0.0, 0.0, 0.0, 0.0, 1.6518364925475645E9, 0.0, 2022-05-06 12:28:12.547
39.0, -253.6437548948452, -131.0068254978396, -160.3949593496509, -181.22807205282152, 0.1600000075995922, 0.11200000531971455, 1.0240000486373901, 0.0, 0.0, 0.0, 0.0, 0.0, 1.6518364925475645E9, 0.0, 2022-05-06 12:28:12.547
40.0, -207.2876949440688, -72.6456866892986, -118.60905714472756, -152.8497111890465, 0.1600000075995922, 0.11200000531971455, 1.008000047877431, 0.0, 0.0, 0.0, 0.0, 0.0, 1.651836492560603E9, 0.0, 2022-05-06 12:28:12.560
40.0, -251.3437164220959, -169.31088084401563, -192.3000458716415, -189.57926865387708, 0.1600000075995922, 0.11200000531971455, 1.008000047877431, 0.0, 0.0, 0.0, 0.0, 0.0, 1.651836492560603E9, 0.0, 2022-05-06 12:28:12.560
41.0, -282.5756209520623, -216.70289308251813, -228.74163103988394, -203.23738329205662, 0.1600000075995922, 0.11200000531971455, 1.008000047877431, 0.0, 0.0, 0.0, 0.0, 0.0, 1.6518364925766451E9, 0.0, 2022-05-06 12:28:12.576
41.0, -247.4916194677353, -115.8527508773841, -148.09816829534248, -168.10102320834994, 0.1600000075995922, 0.11200000531971455, 1.008000047877431, 0.0, 0.0, 0.0, 0.0, 0.0, 1.6518364925766451E9, 0.0, 2022-05-06 12:28:12.576
42.0, -223.83675224799663, -77.45145813236013, -121.73561350768432, -156.05480545107275, 0.1600000075995922, 0.11200000531971455, 1.008000047877431, 0.0, 0.0, 0.0, 0.0, 0.0, 1.6518364925775604E9, 0.0, 2022-05-06 12:28:12.577
42.0, -251.83364331629127, -172.29906090861186, -187.54289312800393, -188.0571293719113, 0.1600000075995922, 0.11200000531971455, 1.008000047877431, 0.0, 0.0, 0.0, 0.0, 0.0, 1.6518364925775604E9, 0.0, 2022-05-06 12:28:12.577
43.0, -283.37595954257995, -214.6384683069773, -227.67201965255663, -205.88149256072938, 0.1600000075995922, 0.11200000531971455, 1.008000047877431, 0.0, 0.0, 0.0, 0.0, 0.0, 1.6518364925906067E9, 0.0, 2022-05-06 12:28:12.590
43.0, -263.50961097795516, -130.16534800780937, -164.40787200210616, -189.58300855383277, 0.1600000075995922, 0.11200000531971455, 1.008000047877431, 0.0, 0.0, 0.0, 0.0, 0.0, 1.6518364925906067E9, 0.0, 2022-05-06 12:28:12.590
44.0, -224.64457063842565, -83.3567601623945, -127.55115793878213, -166.3432702291757, 0.1600000075995922, 0.11200000531971455, 1.008000047877431, 0.0, 0.0, 0.0, 0.0, 0.0, 1.6518364926066313E9, 0.0, 2022-05-06 12:28:12.606
44.0, -240.50922625046223, -173.9558365889825, -189.11739100934938, -186.81922248657793, 0.1600000075995922, 0.11200000531971455, 1.008000047877431, 0.0, 0.0, 0.0, 0.0, 0.0, 1.6518364926066313E9, 0.0, 2022-05-06 12:28:12.606
45.0, -273.786856056191, -229.5307499305345, -237.22746403934434, -219.176836903207, 0.1600000075995922, 0.11200000531971455, 1.008000047877431, 0.0, 0.0, 0.0, 0.0, 0.0, 1.651836492607584E9, 0.0, 2022-05-06 12:28:12.607
45.0, -267.5374832302332, -144.13761424226686, -174.5056018824689, -188.62185426522046, 0.1600000075995922, 0.11200000531971455, 1.008000047877431, 0.0, 0.0, 0.0, 0.0, 0.0, 1.651836492607584E9, 0.0, 2022-05-06 12:28:12.607
46.0, -231.3689107587561, -84.9836166431196, -126.88919564662501, -155.9949670517817, 0.1600000075995922, 0.11200000531971455, 1.008000047877431, 0.0, 0.0, 0.0, 0.0, 0.0, 1.6518364926206331E9, 0.0, 2022-05-06 12:28:12.620
46.0, -237.86511698178947, -158.2071178755723, -180.93075000634417, -175.9361136155203, 0.1600000075995922, 0.11200000531971455, 1.008000047877431, 0.0, 0.0, 0.0, 0.0, 0.0, 1.6518364926206331E9, 0.0, 2022-05-06 12:28:12.620
47.0, -261.714458999224, -199.54049218585715, -207.36810279311612, -189.26885695755482, 0.1600000075995922, 0.11200000531971455, 1.008000047877431, 0.0, 0.0, 0.0, 0.0, 0.0, 1.651836492636654E9, 0.0, 2022-05-06 12:28:12.636
47.0, -251.7102266177535, -120.3331510243006, -158.18467847583815, -174.14844143670052, 0.1600000075995922, 0.11200000531971455, 1.008000047877431, 0.0, 0.0, 0.0, 0.0, 0.0, 1.651836492636654E9, 0.0, 2022-05-06 12:28:12.636
48.0, -214.84977265447378, -68.16528654238209, -114.05011909874156, -146.42456306517124, 0.1600000075995922, 0.11200000531971455, 1.008000047877431, 0.0, 0.0, 0.0, 0.0, 0.0, 1.651836492637618E9, 0.0, 2022-05-06 12:28:12.637
48.0, -237.39388958737254, -152.29433604562655, -165.19325099280104, -147.72978814970702, 0.1600000075995922, 0.11200000531971455, 1.008000047877431, 0.0, 0.0, 0.0, 0.0, 0.0, 1.651836492637618E9, 0.0, 2022-05-06 12:28:12.637
49.0, -276.10559402871877, -210.39742175722495, -225.00547098414972, -187.07727558352053, 0.1600000075995922, 0.11200000531971455, 1.008000047877431, 0.0, 0.0, 0.0, 0.0, 0.0, 1.6518364926506405E9, 0.0, 2022-05-06 12:28:12.650
49.0, -242.21462063025683, -125.53535186266527, -162.59776042355224, -196.08669457677752, 0.1600000075995922, 0.11200000531971455, 1.008000047877431, 0.0, 0.0, 0.0, 0.0, 0.0, 1.6518364926506405E9, 0.0, 2022-05-06 12:28:12.650
50.0, -237.3714501876384, -93.87335883779451, -137.24497862393036, -172.88809515163302, 0.1600000075995922, 0.11200000531971455, 1.008000047877431, 0.0, 0.0, 0.0, 0.0, 0.0, 1.6518364926666253E9, 0.0, 2022-05-06 12:28:12.666
50.0, -259.4256402263418, -182.11255839234218, -199.31609818851575, -190.85831443872303, 0.1600000075995922, 0.11200000531971455, 1.008000047877431, 0.0, 0.0, 0.0, 0.0, 0.0, 1.6518364926666253E9, 0.0, 2022-05-06 12:28:12.666
51.0, -273.4278256604448, -200.38944947579876, -213.70349331805483, -196.0941743766889, 0.1600000075995922, 0.11200000531971455, 1.008000047877431, 0.0, 0.0, 0.0, 0.0, 0.0, 1.6518364926676521E9, 0.0, 2022-05-06 12:28:12.667
51.0, -245.10182339604944, -116.97846076404676, -154.74397051660344, -170.81245067622513, 0.1600000075995922, 0.11200000531971455, 1.008000047877431, 0.0, 0.0, 0.0, 0.0, 0.0, 1.6518364926676521E9, 0.0, 2022-05-06 12:28:12.667
52.0, -229.93652907572687, -104.72654850920662, -142.4210001626052, -176.3849016102031, 0.1600000075995922, 0.11200000531971455, 1.008000047877431, 0.0, 0.0, 0.0, 0.0, 0.0, 1.6518364926806304E9, 0.0, 2022-05-06 12:28:12.680
52.0, -242.48015352711082, -175.9566830652766, -191.74654067819938, -184.65008051227778, 0.1600000075995922, 0.11200000531971455, 1.008000047877431, 0.0, 0.0, 0.0, 0.0, 0.0, 1.6518364926806304E9, 0.0, 2022-05-06 12:28:12.680
53.0, -281.55836816411465, -203.9722736333497, -221.9424929204397, -211.09491309896111, 0.1600000075995922, 0.11200000531971455, 1.008000047877431, 0.0, 0.0, 0.0, 0.0, 0.0, 1.651836492696668E9, 0.0, 2022-05-06 12:28:12.696
53.0, -241.82941093482077, -109.9250094476156, -146.1945592178963, -174.35039603430778, 0.1600000075995922, 0.11200000531971455, 1.008000047877431, 0.0, 0.0, 0.0, 0.0, 0.0, 1.651836492696668E9, 0.0, 2022-05-06 12:28:12.696
54.0, -218.9150439063087, -91.82015376212075, -131.66504789004102, -164.72389354836196, 0.1600000075995922, 0.11200000531971455, 1.008000047877431, 0.0, 0.0, 0.0, 0.0, 0.0, 1.6518364926976297E9, 0.0, 2022-05-06 12:28:12.697
54.0, -244.42864140402526, -178.56339333439246, -193.53421285701916, -189.51943025458604, 0.1600000075995922, 0.11200000531971455, 1.008000047877431, 0.0, 0.0, 0.0, 0.0, 0.0, 1.6518364926976297E9, 0.0, 2022-05-06 12:28:12.697
55.0, -266.80820273887366, -197.15817591408268, -218.1913732648827, -196.67011896986514, 0.1600000075995922, 0.11200000531971455, 1.008000047877431, 0.0, 0.0, 0.0, 0.0, 0.0, 1.6518364927106533E9, 0.0, 2022-05-06 12:28:12.710
55.0, -235.7745129065588, -110.78518643742427, -132.36440918175504, -149.01631373446435, 0.1600000075995922, 0.11200000531971455, 1.008000047877431, 0.0, 0.0, 0.0, 0.0, 0.0, 1.6518364927106533E9, 0.0, 2022-05-06 12:28:12.710
56.0, -210.8779989015311, -85.15939194103703, -127.79799133585766, -150.407556517981, 0.1600000075995922, 0.11200000531971455, 1.008000047877431, 0.0, 0.0, 0.0, 0.0, 0.0, 1.6518364927266655E9, 0.0, 2022-05-06 12:28:12.726
56.0, -250.97720622643828, -168.3946053548716, -195.1872486374341, -189.43341255560517, 0.1600000075995922, 0.11200000531971455, 1.008000047877431, 0.0, 0.0, 0.0, 0.0, 0.0, 1.6518364927266655E9, 0.0, 2022-05-06 12:28:12.726
57.0, -278.611326999031, -200.30717167677358, -216.17556718876585, -200.56335482373834, 0.1600000075995922, 0.11200000531971455, 1.008000047877431, 0.0, 0.0, 0.0, 0.0, 0.0, 1.6518364927417588E9, 0.0, 2022-05-06 12:28:12.741
57.0, -241.65363563690335, -114.36053079506382, -142.013351067435, -166.6686415253207, 0.1600000075995922, 0.11200000531971455, 1.008000047877431, 0.0, 0.0, 0.0, 0.0, 0.0, 1.6518364927417588E9, 0.0, 2022-05-06 12:28:12.741
58.0, -222.77836056053638, -90.11101948237047, -126.4142283522524, -158.4408616228029, 0.1600000075995922, 0.11200000531971455, 1.008000047877431, 0.0, 0.0, 0.0, 0.0, 0.0, 1.6518364927425747E9, 0.0, 2022-05-06 12:28:12.742
58.0, -248.0413847612217, -176.62986505730078, -191.3276718831621, -171.863362563774, 0.1600000075995922, 0.11200000531971455, 1.008000047877431, 0.0, 0.0, 0.0, 0.0, 0.0, 1.6518364927425747E9, 0.0, 2022-05-06 12:28:12.742
59.0, -276.0494955293834, -204.24528633011505, -215.16953410068527, -185.95156569685787, 0.1600000075995922, 0.11200000531971455, 1.008000047877431, 0.0, 0.0, 0.0, 0.0, 0.0, 1.651836492756754E9, 0.0, 2022-05-06 12:28:12.756
59.0, -240.50922625046223, -113.81824530148879, -142.66035375976935, -177.8285029930994, 0.1600000075995922, 0.11200000531971455, 1.008000047877431, 0.0, 0.0, 0.0, 0.0, 0.0, 1.651836492756754E9, 0.0, 2022-05-06 12:28:12.756
60.0, -227.49437440466136, -92.15674475813285, -128.28417833009735, -152.44954189378768, 0.1600000075995922, 0.11200000531971455, 1.0240000486373901, 0.0, 0.0, 0.0, 0.0, 0.0, 1.6518364927575495E9, 0.0, 2022-05-06 12:28:12.757
60.0, -245.20280069485307, -159.37396666174755, -189.71203510230407, -191.25474383402616, 0.1600000075995922, 0.11200000531971455, 1.0240000486373901, 0.0, 0.0, 0.0, 0.0, 0.0, 1.6518364927575495E9, 0.0, 2022-05-06 12:28:12.757
61.0, -274.4712577480823, -208.05250448500738, -217.88470146851614, -215.59401274565607, 0.1600000075995922, 0.11200000531971455, 1.0240000486373901, 0.0, 0.0, 0.0, 0.0, 0.0, 1.6518364927706833E9, 0.0, 2022-05-06 12:28:12.770
61.0, -263.8948206733912, -134.87388205202296, -166.0609077825211, -192.48891081940383, 0.1600000075995922, 0.11200000531971455, 1.0240000486373901, 0.0, 0.0, 0.0, 0.0, 0.0, 1.6518364927706833E9, 0.0, 2022-05-06 12:28:12.770
62.0, -220.50450138747692, -79.69913800572976, -124.17028837883845, -163.34761036466807, 0.1600000075995922, 0.11200000531971455, 1.0240000486373901, 0.0, 0.0, 0.0, 0.0, 0.0, 1.6518364927866797E9, 0.0, 2022-05-06 12:28:12.786
62.0, -239.01326626818627, -162.58280082372949, -182.5875256867148, -175.8613156164065, 0.1600000075995922, 0.11200000531971455, 1.0240000486373901, 0.0, 0.0, 0.0, 0.0, 0.0, 1.6518364927866797E9, 0.0, 2022-05-06 12:28:12.786
63.0, -285.6610384155065, -212.12899543670937, -228.41625974373892, -205.6907576629892, 0.1600000075995922, 0.11200000531971455, 1.0240000486373901, 0.0, 0.0, 0.0, 0.0, 0.0, 1.6518364927875576E9, 0.0, 2022-05-06 12:28:12.787
63.0, -255.54362407233566, -122.98847999284044, -160.62309324694797, -180.92514015641063, 0.1600000075995922, 0.11200000531971455, 1.0240000486373901, 0.0, 0.0, 0.0, 0.0, 0.0, 1.6518364927875576E9, 0.0, 2022-05-06 12:28:12.787
64.0, -213.170557574369, -77.93016532668844, -123.05953809199855, -157.6629624320194, 0.1600000075995922, 0.11200000531971455, 1.0240000486373901, 0.0, 0.0, 0.0, 0.0, 0.0, 1.6518364928005977E9, 0.0, 2022-05-06 12:28:12.800
64.0, -240.75605964753777, -170.1411386341788, -186.61913783894852, -177.03938410244882, 0.1600000075995922, 0.11200000531971455, 1.0240000486373901, 0.0, 0.0, 0.0, 0.0, 0.0, 1.6518364928005977E9, 0.0, 2022-05-06 12:28:12.800
65.0, -278.7908421969041, -211.06312394933775, -219.1974063529633, -198.51762954797596, 0.1600000075995922, 0.11200000531971455, 1.0240000486373901, 0.0, 0.0, 0.0, 0.0, 0.0, 1.651836492816626E9, 0.0, 2022-05-06 12:28:12.816
65.0, -259.95670602004975, -125.16136186709628, -163.8768062083982, -181.13083465397358, 0.1600000075995922, 0.11200000531971455, 1.0240000486373901, 0.0, 0.0, 0.0, 0.0, 0.0, 1.651836492816626E9, 0.0, 2022-05-06 12:28:12.816
66.0, -218.53731401078403, -90.32419377984479, -133.5611771675758, -159.84706400614232, 0.1600000075995922, 0.11200000531971455, 1.0240000486373901, 0.0, 0.0, 0.0, 0.0, 0.0, 1.6518364928175445E9, 0.0, 2022-05-06 12:28:12.817
