%OpenBCI Raw EEG Data
%Number of channels = 4
%Sample Rate = 200 Hz
%Board = OpenBCI_GUI$BoardGanglionBLE
Sample Index, EXG Channel 0, EXG Channel 1, EXG Channel 2, EXG Channel 3, Accel Channel 0, Accel Channel 1, Accel Channel 2, Other, Other, Other, Other, Other, Timestamp, Other, Timestamp (Formatted)
0.0, -196.47377422219142, -65.5660560731776, -112.2213080204092, -147.3427085042931, 0.0, 0.0, 0.0, 0.0, 0.0, 0.0, 0.0, 0.0, 1.6518360903454747E9, 0.0, 2022-05-06 12:21:30.345
1.0, -262.61390493856743, -188.68356261448935, -203.16445524292067, -187.89818362379447, 0.0, 0.12800000607967377, 0.0, 0.0, 0.0, 0.0, 0.0, 0.0, 1.6518360903584714E9, 0.0, 2022-05-06 12:21:30.358
1.0, -279.6753285364248, -200.50538637442514, -203.88625593436882, -192.7376141664572, 0.0, 0.12800000607967377, 0.0, 0.0, 0.0, 0.0, 0.0, 0.0, 1.6518360903584714E9, 0.0, 2022-05-06 12:21:30.358
2.0, -216.31394348712638, -74.48571746749803, -107.54269317584112, -148.40857999166474, 0.1600000075995922, 0.12800000607967377, 0.0, 0.0, 0.0, 0.0, 0.0, 0.0, 1.6518360903914025E9, 0.0, 2022-05-06 12:21:30.391
2.0, -193.24624056043103, -61.990711715538055, -108.2158751678653, -142.61921486025676, 0.1600000075995922, 0.12800000607967377, 0.0, 0.0, 0.0, 0.0, 0.0, 0.0, 1.6518360903914025E9, 0.0, 2022-05-06 12:21:30.391
3.0, -249.07920699892566, -188.90421671187505, -202.1098034554161, -184.22560186730698, 0.1600000075995922, 0.12800000607967377, 0.0, 0.0, 0.0, 0.0, 0.0, 0.0, 1.6518360903924172E9, 0.0, 2022-05-06 12:21:30.392
3.0, -271.4812077335082, -195.0787915387191, -193.78478615405038, -190.04488619836047, 0.1600000075995922, 0.12800000607967377, 0.0, 0.0, 0.0, 0.0, 0.0, 0.0, 1.6518360903924172E9, 0.0, 2022-05-06 12:21:30.392
4.0, -201.58995736157522, -54.45855320477858, -81.9842168786563, -122.71172739611939, 0.1600000075995922, 0.12800000607967377, 0.0, 0.0, 0.0, 0.0, 0.0, 0.0, 1.6518360903934205E9, 0.0, 2022-05-06 12:21:30.393
4.0, -197.01979961572215, -56.65387447876856, -102.8079798319377, -135.73031914187595, 0.1600000075995922, 0.12800000607967377, 0.0, 0.0, 0.0, 0.0, 0.0, 0.0, 1.6518360903934205E9, 0.0, 2022-05-06 12:21:30.393
5.0, -262.20625584339723, -194.04657915094867, -213.20608662394807, -199.3759365878068, 0.1600000075995922, 0.12800000607967377, 0.0, 0.0, 0.0, 0.0, 0.0, 0.0, 1.6518360904034505E9, 0.0, 2022-05-06 12:21:30.403
5.0, -288.1162827364169, -205.69262761296704, -209.65692156599835, -204.0021928329952, 0.1600000075995922, 0.12800000607967377, 0.0, 0.0, 0.0, 0.0, 0.0, 0.0, 1.6518360904034505E9, 0.0, 2022-05-06 12:21:30.403
6.0, -218.718699158635, -67.0881953551434, -103.58213912276551, -148.73395128780976, 0.1600000075995922, 0.12800000607967377, 0.0, 0.0, 0.0, 0.0, 0.0, 0.0, 1.651836090404408E9, 0.0, 2022-05-06 12:21:30.404
6.0, -192.3374448711984, -56.63143507903442, -105.67274319799617, -139.01769120292738, 0.1600000075995922, 0.12800000607967377, 0.0, 0.0, 0.0, 0.0, 0.0, 0.0, 1.651836090404408E9, 0.0, 2022-05-06 12:21:30.404
7.0, -246.79038822604343, -180.78115400811657, -197.06841831514612, -182.18735639145598, 0.1600000075995922, 0.12800000607967377, 0.0, 0.0, 0.0, 0.0, 0.0, 0.0, 1.65183609041845E9, 0.0, 2022-05-06 12:21:30.418
7.0, -295.36794875049964, -211.4184144451283, -217.42843367392197, -204.51455912692472, 0.1600000075995922, 0.12800000607967377, 0.0, 0.0, 0.0, 0.0, 0.0, 0.0, 1.65183609041845E9, 0.0, 2022-05-06 12:21:30.418
8.0, -229.3512347326614, -80.85850699199364, -115.49746038159356, -163.3906192141585, 0.1600000075995922, 0.12800000607967377, 0.0, 0.0, 0.0, 0.0, 0.0, 0.0, 1.651836090450486E9, 0.0, 2022-05-06 12:21:30.450
8.0, -190.28423979552463, -51.79200453637168, -93.74246233934537, -133.01889167400077, 0.1600000075995922, 0.12800000607967377, 0.0, 0.0, 0.0, 0.0, 0.0, 0.0, 1.651836090450486E9, 0.0, 2022-05-06 12:21:30.450
9.0, -251.15111157437786, -185.72530174953863, -205.01196582103148, -187.06044603371993, 0.1600000075995922, 0.12800000607967377, 0.0, 0.0, 0.0, 0.0, 0.0, 0.0, 1.6518360904514227E9, 0.0, 2022-05-06 12:21:30.451
9.0, -293.3409229745157, -202.91762184584513, -211.81110394047573, -199.61155028501526, 0.1600000075995922, 0.12800000607967377, 0.0, 0.0, 0.0, 0.0, 0.0, 0.0, 1.6518360904514227E9, 0.0, 2022-05-06 12:21:30.451
10.0, -231.5764752062969, -78.52480941964313, -112.98050771141425, -157.32450148602948, 0.1600000075995922, 0.12800000607967377, 1.008000047877431, 0.0, 0.0, 0.0, 0.0, 0.0, 1.6518360904524653E9, 0.0, 2022-05-06 12:21:30.452
10.0, -208.31055758194998, -70.10255471942946, -116.83260466577485, -156.10903400043026, 0.1600000075995922, 0.12800000607967377, 1.008000047877431, 0.0, 0.0, 0.0, 0.0, 0.0, 1.6518360904524653E9, 0.0, 2022-05-06 12:21:30.452
11.0, -272.13569022575393, -205.47197351558134, -223.3486953037791, -201.66101546073332, 0.1600000075995922, 0.04800000227987766, 1.008000047877431, 0.0, 0.0, 0.0, 0.0, 0.0, 1.651836090453457E9, 0.0, 2022-05-06 12:21:30.453
11.0, -277.0686182673089, -198.3699034997262, -202.4875333509408, -182.8119196840562, 0.1600000075995922, 0.04800000227987766, 1.008000047877431, 0.0, 0.0, 0.0, 0.0, 0.0, 1.651836090453457E9, 0.0, 2022-05-06 12:21:30.453
12.0, -228.16942634666339, -80.24516339926049, -115.27306638425216, -143.7112656473182, 0.0800000037997961, 0.04800000227987766, 1.008000047877431, 0.0, 0.0, 0.0, 0.0, 0.0, 1.651836090463447E9, 0.0, 2022-05-06 12:21:30.463
12.0, -209.68684076564386, -78.25927652278915, -123.81125798309222, -148.3487415923737, 0.0800000037997961, 0.04800000227987766, 1.008000047877431, 0.0, 0.0, 0.0, 0.0, 0.0, 1.651836090463447E9, 0.0, 2022-05-06 12:21:30.463
13.0, -265.7030623019673, -185.8524583480321, -209.09593657264486, -196.61215052055195, 0.0800000037997961, 0.04800000227987766, 1.008000047877431, 0.0, 0.0, 0.0, 0.0, 0.0, 1.651836090478505E9, 0.0, 2022-05-06 12:21:30.478
13.0, -282.4428545036353, -190.41887619392946, -208.84536327561364, -205.35229671699926, 0.0800000037997961, 0.04800000227987766, 1.008000047877431, 0.0, 0.0, 0.0, 0.0, 0.0, 1.651836090478505E9, 0.0, 2022-05-06 12:21:30.478
14.0, -243.2823620676063, -100.57525955839083, -125.73356656031683, -163.21858381619677, 0.0800000037997961, 0.04800000227987766, 1.008000047877431, 0.0, 0.0, 0.0, 0.0, 0.0, 1.6518360905095084E9, 0.0, 2022-05-06 12:21:30.509
14.0, -233.96253137802705, -97.34398599667475, -139.4216003981419, -163.84688700875267, 0.0800000037997961, 0.04800000227987766, 1.008000047877431, 0.0, 0.0, 0.0, 0.0, 0.0, 1.6518360905095084E9, 0.0, 2022-05-06 12:21:30.509
15.0, -258.7244089846499, -181.93678309442475, -204.43228132789955, -182.9203767827712, 0.0800000037997961, 0.04800000227987766, 1.008000047877431, 0.0, 0.0, 0.0, 0.0, 0.0, 1.6518360905105011E9, 0.0, 2022-05-06 12:21:30.510
15.0, -269.46166175743565, -184.27048066677526, -199.10666379099712, -187.27362033119425, 0.0800000037997961, 0.04800000227987766, 1.008000047877431, 0.0, 0.0, 0.0, 0.0, 0.0, 1.6518360905105011E9, 0.0, 2022-05-06 12:21:30.510
16.0, -228.8276487388648, -85.79517493350431, -120.5201460220851, -163.22606361610815, 0.0800000037997961, 0.04800000227987766, 1.008000047877431, 0.0, 0.0, 0.0, 0.0, 0.0, 1.6518360905404644E9, 0.0, 2022-05-06 12:21:30.540
16.0, -233.203331687022, -100.3994842604734, -132.3793687815778, -161.39725253777578, 0.0800000037997961, 0.04800000227987766, 1.008000047877431, 0.0, 0.0, 0.0, 0.0, 0.0, 1.6518360905404644E9, 0.0, 2022-05-06 12:21:30.540
17.0, -247.32893381966278, -169.62503244029358, -191.83255837718025, -169.1725045456551, 0.0800000037997961, 0.04800000227987766, 1.008000047877431, 0.0, 0.0, 0.0, 0.0, 0.0, 1.6518360905414195E9, 0.0, 2022-05-06 12:21:30.541
17.0, -265.0373601098545, -176.52140795858577, -195.59863763255998, -196.72434751922265, 0.0800000037997961, 0.04800000227987766, 1.008000047877431, 0.0, 0.0, 0.0, 0.0, 0.0, 1.6518360905414195E9, 0.0, 2022-05-06 12:21:30.541
18.0, -229.71400502836332, -73.87985367467627, -108.2906731669791, -153.3901267326437, 0.0800000037997961, 0.04800000227987766, 1.008000047877431, 0.0, 0.0, 0.0, 0.0, 0.0, 1.651836090542408E9, 0.0, 2022-05-06 12:21:30.542
18.0, -221.65452062385157, -85.2790687396191, -121.17836841428652, -155.52560960734263, 0.0800000037997961, 0.04800000227987766, 1.008000047877431, 0.0, 0.0, 0.0, 0.0, 0.0, 1.651836090542408E9, 0.0, 2022-05-06 12:21:30.542
19.0, -261.4021773529239, -188.735921213869, -202.9662405452691, -182.09011899260804, 0.0800000037997961, 0.04800000227987766, 1.008000047877431, 0.0, 0.0, 0.0, 0.0, 0.0, 1.651836090543445E9, 0.0, 2022-05-06 12:21:30.543
19.0, -283.99491298524663, -189.68211590265855, -212.29729093471542, -199.0430854917504, 0.0800000037997961, 0.04800000227987766, 1.008000047877431, 0.0, 0.0, 0.0, 0.0, 0.0, 1.651836090543445E9, 0.0, 2022-05-06 12:21:30.543
20.0, -227.2007922581397, -77.16348583577201, -109.55475935200229, -149.85218137456104, 0.0800000037997961, 0.04800000227987766, 0.5120000243186951, 0.0, 0.0, 0.0, 0.0, 0.0, 1.6518360905545137E9, 0.0, 2022-05-06 12:21:30.554
20.0, -210.89108855137601, -76.92039233865216, -115.04119258699939, -135.18429374834523, 0.0800000037997961, 0.04800000227987766, 0.5120000243186951, 0.0, 0.0, 0.0, 0.0, 0.0, 1.6518360905545137E9, 0.0, 2022-05-06 12:21:30.554
21.0, -258.67953018518165, -188.2983529190533, -199.90326248155907, -169.8419466377236, 0.0800000037997961, 0.0800000037997961, 0.5120000243186951, 0.0, 0.0, 0.0, 0.0, 0.0, 1.6518360905684729E9, 0.0, 2022-05-06 12:21:30.568
21.0, -269.31580565916374, -176.97019595326856, -192.76005356619135, -173.3649323959835, 0.0800000037997961, 0.0800000037997961, 0.5120000243186951, 0.0, 0.0, 0.0, 0.0, 0.0, 1.6518360905684729E9, 0.0, 2022-05-06 12:21:30.568
22.0, -219.58635594835505, -72.98227768531069, -111.12177743343636, -149.69510557642207, 0.11200000531971455, 0.0800000037997961, 0.5120000243186951, 0.0, 0.0, 0.0, 0.0, 0.0, 1.6518360906004837E9, 0.0, 2022-05-06 12:21:30.600
22.0, -219.44797964999452, -89.54629458906129, -127.79425143590197, -166.88742567272857, 0.11200000531971455, 0.0800000037997961, 0.5120000243186951, 0.0, 0.0, 0.0, 0.0, 0.0, 1.6518360906004837E9, 0.0, 2022-05-06 12:21:30.600
23.0, -274.91069599287584, -187.02304703416303, -214.8254633047618, -201.83679075865075, 0.11200000531971455, 0.0800000037997961, 0.5120000243186951, 0.0, 0.0, 0.0, 0.0, 0.0, 1.651836090601462E9, 0.0, 2022-05-06 12:21:30.601
23.0, -272.04967252677307, -187.1464637327008, -206.4181682043709, -198.1455095023848, 0.11200000531971455, 0.0800000037997961, 0.5120000243186951, 0.0, 0.0, 0.0, 0.0, 0.0, 1.651836090601462E9, 0.0, 2022-05-06 12:21:30.601
24.0, -237.23120393930003, -92.01836845977232, -123.7065407843329, -165.024955494795, 0.11200000531971455, 0.0800000037997961, 0.5120000243186951, 0.0, 0.0, 0.0, 0.0, 0.0, 1.651836090602464E9, 0.0, 2022-05-06 12:21:30.602
24.0, -229.4970908309333, -83.86912645632401, -120.23591362545267, -153.21809133468196, 0.11200000531971455, 0.0800000037997961, 0.5120000243186951, 0.0, 0.0, 0.0, 0.0, 0.0, 1.651836090602464E9, 0.0, 2022-05-06 12:21:30.602
25.0, -252.6994301560335, -170.66472462797537, -188.31331251887605, -169.43803744250908, 0.11200000531971455, 0.0800000037997961, 0.5120000243186951, 0.0, 0.0, 0.0, 0.0, 0.0, 1.6518360906034763E9, 0.0, 2022-05-06 12:21:30.603
25.0, -268.1040780735202, -170.10747953457758, -189.65219670301303, -179.7302421205677, 0.11200000531971455, 0.0800000037997961, 0.5120000243186951, 0.0, 0.0, 0.0, 0.0, 0.0, 1.6518360906034763E9, 0.0, 2022-05-06 12:21:30.603
26.0, -231.89062680257484, -83.84294715663418, -114.82801828952506, -154.06704862462357, 0.11200000531971455, 0.0800000037997961, 0.5120000243186951, 0.0, 0.0, 0.0, 0.0, 0.0, 1.6518360906455069E9, 0.0, 2022-05-06 12:21:30.645
26.0, -230.06555562419817, -93.7312426394783, -129.27151191839948, -161.30001513892785, 0.11200000531971455, 0.0800000037997961, 0.5120000243186951, 0.0, 0.0, 0.0, 0.0, 0.0, 1.6518360906455069E9, 0.0, 2022-05-06 12:21:30.645
27.0, -254.42726393556222, -173.74640219146386, -193.50429365737364, -176.12123866332695, 0.11200000531971455, 0.0800000037997961, 0.5120000243186951, 0.0, 0.0, 0.0, 0.0, 0.0, 1.651836090646458E9, 0.0, 2022-05-06 12:21:30.646
27.0, -267.1765828845091, -179.2515349262394, -197.98095390433446, -183.3654248774983, 0.11200000531971455, 0.0800000037997961, 0.5120000243186951, 0.0, 0.0, 0.0, 0.0, 0.0, 1.651836090646458E9, 0.0, 2022-05-06 12:21:30.646
28.0, -239.14977261656895, -98.91474397806451, -131.9343206868507, -165.0586145943962, 0.11200000531971455, 0.0800000037997961, 0.5120000243186951, 0.0, 0.0, 0.0, 0.0, 0.0, 1.6518360906474617E9, 0.0, 2022-05-06 12:21:30.647
28.0, -230.74995731608942, -94.23986903345212, -129.79883781215176, -164.41535180201754, 0.11200000531971455, 0.0800000037997961, 0.5120000243186951, 0.0, 0.0, 0.0, 0.0, 0.0, 1.6518360906474617E9, 0.0, 2022-05-06 12:21:30.647
29.0, -261.7051092493348, -183.68705627368763, -202.71940714819357, -192.08313167421147, 0.11200000531971455, 0.0800000037997961, 0.5120000243186951, 0.0, 0.0, 0.0, 0.0, 0.0, 1.6518360906484604E9, 0.0, 2022-05-06 12:21:30.648
29.0, -260.61305846227333, -168.5778604527004, -184.15080386819318, -168.5404614531435, 0.11200000531971455, 0.0800000037997961, 0.5120000243186951, 0.0, 0.0, 0.0, 0.0, 0.0, 1.6518360906484604E9, 0.0, 2022-05-06 12:21:30.648
30.0, -228.73041134001687, -85.60444003576413, -115.7779528782703, -146.95749880885705, 0.11200000531971455, 0.0800000037997961, 0.7680000364780426, 0.0, 0.0, 0.0, 0.0, 0.0, 1.6518360906584847E9, 0.0, 2022-05-06 12:21:30.658
30.0, -210.191727259662, -80.04320880165324, -112.13529032142833, -144.268510740716, 0.11200000531971455, 0.0800000037997961, 0.7680000364780426, 0.0, 0.0, 0.0, 0.0, 0.0, 1.6518360906584847E9, 0.0, 2022-05-06 12:21:30.658
31.0, -255.9157441179268, -174.88707167794928, -198.28762570070103, -177.6994764446281, 0.11200000531971455, 0.11200000531971455, 0.7680000364780426, 0.0, 0.0, 0.0, 0.0, 0.0, 1.6518360906594102E9, 0.0, 2022-05-06 12:21:30.659
31.0, -264.13230432057753, -181.61141179827973, -197.24793351301923, -194.83943794155493, 0.11200000531971455, 0.11200000531971455, 0.7680000364780426, 0.0, 0.0, 0.0, 0.0, 0.0, 1.6518360906594102E9, 0.0, 2022-05-06 12:21:30.659
32.0, -243.6189530636184, -92.37739885551855, -126.79569814773276, -171.40522481920198, 0.144000006839633, 0.11200000531971455, 0.7680000364780426, 0.0, 0.0, 0.0, 0.0, 0.0, 1.6518360906735628E9, 0.0, 2022-05-06 12:21:30.673
32.0, -229.54944943031296, -93.88083863770589, -131.5640705912374, -173.8025006907992, 0.144000006839633, 0.11200000531971455, 0.7680000364780426, 0.0, 0.0, 0.0, 0.0, 0.0, 1.6518360906735628E9, 0.0, 2022-05-06 12:21:30.673
33.0, -259.49856827547774, -178.69054993288592, -200.72978037176654, -186.37604434182867, 0.144000006839633, 0.11200000531971455, 0.7680000364780426, 0.0, 0.0, 0.0, 0.0, 0.0, 1.6518360906745336E9, 0.0, 2022-05-06 12:21:30.674
33.0, -273.3997764107771, -185.26155415503308, -204.58935712603852, -191.6680027791299, 0.144000006839633, 0.11200000531971455, 0.7680000364780426, 0.0, 0.0, 0.0, 0.0, 0.0, 1.6518360906745336E9, 0.0, 2022-05-06 12:21:30.674
34.0, -219.51529784919694, -88.56644080067053, -116.27161967242137, -152.2419774462469, 0.144000006839633, 0.11200000531971455, 0.7680000364780426, 0.0, 0.0, 0.0, 0.0, 0.0, 1.6518360907045708E9, 0.0, 2022-05-06 12:21:30.704
34.0, -221.77419742243364, -79.39246620936319, -112.8122122134082, -143.32979585183784, 0.144000006839633, 0.11200000531971455, 0.7680000364780426, 0.0, 0.0, 0.0, 0.0, 0.0, 1.6518360907045708E9, 0.0, 2022-05-06 12:21:30.704
35.0, -263.1786298318766, -180.79237370798364, -199.7798457830213, -182.32199278986081, 0.144000006839633, 0.11200000531971455, 0.7680000364780426, 0.0, 0.0, 0.0, 0.0, 0.0, 1.6518360907054152E9, 0.0, 2022-05-06 12:21:30.705
35.0, -274.5554054970853, -181.30847990186885, -204.77261222386733, -187.7037088260986, 0.144000006839633, 0.11200000531971455, 0.7680000364780426, 0.0, 0.0, 0.0, 0.0, 0.0, 1.6518360907054152E9, 0.0, 2022-05-06 12:21:30.705
36.0, -229.22033823421225, -89.19474399322644, -119.01296633994207, -158.92143876710907, 0.144000006839633, 0.11200000531971455, 0.7680000364780426, 0.0, 0.0, 0.0, 0.0, 0.0, 1.651836090706391E9, 0.0, 2022-05-06 12:21:30.706
36.0, -222.7503113108687, -90.23817608086392, -124.17028837883845, -153.17321253521368, 0.144000006839633, 0.11200000531971455, 0.7680000364780426, 0.0, 0.0, 0.0, 0.0, 0.0, 1.651836090706391E9, 0.0, 2022-05-06 12:21:30.706
37.0, -254.55816043401137, -178.75038833217695, -195.47522093402222, -184.45747566455975, 0.144000006839633, 0.11200000531971455, 0.7680000364780426, 0.0, 0.0, 0.0, 0.0, 0.0, 1.6518360907184792E9, 0.0, 2022-05-06 12:21:30.718
37.0, -273.7475871066563, -192.91712936433032, -205.1129431198351, -188.97901471098885, 0.144000006839633, 0.11200000531971455, 0.7680000364780426, 0.0, 0.0, 0.0, 0.0, 0.0, 1.6518360907184792E9, 0.0, 2022-05-06 12:21:30.718
38.0, -224.7174986875616, -87.6913042110391, -108.7394611616619, -136.4147208337672, 0.144000006839633, 0.11200000531971455, 0.7680000364780426, 0.0, 0.0, 0.0, 0.0, 0.0, 1.651836090763524E9, 0.0, 2022-05-06 12:21:30.763
38.0, -202.87648294633254, -69.3470949283801, -106.01307409396395, -135.61812214320526, 0.144000006839633, 0.11200000531971455, 0.7680000364780426, 0.0, 0.0, 0.0, 0.0, 0.0, 1.651836090763524E9, 0.0, 2022-05-06 12:21:30.763
39.0, -254.92467062966898, -167.63914556382224, -194.7758596423082, -186.05815284559503, 0.144000006839633, 0.11200000531971455, 0.7680000364780426, 0.0, 0.0, 0.0, 0.0, 0.0, 1.6518360907804544E9, 0.0, 2022-05-06 12:21:30.780
39.0, -272.6256171199493, -186.55929943965748, -204.27146562980488, -192.35614437097684, 0.144000006839633, 0.11200000531971455, 0.7680000364780426, 0.0, 0.0, 0.0, 0.0, 0.0, 1.6518360907804544E9, 0.0, 2022-05-06 12:21:30.780
40.0, -249.37465909542516, -108.20465546799824, -138.40060771023855, -167.3175141676329, 0.144000006839633, 0.11200000531971455, 0.8960000425577164, 0.0, 0.0, 0.0, 0.0, 0.0, 1.6518360907814088E9, 0.0, 2022-05-06 12:21:30.781
40.0, -226.10126167116687, -95.33565972046927, -130.25136570679024, -167.22775656869635, 0.144000006839633, 0.11200000531971455, 0.8960000425577164, 0.0, 0.0, 0.0, 0.0, 0.0, 1.6518360907814088E9, 0.0, 2022-05-06 12:21:30.781
41.0, -267.7487875777297, -182.58004588680342, -206.14141560764983, -196.997360215988, 0.144000006839633, 0.11200000531971455, 0.8960000425577164, 0.0, 0.0, 0.0, 0.0, 0.0, 1.651836090782415E9, 0.0, 2022-05-06 12:21:30.782
41.0, -270.4489953457378, -177.99866844108328, -196.297998924274, -187.71492852596566, 0.144000006839633, 0.11200000531971455, 0.8960000425577164, 0.0, 0.0, 0.0, 0.0, 0.0, 1.651836090782415E9, 0.0, 2022-05-06 12:21:30.782
42.0, -240.6868714983575, -93.18895714590326, -124.45078087551519, -159.30290856258944, 0.144000006839633, 0.11200000531971455, 0.8960000425577164, 0.0, 0.0, 0.0, 0.0, 0.0, 1.6518360907834015E9, 0.0, 2022-05-06 12:21:30.783
42.0, -217.05444367835298, -81.99917647847906, -117.1130971624516, -158.37541337357834, 0.144000006839633, 0.11200000531971455, 0.8960000425577164, 0.0, 0.0, 0.0, 0.0, 0.0, 1.6518360907834015E9, 0.0, 2022-05-06 12:21:30.783
43.0, -253.50350864650682, -176.3194533609785, -196.93378191674128, -187.42321632942185, 0.144000006839633, 0.11200000531971455, 0.8960000425577164, 0.0, 0.0, 0.0, 0.0, 0.0, 1.6518360908125706E9, 0.0, 2022-05-06 12:21:30.812
43.0, -273.0070869154297, -188.42550951754674, -210.07205046107993, -190.71432829042897, 0.144000006839633, 0.11200000531971455, 0.8960000425577164, 0.0, 0.0, 0.0, 0.0, 0.0, 1.6518360908125706E9, 0.0, 2022-05-06 12:21:30.812
44.0, -214.51505160843953, -89.87166588520631, -116.67552886763588, -149.6427469770424, 0.144000006839633, 0.11200000531971455, 0.8960000425577164, 0.0, 0.0, 0.0, 0.0, 0.0, 1.6518360908134084E9, 0.0, 2022-05-06 12:21:30.813
44.0, -226.7894032630138, -74.10424767201766, -101.31575974961743, -140.26307788817212, 0.144000006839633, 0.11200000531971455, 0.8960000425577164, 0.0, 0.0, 0.0, 0.0, 0.0, 1.6518360908134084E9, 0.0, 2022-05-06 12:21:30.813
45.0, -250.92671757703647, -158.1323198764585, -191.3725506826304, -169.11640604631975, 0.144000006839633, 0.11200000531971455, 0.8960000425577164, 0.0, 0.0, 0.0, 0.0, 0.0, 1.6518360908144426E9, 0.0, 2022-05-06 12:21:30.814
45.0, -269.34946475876495, -175.48545567085966, -207.7832316881977, -188.2946130190976, 0.144000006839633, 0.11200000531971455, 0.8960000425577164, 0.0, 0.0, 0.0, 0.0, 0.0, 1.6518360908144426E9, 0.0, 2022-05-06 12:21:30.814
46.0, -237.47803733637556, -97.71797599224374, -124.36850307649001, -155.43959190836176, 0.144000006839633, 0.11200000531971455, 0.8960000425577164, 0.0, 0.0, 0.0, 0.0, 0.0, 1.6518360908154964E9, 0.0, 2022-05-06 12:21:30.815
46.0, -199.8209846825339, -70.30450931703672, -98.04334728838876, -124.20020757848397, 0.144000006839633, 0.11200000531971455, 0.8960000425577164, 0.0, 0.0, 0.0, 0.0, 0.0, 1.6518360908154964E9, 0.0, 2022-05-06 12:21:30.815
47.0, -251.59615966910496, -169.1313656461425, -197.962254404556, -185.3288723542355, 0.144000006839633, 0.11200000531971455, 0.8960000425577164, 0.0, 0.0, 0.0, 0.0, 0.0, 1.6518360908235416E9, 0.0, 2022-05-06 12:21:30.823
47.0, -266.17054979642853, -179.34877232508734, -204.62675612559542, -195.20220823725685, 0.144000006839633, 0.11200000531971455, 0.8960000425577164, 0.0, 0.0, 0.0, 0.0, 0.0, 1.6518360908235416E9, 0.0, 2022-05-06 12:21:30.823
48.0, -236.76745634479448, -95.77696791524068, -122.8201844948344, -159.14209286449477, 0.144000006839633, 0.11200000531971455, 0.8960000425577164, 0.0, 0.0, 0.0, 0.0, 0.0, 1.651836090824482E9, 0.0, 2022-05-06 12:21:30.824
48.0, -222.638114312198, -81.93185827927664, -119.17004213808104, -145.91780662117526, 0.144000006839633, 0.11200000531971455, 0.8960000425577164, 0.0, 0.0, 0.0, 0.0, 0.0, 1.651836090824482E9, 0.0, 2022-05-06 12:21:30.824
49.0, -243.9443243597634, -168.5442013530992, -184.6631701621227, -184.3265791661106, 0.144000006839633, 0.11200000531971455, 0.8960000425577164, 0.0, 0.0, 0.0, 0.0, 0.0, 1.6518360908385675E9, 0.0, 2022-05-06 12:21:30.838
49.0, -280.2363135297783, -197.22923401324078, -216.5607768842019, -191.75028057815507, 0.144000006839633, 0.11200000531971455, 0.8960000425577164, 0.0, 0.0, 0.0, 0.0, 0.0, 1.6518360908385675E9, 0.0, 2022-05-06 12:21:30.838
50.0, -245.04385494673625, -98.34253928484395, -130.51689860364422, -169.2847015443258, 0.144000006839633, 0.11200000531971455, 0.944000044837594, 0.0, 0.0, 0.0, 0.0, 0.0, 1.6518360908535683E9, 0.0, 2022-05-06 12:21:30.853
50.0, -223.17292000586167, -90.40273167891428, -122.03480550413951, -163.47289701318368, 0.144000006839633, 0.11200000531971455, 0.944000044837594, 0.0, 0.0, 0.0, 0.0, 0.0, 1.6518360908535683E9, 0.0, 2022-05-06 12:21:30.853
51.0, -251.57372026937082, -174.9543898771517, -193.27615976007655, -179.1430778275244, 0.144000006839633, 0.11200000531971455, 0.944000044837594, 0.0, 0.0, 0.0, 0.0, 0.0, 1.6518360908545616E9, 0.0, 2022-05-06 12:21:30.854
51.0, -262.6326044383459, -179.8125199195929, -201.60117706144229, -186.89215053571388, 0.144000006839633, 0.11200000531971455, 0.944000044837594, 0.0, 0.0, 0.0, 0.0, 0.0, 1.6518360908545616E9, 0.0, 2022-05-06 12:21:30.854
52.0, -242.0631546820514, -98.51831458276138, -128.54597132699564, -168.82843374973163, 0.1600000075995922, 0.11200000531971455, 0.944000044837594, 0.0, 0.0, 0.0, 0.0, 0.0, 1.6518360908844848E9, 0.0, 2022-05-06 12:21:30.884
52.0, -215.8202766929753, -80.4620775966905, -117.28887246036902, -155.08430141257122, 0.1600000075995922, 0.11200000531971455, 0.944000044837594, 0.0, 0.0, 0.0, 0.0, 0.0, 1.6518360908844848E9, 0.0, 2022-05-06 12:21:30.884
53.0, -245.20093074487522, -163.32704091491178, -191.19677538471296, -184.63325096247718, 0.1600000075995922, 0.11200000531971455, 0.944000044837594, 0.0, 0.0, 0.0, 0.0, 0.0, 1.6518360908854644E9, 0.0, 2022-05-06 12:21:30.885
53.0, -261.7312885490246, -182.0265406933613, -199.50683308625594, -178.8438858310692, 0.1600000075995922, 0.11200000531971455, 0.944000044837594, 0.0, 0.0, 0.0, 0.0, 0.0, 1.6518360908854644E9, 0.0, 2022-05-06 12:21:30.885
54.0, -238.73838362144306, -104.8088263082318, -126.83683704724535, -157.728410681244, 0.1600000075995922, 0.11200000531971455, 0.944000044837594, 0.0, 0.0, 0.0, 0.0, 0.0, 1.6518360908864741E9, 0.0, 2022-05-06 12:21:30.886
54.0, -208.23949948279187, -70.12873401911929, -103.2156289271079, -129.32761041773483, 0.1600000075995922, 0.11200000531971455, 0.944000044837594, 0.0, 0.0, 0.0, 0.0, 0.0, 1.6518360908864741E9, 0.0, 2022-05-06 12:21:30.886
55.0, -237.03672914160416, -150.47300476720557, -179.83121941937134, -181.2112425030209, 0.1600000075995922, 0.11200000531971455, 0.944000044837594, 0.0, 0.0, 0.0, 0.0, 0.0, 1.651836090898468E9, 0.0, 2022-05-06 12:21:30.898
55.0, -264.57735241530463, -183.02135408157483, -199.58163108536974, -192.15792967332527, 0.1600000075995922, 0.11200000531971455, 0.944000044837594, 0.0, 0.0, 0.0, 0.0, 0.0, 1.651836090898468E9, 0.0, 2022-05-06 12:21:30.898
56.0, -235.2378372629173, -102.92391673056409, -131.4930124920793, -163.53273541247472, 0.1600000075995922, 0.11200000531971455, 0.944000044837594, 0.0, 0.0, 0.0, 0.0, 0.0, 1.6518360909135284E9, 0.0, 2022-05-06 12:21:30.913
56.0, -205.8534433110617, -71.21704490622506, -103.61205832241103, -149.26875698147342, 0.1600000075995922, 0.11200000531971455, 0.944000044837594, 0.0, 0.0, 0.0, 0.0, 0.0, 1.6518360909135284E9, 0.0, 2022-05-06 12:21:30.913
57.0, -253.27163484925404, -163.40931871393695, -187.7037088260986, -174.31112708477303, 0.1600000075995922, 0.11200000531971455, 0.944000044837594, 0.0, 0.0, 0.0, 0.0, 0.0, 1.6518360909144828E9, 0.0, 2022-05-06 12:21:30.914
57.0, -282.98513999721035, -199.64894928457215, -222.73161181109026, -203.94609433365986, 0.1600000075995922, 0.11200000531971455, 0.944000044837594, 0.0, 0.0, 0.0, 0.0, 0.0, 1.6518360909144828E9, 0.0, 2022-05-06 12:21:30.914
58.0, -247.19055752130225, -109.90257004788145, -139.18972660088912, -179.79008051985875, 0.1600000075995922, 0.11200000531971455, 0.944000044837594, 0.0, 0.0, 0.0, 0.0, 0.0, 1.6518360909445157E9, 0.0, 2022-05-06 12:21:30.944
58.0, -223.494551402051, -86.72267012251541, -113.43677550600842, -149.8708808743395, 0.1600000075995922, 0.11200000531971455, 0.944000044837594, 0.0, 0.0, 0.0, 0.0, 0.0, 1.6518360909445157E9, 0.0, 2022-05-06 12:21:30.944
59.0, -235.22287766309455, -153.33776813326403, -174.8459327784367, -163.22980351606384, 0.1600000075995922, 0.11200000531971455, 0.944000044837594, 0.0, 0.0, 0.0, 0.0, 0.0, 1.6518360909454665E9, 0.0, 2022-05-06 12:21:30.945
59.0, -260.3213462657295, -176.87295855442062, -196.91134251700714, -181.7759673963301, 0.1600000075995922, 0.11200000531971455, 0.944000044837594, 0.0, 0.0, 0.0, 0.0, 0.0, 1.6518360909454665E9, 0.0, 2022-05-06 12:21:30.945
60.0, -233.88399347895756, -92.88976514944807, -124.86216987064108, -153.40508633246645, 0.1600000075995922, 0.11200000531971455, 0.9760000463575125, 0.0, 0.0, 0.0, 0.0, 0.0, 1.6518360909464595E9, 0.0, 2022-05-06 12:21:30.946
60.0, -203.3028315412812, -65.681992971804, -101.5102345473133, -134.18200056022033, 0.1600000075995922, 0.11200000531971455, 0.9760000463575125, 0.0, 0.0, 0.0, 0.0, 0.0, 1.6518360909464595E9, 0.0, 2022-05-06 12:21:30.946
61.0, -246.3602997311391, -165.7654556860216, -192.4833009694703, -193.37713705888018, 0.1600000075995922, 0.12800000607967377, 0.9760000463575125, 0.0, 0.0, 0.0, 0.0, 0.0, 1.651836090958496E9, 0.0, 2022-05-06 12:21:30.958
61.0, -267.1017848853953, -186.53686003992334, -207.13996889581904, -193.54917245684192, 0.1600000075995922, 0.12800000607967377, 0.9760000463575125, 0.0, 0.0, 0.0, 0.0, 0.0, 1.651836090958496E9, 0.0, 2022-05-06 12:21:30.958
62.0, -250.11515928665176, -110.39249694207683, -142.11058846628293, -174.67389738047495, 0.1600000075995922, 0.12800000607967377, 0.9760000463575125, 0.0, 0.0, 0.0, 0.0, 0.0, 1.651836090973482E9, 0.0, 2022-05-06 12:21:30.973
62.0, -218.61024205991998, -78.52480941964313, -112.60651771584526, -156.7261174931191, 0.1600000075995922, 0.12800000607967377, 0.9760000463575125, 0.0, 0.0, 0.0, 0.0, 0.0, 1.651836090973482E9, 0.0, 2022-05-06 12:21:30.973
63.0, -226.49769106647, -149.09672158351168, -170.8031009263359, -158.74566346919164, 0.1600000075995922, 0.12800000607967377, 0.9760000463575125, 0.0, 0.0, 0.0, 0.0, 0.0, 1.6518360909745305E9, 0.0, 2022-05-06 12:21:30.974
63.0, -265.7816002010368, -193.47063455777243, -210.80507085239515, -177.38532484835014, 0.1600000075995922, 0.12800000607967377, 0.9760000463575125, 0.0, 0.0, 0.0, 0.0, 0.0, 1.6518360909745305E9, 0.0, 2022-05-06 12:21:30.974
64.0, -232.66852599335834, -104.70410910947248, -132.03903788561, -165.77293548593298, 0.1600000075995922, 0.12800000607967377, 0.9760000463575125, 0.0, 0.0, 0.0, 0.0, 0.0, 1.6518360910044928E9, 0.0, 2022-05-06 12:21:31.004
64.0, -216.29524398734793, -79.8337744041346, -111.31999213108793, -157.48905708407983, 0.1600000075995922, 0.12800000607967377, 0.9760000463575125, 0.0, 0.0, 0.0, 0.0, 0.0, 1.6518360910044928E9, 0.0, 2022-05-06 12:21:31.004
65.0, -244.2061173566617, -154.94966501416638, -179.23657532641664, -178.7690878319554, 0.1600000075995922, 0.12800000607967377, 0.9760000463575125, 0.0, 0.0, 0.0, 0.0, 0.0, 1.6518360910054693E9, 0.0, 2022-05-06 12:21:31.005
65.0, -255.26126162568107, -178.67933023301885, -198.86731019383296, -186.34238524222746, 0.1600000075995922, 0.12800000607967377, 0.9760000463575125, 0.0, 0.0, 0.0, 0.0, 0.0, 1.6518360910054693E9, 0.0, 2022-05-06 12:21:31.005
66.0, -244.59506695205346, -114.7008616910316, -137.13652152521536, -168.19265075726435, 0.1600000075995922, 0.12800000607967377, 0.9760000463575125, 0.0, 0.0, 0.0, 0.0, 0.0, 1.6518360910064592E9, 0.0, 2022-05-06 12:21:31.006
66.0, -222.61193501250818, -81.2437166874297, -105.99063469422981, -146.29553651669994, 0.1600000075995922, 0.12800000607967377, 0.9760000463575125, 0.0, 0.0, 0.0, 0.0, 0.0, 1.6518360910064592E9, 0.0, 2022-05-06 12:21:31.006
67.0, -244.8718195487745, -161.13919944083318, -190.2206614962779, -181.31221980182454, 0.1600000075995922, 0.12800000607967377, 0.9760000463575125, 0.0, 0.0, 0.0, 0.0, 0.0, 1.651836091034544E9, 0.0, 2022-05-06 12:21:31.034
67.0, -264.0649861213751, -185.07829905720428, -211.54557104362175, -187.60273152729496, 0.1600000075995922, 0.12800000607967377, 0.9760000463575125, 0.0, 0.0, 0.0, 0.0, 0.0, 1.651836091034544E9, 0.0, 2022-05-06 12:21:31.034
68.0, -229.07074223598465, -105.61290479870513, -131.7847246886231, -158.69330486981198, 0.1600000075995922, 0.12800000607967377, 0.9760000463575125, 0.0, 0.0, 0.0, 0.0, 0.0, 1.6518360910354688E9, 0.0, 2022-05-06 12:21:31.035
68.0, -208.77804507641122, -74.11172747192904, -110.96470163529739, -146.32919561630115, 0.1600000075995922, 0.12800000607967377, 0.9760000463575125, 0.0, 0.0, 0.0, 0.0, 0.0, 1.6518360910354688E9, 0.0, 2022-05-06 12:21:31.035
69.0, -249.7710884907283, -153.71175812883303, -177.99866844108328, -166.29278157977387, 0.1600000075995922, 0.12800000607967377, 0.9760000463575125, 0.0, 0.0, 0.0, 0.0, 0.0, 1.6518360910364556E9, 0.0, 2022-05-06 12:21:31.036
69.0, -264.98126161051914, -189.79057300137356, -202.82412434695289, -178.49607513519004, 0.1600000075995922, 0.12800000607967377, 0.9760000463575125, 0.0, 0.0, 0.0, 0.0, 0.0, 1.6518360910364556E9, 0.0, 2022-05-06 12:21:31.036
70.0, -234.70303156925365, -100.5116812591441, -131.9380605868064, -160.09202745324, 0.1600000075995922, 0.12800000607967377, 0.9920000471174717, 0.0, 0.0, 0.0, 0.0, 0.0, 1.651836091065494E9, 0.0, 2022-05-06 12:21:31.065
70.0, -213.69227361818776, -73.76765667600557, -104.98086170619354, -152.80296243960038, 0.1600000075995922, 0.12800000607967377, 0.9920000471174717, 0.0, 0.0, 0.0, 0.0, 0.0, 1.651836091065494E9, 0.0, 2022-05-06 12:21:31.065
71.0, -233.91765257855877, -148.52077699033543, -165.0548746944405, -154.8299882155843, 0.1600000075995922, 0.11200000531971455, 0.9920000471174717, 0.0, 0.0, 0.0, 0.0, 0.0, 1.6518360910664048E9, 0.0, 2022-05-06 12:21:31.066
71.0, -257.23966870224103, -178.90372423036024, -213.16868762439117, -190.82652528909966, 0.1600000075995922, 0.11200000531971455, 0.9920000471174717, 0.0, 0.0, 0.0, 0.0, 0.0, 1.6518360910664048E9, 0.0, 2022-05-06 12:21:31.066
72.0, -222.421200114768, -98.29766048537567, -127.77555193612352, -163.62997281132266, 0.1600000075995922, 0.11200000531971455, 0.9920000471174717, 0.0, 0.0, 0.0, 0.0, 0.0, 1.6518360910674145E9, 0.0, 2022-05-06 12:21:31.067
72.0, -216.69167338265106, -83.65969205880538, -111.4060098300688, -150.04665617225692, 0.1600000075995922, 0.11200000531971455, 0.9920000471174717, 0.0, 0.0, 0.0, 0.0, 0.0, 1.6518360910674145E9, 0.0, 2022-05-06 12:21:31.067
73.0, -246.614612928126, -153.26671003410593, -179.4385299240239, -180.6614772095345, 0.1600000075995922, 0.11200000531971455, 0.9920000471174717, 0.0, 0.0, 0.0, 0.0, 0.0, 1.6518360910784874E9, 0.0, 2022-05-06 12:21:31.078
73.0, -263.53766022762284, -187.7785068252124, -199.43577498709783, -181.96296239411458, 0.1600000075995922, 0.11200000531971455, 0.9920000471174717, 0.0, 0.0, 0.0, 0.0, 0.0, 1.6518360910784874E9, 0.0, 2022-05-06 12:21:31.078
74.0, -235.9072793549858, -106.77601368492469, -137.40953422198072, -167.57182736461982, 0.1600000075995922, 0.11200000531971455, 0.9920000471174717, 0.0, 0.0, 0.0, 0.0, 0.0, 1.6518360910935204E9, 0.0, 2022-05-06 12:21:31.093
74.0, -217.31249677529559, -80.96322419075295, -106.14771049236879, -149.69884547637776, 0.1600000075995922, 0.11200000531971455, 0.9920000471174717, 0.0, 0.0, 0.0, 0.0, 0.0, 1.6518360910935204E9, 0.0, 2022-05-06 12:21:31.093
75.0, -236.1316733523272, -146.4189532152377, -169.1687646456994, -162.84833372058347, 0.1600000075995922, 0.11200000531971455, 0.9920000471174717, 0.0, 0.0, 0.0, 0.0, 0.0, 1.6518360910944684E9, 0.0, 2022-05-06 12:21:31.094
75.0, -253.79148094309494, -178.79900703160092, -200.20993427792564, -175.10772577533498, 0.1600000075995922, 0.11200000531971455, 0.9920000471174717, 0.0, 0.0, 0.0, 0.0, 0.0, 1.6518360910944684E9, 0.0, 2022-05-06 12:21:31.094
76.0, -248.11805271031335, -118.19018834969029, -141.8263560696505, -172.67679080413654, 0.1600000075995922, 0.11200000531971455, 0.9920000471174717, 0.0, 0.0, 0.0, 0.0, 0.0, 1.6518360911245155E9, 0.0, 2022-05-06 12:21:31.124
76.0, -217.18160027684644, -77.52625613147393, -106.64137728651986, -148.56191588984802, 0.1600000075995922, 0.11200000531971455, 0.9920000471174717, 0.0, 0.0, 0.0, 0.0, 0.0, 1.6518360911245155E9, 0.0, 2022-05-06 12:21:31.124
77.0, -233.48008428374305, -142.24148496473208, -165.9524506838061, -171.15465152217075, 0.1600000075995922, 0.11200000531971455, 0.9920000471174717, 0.0, 0.0, 0.0, 0.0, 0.0, 1.651836091125406E9, 0.0, 2022-05-06 12:21:31.125
77.0, -262.5129276397638, -185.72530174953863, -202.58477074978873, -185.89359724754468, 0.1600000075995922, 0.11200000531971455, 0.9920000471174717, 0.0, 0.0, 0.0, 0.0, 0.0, 1.651836091125406E9, 0.0, 2022-05-06 12:21:31.125
78.0, -240.45873760106042, -113.17498250911012, -141.29529027594253, -162.6501190229319, 0.1600000075995922, 0.11200000531971455, 0.9920000471174717, 0.0, 0.0, 0.0, 0.0, 0.0, 1.6518360911264043E9, 0.0, 2022-05-06 12:21:31.126
78.0, -221.57972262473777, -90.58598677674308, -112.46440151752904, -155.7574834045954, 0.1600000075995922, 0.11200000531971455, 0.9920000471174717, 0.0, 0.0, 0.0, 0.0, 0.0, 1.6518360911264043E9, 0.0, 2022-05-06 12:21:31.126
79.0, -243.64139246335253, -155.4208924085833, -186.69019593810663, -182.89045758312568, 0.1600000075995922, 0.11200000531971455, 0.9920000471174717, 0.0, 0.0, 0.0, 0.0, 0.0, 1.6518360911545284E9, 0.0, 2022-05-06 12:21:31.154
79.0, -256.7385221081786, -183.97876847023144, -197.43866841075942, -178.74664843222126, 0.1600000075995922, 0.11200000531971455, 0.9920000471174717, 0.0, 0.0, 0.0, 0.0, 0.0, 1.6518360911545284E9, 0.0, 2022-05-06 12:21:31.154
80.0, -225.9030469735153, -111.36487093055621, -126.64610214950517, -140.06112329056486, 0.1600000075995922, 0.11200000531971455, 1.008000047877431, 0.0, 0.0, 0.0, 0.0, 0.0, 1.6518360911554933E9, 0.0, 2022-05-06 12:21:31.155
80.0, -214.73570570582524, -73.36748738074675, -107.12008448084816, -153.169472635258, 0.1600000075995922, 0.11200000531971455, 1.008000047877431, 0.0, 0.0, 0.0, 0.0, 0.0, 1.6518360911554933E9, 0.0, 2022-05-06 12:21:31.155
81.0, -228.82390883890912, -144.11143494257703, -167.34743336727843, -173.6977834920399, 0.1600000075995922, 0.11200000531971455, 1.008000047877431, 0.0, 0.0, 0.0, 0.0, 0.0, 1.6518360911564589E9, 0.0, 2022-05-06 12:21:31.156
81.0, -250.81826047832146, -180.94196970621124, -200.34457067633048, -175.62757186917588, 0.1600000075995922, 0.11200000531971455, 1.008000047877431, 0.0, 0.0, 0.0, 0.0, 0.0, 1.6518360911564589E9, 0.0, 2022-05-06 12:21:31.156
82.0, -242.63161947531626, -113.75466700224206, -138.10141571378335, -163.56265461212024, 0.1600000075995922, 0.11200000531971455, 1.008000047877431, 0.0, 0.0, 0.0, 0.0, 0.0, 1.6518360911855323E9, 0.0, 2022-05-06 12:21:31.185
82.0, -218.59154256014153, -73.63302027760074, -103.3652249253355, -152.21953804651275, 0.1600000075995922, 0.11200000531971455, 1.008000047877431, 0.0, 0.0, 0.0, 0.0, 0.0, 1.6518360911855323E9, 0.0, 2022-05-06 12:21:31.185
83.0, -232.80316239176318, -142.98198515595868, -167.6129662641324, -159.19819136383012, 0.1600000075995922, 0.11200000531971455, 1.008000047877431, 0.0, 0.0, 0.0, 0.0, 0.0, 1.6518360911864932E9, 0.0, 2022-05-06 12:21:31.186
83.0, -255.05556712811813, -182.00410129362717, -200.3408307763748, -176.0987992635928, 0.1600000075995922, 0.11200000531971455, 1.008000047877431, 0.0, 0.0, 0.0, 0.0, 0.0, 1.6518360911864932E9, 0.0, 2022-05-06 12:21:31.186
84.0, -238.12504002870992, -107.74838767340407, -132.6336819785647, -159.8003152566962, 0.1600000075995922, 0.11200000531971455, 1.008000047877431, 0.0, 0.0, 0.0, 0.0, 0.0, 1.6518360911874645E9, 0.0, 2022-05-06 12:21:31.187
84.0, -213.55015741987154, -78.38643312128261, -108.92645615944639, -162.93435141956434, 0.1600000075995922, 0.11200000531971455, 1.008000047877431, 0.0, 0.0, 0.0, 0.0, 0.0, 1.6518360911874645E9, 0.0, 2022-05-06 12:21:31.187
85.0, -233.73065758077428, -150.73853766405955, -176.66726405685768, -174.90951107768342, 0.1600000075995922, 0.11200000531971455, 1.008000047877431, 0.0, 0.0, 0.0, 0.0, 0.0, 1.6518360911984906E9, 0.0, 2022-05-06 12:21:31.198
85.0, -262.112758344505, -181.53661379916593, -206.97915319772437, -188.96779501112178, 0.1600000075995922, 0.11200000531971455, 1.008000047877431, 0.0, 0.0, 0.0, 0.0, 0.0, 1.6518360911984906E9, 0.0, 2022-05-06 12:21:31.198
86.0, -248.0582143110223, -115.89762967685238, -134.83274315251037, -159.71055765775964, 0.1600000075995922, 0.11200000531971455, 1.008000047877431, 0.0, 0.0, 0.0, 0.0, 0.0, 1.6518360912134852E9, 0.0, 2022-05-06 12:21:31.213
86.0, -209.98229286214337, -69.0516428318806, -98.81750657921657, -137.57408982003108, 0.1600000075995922, 0.11200000531971455, 1.008000047877431, 0.0, 0.0, 0.0, 0.0, 0.0, 1.6518360912134852E9, 0.0, 2022-05-06 12:21:31.213
87.0, -228.6069946414791, -132.37188898166642, -155.10300091234967, -153.977291025687, 0.1600000075995922, 0.11200000531971455, 1.008000047877431, 0.0, 0.0, 0.0, 0.0, 0.0, 1.6518360912144785E9, 0.0, 2022-05-06 12:21:31.214
87.0, -257.0377141046338, -180.5492802108638, -197.34517091186717, -182.41175038879737, 0.1600000075995922, 0.11200000531971455, 1.008000047877431, 0.0, 0.0, 0.0, 0.0, 0.0, 1.6518360912144785E9, 0.0, 2022-05-06 12:21:31.214
88.0, -243.29732166742906, -118.46694094641134, -142.81368965795264, -168.36468615522608, 0.1600000075995922, 0.11200000531971455, 1.008000047877431, 0.0, 0.0, 0.0, 0.0, 0.0, 1.651836091228507E9, 0.0, 2022-05-06 12:21:31.228
88.0, -206.49670610344037, -68.4981376384385, -104.08328571682796, -152.3167754453607, 0.1600000075995922, 0.11200000531971455, 1.008000047877431, 0.0, 0.0, 0.0, 0.0, 0.0, 1.651836091228507E9, 0.0, 2022-05-06 12:21:31.228
89.0, -240.1296264049597, -155.06934181274846, -178.81770653137937, -176.94027675362304, 0.1600000075995922, 0.11200000531971455, 1.008000047877431, 0.0, 0.0, 0.0, 0.0, 0.0, 1.6518360912605171E9, 0.0, 2022-05-06 12:21:31.260
89.0, -264.19588261982426, -195.21716783707961, -212.80217742873356, -192.75257376627997, 0.1600000075995922, 0.11200000531971455, 1.008000047877431, 0.0, 0.0, 0.0, 0.0, 0.0, 1.6518360912605171E9, 0.0, 2022-05-06 12:21:31.260
90.0, -238.37187342578545, -122.92490169359371, -141.21301247691736, -165.99732948327437, 0.1600000075995922, 0.11200000531971455, 1.008000047877431, 0.0, 0.0, 0.0, 0.0, 0.0, 1.6518360912614653E9, 0.0, 2022-05-06 12:21:31.261
90.0, -208.045024685096, -73.25529038207605, -101.33819914935157, -137.50677162082866, 0.1600000075995922, 0.11200000531971455, 1.008000047877431, 0.0, 0.0, 0.0, 0.0, 0.0, 1.6518360912614653E9, 0.0, 2022-05-06 12:21:31.261
91.0, -205.6028700140305, -120.72584051964805, -139.74323179433122, -123.05579819204286, 0.1600000075995922, 0.11200000531971455, 1.008000047877431, 0.0, 0.0, 0.0, 0.0, 0.0, 1.6518360912624664E9, 0.0, 2022-05-06 12:21:31.262
91.0, -248.18911080947146, -176.49896855885163, -205.09050372010097, -170.6161059285514, 0.1600000075995922, 0.11200000531971455, 1.008000047877431, 0.0, 0.0, 0.0, 0.0, 0.0, 1.6518360912624664E9, 0.0, 2022-05-06 12:21:31.262
92.0, -246.7305498267524, -115.31794518372044, -145.9439859208651, -179.7302421205677, 0.1600000075995922, 0.11200000531971455, 1.008000047877431, 0.0, 0.0, 0.0, 0.0, 0.0, 1.6518360912634177E9, 0.0, 2022-05-06 12:21:31.263
92.0, -206.6350824018009, -72.19315879466012, -101.48031534766778, -152.48881084332243, 0.1600000075995922, 0.11200000531971455, 1.008000047877431, 0.0, 0.0, 0.0, 0.0, 0.0, 1.6518360912634177E9, 0.0, 2022-05-06 12:21:31.263
93.0, -231.32590190926567, -146.4600921147503, -171.14717172225937, -170.30943413218483, 0.1600000075995922, 0.11200000531971455, 1.008000047877431, 0.0, 0.0, 0.0, 0.0, 0.0, 1.651836091273461E9, 0.0, 2022-05-06 12:21:31.273
93.0, -269.5476794564165, -192.95078846393153, -213.69227361818776, -190.24310089601204, 0.1600000075995922, 0.11200000531971455, 1.008000047877431, 0.0, 0.0, 0.0, 0.0, 0.0, 1.651836091273461E9, 0.0, 2022-05-06 12:21:31.273
94.0, -247.71414351509884, -124.49565967498347, -148.43849919131026, -173.59680619323626, 0.1600000075995922, 0.11200000531971455, 1.008000047877431, 0.0, 0.0, 0.0, 0.0, 0.0, 1.651836091288515E9, 0.0, 2022-05-06 12:21:31.288
94.0, -206.9641935979016, -68.92822613334283, -98.24156198604032, -149.00322408461943, 0.1600000075995922, 0.11200000531971455, 1.008000047877431, 0.0, 0.0, 0.0, 0.0, 0.0, 1.651836091288515E9, 0.0, 2022-05-06 12:21:31.288
95.0, -222.9073871090077, -127.3005846417509, -157.25718328682706, -155.7948824041523, 0.1600000075995922, 0.11200000531971455, 1.008000047877431, 0.0, 0.0, 0.0, 0.0, 0.0, 1.6518360913035157E9, 0.0, 2022-05-06 12:21:31.303
95.0, -259.63694457383826, -176.79816055530682, -203.5234856386669, -183.63469767430797, 0.1600000075995922, 0.11200000531971455, 1.008000047877431, 0.0, 0.0, 0.0, 0.0, 0.0, 1.6518360913035157E9, 0.0, 2022-05-06 12:21:31.303
96.0, -243.97424355940893, -122.0385454040952, -140.99235837953165, -163.55143491225317, 0.1600000075995922, 0.11200000531971455, 1.008000047877431, 0.0, 0.0, 0.0, 0.0, 0.0, 1.6518360913044653E9, 0.0, 2022-05-06 12:21:31.304
96.0, -223.7563443989493, -75.607687454205, -107.55391287570819, -150.6861790646799, 0.1600000075995922, 0.11200000531971455, 1.008000047877431, 0.0, 0.0, 0.0, 0.0, 0.0, 1.6518360913044653E9, 0.0, 2022-05-06 12:21:31.304
97.0, -235.8362212558277, -132.66734107816592, -165.49618288921192, -167.93085776036605, 0.1600000075995922, 0.11200000531971455, 1.008000047877431, 0.0, 0.0, 0.0, 0.0, 0.0, 1.651836091318488E9, 0.0, 2022-05-06 12:21:31.318
97.0, -251.77567486697808, -175.0628469758667, -199.39089618762955, -187.63639062689617, 0.1600000075995922, 0.11200000531971455, 1.008000047877431, 0.0, 0.0, 0.0, 0.0, 0.0, 1.651836091318488E9, 0.0, 2022-05-06 12:21:31.318
98.0, -247.19055752130225, -131.45935339247808, -153.1619928353466, -177.56110014626756, 0.1600000075995922, 0.11200000531971455, 1.008000047877431, 0.0, 0.0, 0.0, 0.0, 0.0, 1.6518360913335164E9, 0.0, 2022-05-06 12:21:31.333
98.0, -230.7574371160008, -92.71398985153064, -119.77216603094712, -164.1722583048977, 0.1600000075995922, 0.11200000531971455, 1.008000047877431, 0.0, 0.0, 0.0, 0.0, 0.0, 1.6518360913335164E9, 0.0, 2022-05-06 12:21:31.333
99.0, -236.07931475294754, -149.3472948805429, -175.3657788722776, -180.3622852130793, 0.1600000075995922, 0.11200000531971455, 1.008000047877431, 0.0, 0.0, 0.0, 0.0, 0.0, 1.6518360913344033E9, 0.0, 2022-05-06 12:21:31.334
99.0, -275.0827313908376, -194.09519785037264, -214.64968800684437, -196.84028441784903, 0.1600000075995922, 0.11200000531971455, 1.008000047877431, 0.0, 0.0, 0.0, 0.0, 0.0, 1.6518360913344033E9, 0.0, 2022-05-06 12:21:31.334
100.0, -248.18163100956008, -129.54826451512054, -142.81742955790833, -163.18118481663987, 0.1600000075995922, 0.11200000531971455, 1.008000047877431, 0.0, 0.0, 0.0, 0.0, 0.0, 1.6518360913794758E9, 0.0, 2022-05-06 12:21:31.379
100.0, -214.31309701083228, -77.23080403497443, -101.58877244638279, -135.20299324812368, 0.1600000075995922, 0.11200000531971455, 1.008000047877431, 0.0, 0.0, 0.0, 0.0, 0.0, 1.6518360913794758E9, 0.0, 2022-05-06 12:21:31.379
0.0, -218.0286876168102, -120.44721797294915, -157.4423083346337, -144.20680239144713, 0.1600000075995922, 0.11200000531971455, 1.008000047877431, 0.0, 0.0, 0.0, 0.0, 0.0, 1.651836091380418E9, 0.0, 2022-05-06 12:21:31.380
1.0, -270.44712539575994, -179.42544027417898, -207.00346254743636, -174.47755263280123, 0.1600000075995922, 0.11200000531971455, 1.008000047877431, 0.0, 0.0, 0.0, 0.0, 0.0, 1.6518360913944705E9, 0.0, 2022-05-06 12:21:31.394
1.0, -252.6040627071634, -123.801908233203, -152.80109248962253, -176.37368191033602, 0.1600000075995922, 0.11200000531971455, 1.008000047877431, 0.0, 0.0, 0.0, 0.0, 0.0, 1.6518360913944705E9, 0.0, 2022-05-06 12:21:31.394
2.0, -232.07949175033718, -81.49615993443877, -116.29218912217766, -172.4916657563299, 0.1600000075995922, 0.11200000531971455, 1.008000047877431, 0.0, 0.0, 0.0, 0.0, 0.0, 1.6518360914104683E9, 0.0, 2022-05-06 12:21:31.410
2.0, -238.58691767323762, -140.26120793819427, -168.76672540046275, -173.1573679484427, 0.1600000075995922, 0.11200000531971455, 1.008000047877431, 0.0, 0.0, 0.0, 0.0, 0.0, 1.6518360914104683E9, 0.0, 2022-05-06 12:21:31.410
3.0, -251.13054212462157, -176.79629060532898, -201.3599535143003, -177.75744489394128, 0.1600000075995922, 0.11200000531971455, 1.008000047877431, 0.0, 0.0, 0.0, 0.0, 0.0, 1.6518360914114127E9, 0.0, 2022-05-06 12:21:31.411
3.0, -253.44554019719362, -129.25842226855457, -149.15842993278056, -173.5986761432141, 0.1600000075995922, 0.11200000531971455, 1.008000047877431, 0.0, 0.0, 0.0, 0.0, 0.0, 1.6518360914114127E9, 0.0, 2022-05-06 12:21:31.411
4.0, -224.5473332395777, -83.35115031246096, -107.35008832812309, -156.31659844797105, 0.1600000075995922, 0.11200000531971455, 1.008000047877431, 0.0, 0.0, 0.0, 0.0, 0.0, 1.6518360914124508E9, 0.0, 2022-05-06 12:21:31.412
4.0, -238.23162717744708, -135.78828759118915, -169.31649069394916, -176.02961111441255, 0.1600000075995922, 0.11200000531971455, 1.008000047877431, 0.0, 0.0, 0.0, 0.0, 0.0, 1.6518360914124508E9, 0.0, 2022-05-06 12:21:31.412
5.0, -252.35722931008786, -182.46971883811057, -205.9488107599318, -180.09862226620317, 0.1600000075995922, 0.11200000531971455, 1.008000047877431, 0.0, 0.0, 0.0, 0.0, 0.0, 1.6518360914133968E9, 0.0, 2022-05-06 12:21:31.413
5.0, -249.01749864965677, -133.0656404234469, -152.49068079330027, -166.35075002908707, 0.1600000075995922, 0.11200000531971455, 1.008000047877431, 0.0, 0.0, 0.0, 0.0, 0.0, 1.6518360914133968E9, 0.0, 2022-05-06 12:21:31.413
6.0, -224.96620203461498, -78.58651776891202, -106.83772203419358, -149.28184663131833, 0.1600000075995922, 0.11200000531971455, 1.008000047877431, 0.0, 0.0, 0.0, 0.0, 0.0, 1.6518360914405456E9, 0.0, 2022-05-06 12:21:31.440
6.0, -235.80443210620433, -132.15684473421425, -159.4431548109278, -165.84960343502462, 0.1600000075995922, 0.11200000531971455, 1.008000047877431, 0.0, 0.0, 0.0, 0.0, 0.0, 1.6518360914405456E9, 0.0, 2022-05-06 12:21:31.440
7.0, -265.1589068584144, -179.5301574729383, -202.5081028006971, -173.37054224591702, 0.1600000075995922, 0.11200000531971455, 1.008000047877431, 0.0, 0.0, 0.0, 0.0, 0.0, 1.6518360914414248E9, 0.0, 2022-05-06 12:21:31.441
7.0, -248.32187725789845, -128.951750472188, -148.36931104213, -173.98014593869448, 0.1600000075995922, 0.11200000531971455, 1.008000047877431, 0.0, 0.0, 0.0, 0.0, 0.0, 1.6518360914414248E9, 0.0, 2022-05-06 12:21:31.441
8.0, -221.6227314742282, -80.10491715092212, -107.51090402621776, -155.09739106241614, 0.1600000075995922, 0.11200000531971455, 1.008000047877431, 0.0, 0.0, 0.0, 0.0, 0.0, 1.6518360914424129E9, 0.0, 2022-05-06 12:21:31.442
8.0, -246.95307387411594, -136.87285857833922, -167.98134640976787, -167.9327277103439, 0.1600000075995922, 0.11200000531971455, 1.008000047877431, 0.0, 0.0, 0.0, 0.0, 0.0, 1.6518360914424129E9, 0.0, 2022-05-06 12:21:31.442
9.0, -261.7181988991797, -189.2725968575105, -212.78534787893295, -193.3528277091682, 0.1600000075995922, 0.11200000531971455, 1.008000047877431, 0.0, 0.0, 0.0, 0.0, 0.0, 1.6518360914434109E9, 0.0, 2022-05-06 12:21:31.443
9.0, -257.62674834765494, -132.29522103257477, -154.90291626472026, -169.35014979355037, 0.1600000075995922, 0.11200000531971455, 1.008000047877431, 0.0, 0.0, 0.0, 0.0, 0.0, 1.6518360914434109E9, 0.0, 2022-05-06 12:21:31.443
10.0, -224.89140403550118, -75.97606759984046, -106.8302422342822, -158.31744492426515, 0.1600000075995922, 0.11200000531971455, 1.008000047877431, 0.0, 0.0, 0.0, 0.0, 0.0, 1.651836091453519E9, 0.0, 2022-05-06 12:21:31.453
10.0, -235.0340127153322, -129.40053846687078, -162.5622313739732, -171.1939204717055, 0.1600000075995922, 0.11200000531971455, 1.008000047877431, 0.0, 0.0, 0.0, 0.0, 0.0, 1.651836091453519E9, 0.0, 2022-05-06 12:21:31.453
11.0, -256.4972985610366, -177.2338589001447, -200.97474381886423, -178.1912732888013, 0.1600000075995922, 0.11200000531971455, 1.008000047877431, 0.0, 0.0, 0.0, 0.0, 0.0, 1.6518360914684753E9, 0.0, 2022-05-06 12:21:31.468
11.0, -255.53988417237997, -133.12921872269362, -152.1877488968894, -166.49660612735897, 0.1600000075995922, 0.11200000531971455, 1.008000047877431, 0.0, 0.0, 0.0, 0.0, 0.0, 1.6518360914684753E9, 0.0, 2022-05-06 12:21:31.468
12.0, -220.67279688548297, -77.70764127932489, -101.00347810331732, -133.76126181520522, 0.1600000075995922, 0.11200000531971455, 1.008000047877431, 0.0, 0.0, 0.0, 0.0, 0.0, 1.6518360915004935E9, 0.0, 2022-05-06 12:21:31.500
12.0, -228.07779879774898, -124.26191592775285, -155.04877236299217, -160.75585969537497, 0.1600000075995922, 0.11200000531971455, 1.008000047877431, 0.0, 0.0, 0.0, 0.0, 0.0, 1.6518360915004935E9, 0.0, 2022-05-06 12:21:31.500
13.0, -261.95755249634385, -185.0839089071378, -204.86423977278173, -186.89028058573604, 0.1600000075995922, 0.11200000531971455, 1.008000047877431, 0.0, 0.0, 0.0, 0.0, 0.0, 1.6518360915014205E9, 0.0, 2022-05-06 12:21:31.501
13.0, -256.02233126666397, -129.90168506093323, -151.05829911027104, -169.09583659656346, 0.1600000075995922, 0.11200000531971455, 1.008000047877431, 0.0, 0.0, 0.0, 0.0, 0.0, 1.6518360915014205E9, 0.0, 2022-05-06 12:21:31.501
14.0, -225.64312392659485, -79.9291418530047, -108.50197751447558, -155.2619466604665, 0.1600000075995922, 0.11200000531971455, 1.008000047877431, 0.0, 0.0, 0.0, 0.0, 0.0, 1.651836091502416E9, 0.0, 2022-05-06 12:21:31.502
14.0, -229.2521273838356, -125.61201981175691, -150.6618697149679, -158.58297782111913, 0.1600000075995922, 0.11200000531971455, 1.008000047877431, 0.0, 0.0, 0.0, 0.0, 0.0, 1.651836091502416E9, 0.0, 2022-05-06 12:21:31.502
15.0, -268.39766022004187, -182.95590583235025, -208.70137712731957, -183.95819902047515, 0.1600000075995922, 0.11200000531971455, 1.008000047877431, 0.0, 0.0, 0.0, 0.0, 0.0, 1.651836091503466E9, 0.0, 2022-05-06 12:21:31.503
15.0, -257.03210425470024, -136.15479778684676, -162.7417465718463, -179.09258917812258, 0.1600000075995922, 0.11200000531971455, 1.008000047877431, 0.0, 0.0, 0.0, 0.0, 0.0, 1.651836091503466E9, 0.0, 2022-05-06 12:21:31.503
16.0, -231.05475916247815, -82.69666782021523, -115.07672163657844, -166.7509193243459, 0.1600000075995922, 0.11200000531971455, 1.008000047877431, 0.0, 0.0, 0.0, 0.0, 0.0, 1.6518360915135126E9, 0.0, 2022-05-06 12:21:31.513
16.0, -235.8904498051852, -130.01762195955962, -160.83065769448876, -169.0846168966964, 0.1600000075995922, 0.11200000531971455, 1.008000047877431, 0.0, 0.0, 0.0, 0.0, 0.0, 1.6518360915135126E9, 0.0, 2022-05-06 12:21:31.513
17.0, -249.70190034154803, -176.99450530298054, -202.5829007998109, -170.4870793800801, 0.1600000075995922, 0.11200000531971455, 1.008000047877431, 0.0, 0.0, 0.0, 0.0, 0.0, 1.6518360915285149E9, 0.0, 2022-05-06 12:21:31.528
17.0, -244.24912620615214, -121.58040765952319, -137.92377046588808, -151.91099630016834, 0.1600000075995922, 0.11200000531971455, 1.008000047877431, 0.0, 0.0, 0.0, 0.0, 0.0, 1.6518360915285149E9, 0.0, 2022-05-06 12:21:31.528
18.0, -217.85665221884847, -72.98788753524423, -103.26611757650971, -149.87649072427303, 0.1600000075995922, 0.11200000531971455, 1.008000047877431, 0.0, 0.0, 0.0, 0.0, 0.0, 1.6518360915293932E9, 0.0, 2022-05-06 12:21:31.529
18.0, -236.1859019016847, -130.97503634821624, -162.28547877725214, -164.518199050799, 0.1600000075995922, 0.11200000531971455, 1.008000047877431, 0.0, 0.0, 0.0, 0.0, 0.0, 1.6518360915293932E9, 0.0, 2022-05-06 12:21:31.529
19.0, -258.81603653356433, -177.79484389349818, -202.63899929914623, -178.3483490869403, 0.1600000075995922, 0.11200000531971455, 1.008000047877431, 0.0, 0.0, 0.0, 0.0, 0.0, 1.6518360915594761E9, 0.0, 2022-05-06 12:21:31.559
19.0, -254.16734088864177, -140.73991513252258, -155.79675235413015, -172.0466176616028, 0.1600000075995922, 0.11200000531971455, 1.008000047877431, 0.0, 0.0, 0.0, 0.0, 0.0, 1.6518360915594761E9, 0.0, 2022-05-06 12:21:31.559
20.0, -211.24076919723302, -64.8461253317073, -94.11458238493651, -140.56039993464947, 0.1600000075995922, 0.11200000531971455, 1.008000047877431, 0.0, 0.0, 0.0, 0.0, 0.0, 1.65183609156048E9, 0.0, 2022-05-06 12:21:31.560
20.0, -210.324493708089, -109.63890710100532, -140.05925334058702, -148.12247764505446, 0.1600000075995922, 0.11200000531971455, 1.008000047877431, 0.0, 0.0, 0.0, 0.0, 0.0, 1.65183609156048E9, 0.0, 2022-05-06 12:21:31.560
21.0, -264.1229545706883, -187.9374525733292, -209.67375111579895, -189.47829135507345, 0.1600000075995922, 0.11200000531971455, 1.008000047877431, 0.0, 0.0, 0.0, 0.0, 0.0, 1.6518360915614624E9, 0.0, 2022-05-06 12:21:31.561
21.0, -254.58994958363473, -133.49198901839554, -149.46884162910283, -161.53375888615847, 0.1600000075995922, 0.11200000531971455, 1.008000047877431, 0.0, 0.0, 0.0, 0.0, 0.0, 1.6518360915614624E9, 0.0, 2022-05-06 12:21:31.561
22.0, -209.29228132031858, -62.50494795944542, -96.91576745174825, -133.60418601706624, 0.1600000075995922, 0.11200000531971455, 1.008000047877431, 0.0, 0.0, 0.0, 0.0, 0.0, 1.651836091589452E9, 0.0, 2022-05-06 12:21:31.589
22.0, -210.05148101132363, -104.79947655834258, -141.86936491914093, -145.6242244746536, 0.1600000075995922, 0.11200000531971455, 1.008000047877431, 0.0, 0.0, 0.0, 0.0, 0.0, 1.651836091589452E9, 0.0, 2022-05-06 12:21:31.589
23.0, -269.36629430856556, -187.25305088143796, -212.85640597809106, -185.77953029889613, 0.1600000075995922, 0.11200000531971455, 1.008000047877431, 0.0, 0.0, 0.0, 0.0, 0.0, 1.651836091590412E9, 0.0, 2022-05-06 12:21:31.590
23.0, -260.65980721171945, -148.41792974155396, -165.16146184317768, -191.02287003677338, 0.1600000075995922, 0.11200000531971455, 1.008000047877431, 0.0, 0.0, 0.0, 0.0, 0.0, 1.651836091590412E9, 0.0, 2022-05-06 12:21:31.590
24.0, -229.31944558303803, -86.65348197333515, -112.43635226786137, -164.2227469542995, 0.1600000075995922, 0.11200000531971455, 1.008000047877431, 0.0, 0.0, 0.0, 0.0, 0.0, 1.6518360915914059E9, 0.0, 2022-05-06 12:21:31.591
24.0, -234.15887612570077, -126.55073470063508, -160.98773349262774, -169.7428392888978, 0.1600000075995922, 0.11200000531971455, 1.008000047877431, 0.0, 0.0, 0.0, 0.0, 0.0, 1.6518360915914059E9, 0.0, 2022-05-06 12:21:31.591
25.0, -263.2665174808353, -186.29563649278134, -215.0292878523469, -193.32290850952268, 0.1600000075995922, 0.11200000531971455, 1.008000047877431, 0.0, 0.0, 0.0, 0.0, 0.0, 1.6518360916194696E9, 0.0, 2022-05-06 12:21:31.619
25.0, -250.59199653100222, -142.9202768066898, -158.82981121819466, -175.59204281959683, 0.1600000075995922, 0.11200000531971455, 1.008000047877431, 0.0, 0.0, 0.0, 0.0, 0.0, 1.6518360916194696E9, 0.0, 2022-05-06 12:21:31.619
26.0, -214.3598457602784, -69.68181597441435, -102.20024608913809, -147.1463637566194, 0.1600000075995922, 0.11200000531971455, 1.008000047877431, 0.0, 0.0, 0.0, 0.0, 0.0, 1.6518360916204207E9, 0.0, 2022-05-06 12:21:31.620
26.0, -226.26768721919507, -113.60320105403662, -149.0387531341985, -162.7118273722008, 0.1600000075995922, 0.11200000531971455, 1.008000047877431, 0.0, 0.0, 0.0, 0.0, 0.0, 1.6518360916204207E9, 0.0, 2022-05-06 12:21:31.620
27.0, -267.4514655312523, -183.22143872920424, -209.44561721850187, -189.60170805361122, 0.1600000075995922, 0.11200000531971455, 1.008000047877431, 0.0, 0.0, 0.0, 0.0, 0.0, 1.6518360916215153E9, 0.0, 2022-05-06 12:21:31.621
27.0, -256.781530957669, -145.48584817629308, -160.1088570030406, -165.21756034251302, 0.1600000075995922, 0.11200000531971455, 1.008000047877431, 0.0, 0.0, 0.0, 0.0, 0.0, 1.6518360916215153E9, 0.0, 2022-05-06 12:21:31.621
28.0, -210.7658019028604, -67.87544429581612, -95.35996907018125, -144.83510558400303, 0.1600000075995922, 0.11200000531971455, 1.008000047877431, 0.0, 0.0, 0.0, 0.0, 0.0, 1.6518360916494548E9, 0.0, 2022-05-06 12:21:31.649
28.0, -220.31002658978105, -113.92109255027026, -145.15673698019236, -157.98833372816443, 0.1600000075995922, 0.11200000531971455, 1.008000047877431, 0.0, 0.0, 0.0, 0.0, 0.0, 1.6518360916494548E9, 0.0, 2022-05-06 12:21:31.649
29.0, -259.99036511965096, -180.8690416570753, -207.59436674043536, -181.47116554994136, 0.1600000075995922, 0.11200000531971455, 1.008000047877431, 0.0, 0.0, 0.0, 0.0, 0.0, 1.6518360916504452E9, 0.0, 2022-05-06 12:21:31.650
29.0, -259.21994572877884, -144.05720639321953, -161.53375888615847, -175.9735126150772, 0.1600000075995922, 0.11200000531971455, 1.008000047877431, 0.0, 0.0, 0.0, 0.0, 0.0, 1.6518360916504452E9, 0.0, 2022-05-06 12:21:31.650
30.0, -222.76714086066931, -74.86531731300056, -99.85158891696483, -151.69034220278263, 0.1600000075995922, 0.11200000531971455, 1.0240000486373901, 0.0, 0.0, 0.0, 0.0, 0.0, 1.651836091651467E9, 0.0, 2022-05-06 12:21:31.651
30.0, -229.20350868441164, -115.3160752337426, -154.80567886587232, -168.72932640090585, 0.1600000075995922, 0.11200000531971455, 1.0240000486373901, 0.0, 0.0, 0.0, 0.0, 0.0, 1.651836091651467E9, 0.0, 2022-05-06 12:21:31.651
31.0, -268.77913001552224, -186.9052401855588, -209.67375111579895, -187.81777577474713, 0.1600000075995922, 0.11200000531971455, 1.0240000486373901, 0.0, 0.0, 0.0, 0.0, 0.0, 1.6518360916794665E9, 0.0, 2022-05-06 12:21:31.679
31.0, -255.58102307189256, -145.00714098196477, -159.84332410618663, -173.18728714808822, 0.1600000075995922, 0.11200000531971455, 1.0240000486373901, 0.0, 0.0, 0.0, 0.0, 0.0, 1.6518360916794665E9, 0.0, 2022-05-06 12:21:31.679
32.0, -218.33161951322109, -73.72464782651514, -102.84350888151675, -134.69997670408338, 0.1600000075995922, 0.11200000531971455, 1.0240000486373901, 0.0, 0.0, 0.0, 0.0, 0.0, 1.6518360916804469E9, 0.0, 2022-05-06 12:21:31.680
32.0, -228.32463219482452, -121.06804136559367, -158.84103091806173, -174.40649453364313, 0.1600000075995922, 0.11200000531971455, 1.0240000486373901, 0.0, 0.0, 0.0, 0.0, 0.0, 1.6518360916804469E9, 0.0, 2022-05-06 12:21:31.680
33.0, -264.40344706736505, -179.66479387134314, -211.9139511892572, -193.36030750907958, 0.1600000075995922, 0.11200000531971455, 1.0240000486373901, 0.0, 0.0, 0.0, 0.0, 0.0, 1.6518360916814013E9, 0.0, 2022-05-06 12:21:31.681
33.0, -264.3211692683399, -154.01655997522175, -169.5259250914678, -190.424486043863, 0.1600000075995922, 0.11200000531971455, 1.0240000486373901, 0.0, 0.0, 0.0, 0.0, 0.0, 1.6518360916814013E9, 0.0, 2022-05-06 12:21:31.681
34.0, -210.38433210738003, -65.19019612763077, -95.10191597323865, -130.71324335131794, 0.1600000075995922, 0.11200000531971455, 1.0240000486373901, 0.0, 0.0, 0.0, 0.0, 0.0, 1.6518360917094688E9, 0.0, 2022-05-06 12:21:31.709
34.0, -214.0980527633801, -106.62080783676356, -142.40791051276028, -146.1403306685388, 0.1600000075995922, 0.11200000531971455, 1.0240000486373901, 0.0, 0.0, 0.0, 0.0, 0.0, 1.6518360917094688E9, 0.0, 2022-05-06 12:21:31.709
35.0, -257.0021850550547, -183.98437832016498, -210.33571340795606, -199.88643293175846, 0.1600000075995922, 0.11200000531971455, 1.0240000486373901, 0.0, 0.0, 0.0, 0.0, 0.0, 1.651836091710405E9, 0.0, 2022-05-06 12:21:31.710
35.0, -269.7889030035585, -153.1489031855017, -172.99655225034803, -190.22253144625574, 0.1600000075995922, 0.11200000531971455, 1.0240000486373901, 0.0, 0.0, 0.0, 0.0, 0.0, 1.651836091710405E9, 0.0, 2022-05-06 12:21:31.710
36.0, -224.44635594077408, -82.99211991671473, -109.07792210765183, -149.59973812755197, 0.1600000075995922, 0.11200000531971455, 1.0240000486373901, 0.0, 0.0, 0.0, 0.0, 0.0, 1.6518360917114751E9, 0.0, 2022-05-06 12:21:31.711
36.0, -218.78414740785956, -117.42163890879601, -152.06433219835162, -162.04612518008798, 0.1600000075995922, 0.11200000531971455, 1.0240000486373901, 0.0, 0.0, 0.0, 0.0, 0.0, 1.6518360917114751E9, 0.0, 2022-05-06 12:21:31.711
37.0, -250.03849133756012, -170.7077334774658, -199.54610203579068, -181.6394610479474, 0.1600000075995922, 0.11200000531971455, 1.0240000486373901, 0.0, 0.0, 0.0, 0.0, 0.0, 1.6518360917234592E9, 0.0, 2022-05-06 12:21:31.723
37.0, -254.3057171870023, -145.68406287394464, -159.20380121376365, -166.46668692771345, 0.1600000075995922, 0.11200000531971455, 1.0240000486373901, 0.0, 0.0, 0.0, 0.0, 0.0, 1.6518360917234592E9, 0.0, 2022-05-06 12:21:31.723
38.0, -211.31182729639113, -62.64706415776163, -93.99490558635443, -140.7660944322124, 0.1600000075995922, 0.11200000531971455, 1.0240000486373901, 0.0, 0.0, 0.0, 0.0, 0.0, 1.651836091738518E9, 0.0, 2022-05-06 12:21:31.738
38.0, -231.8176987534389, -114.46711794380099, -150.31405901908875, -164.72763344831765, 0.1600000075995922, 0.11200000531971455, 1.0240000486373901, 0.0, 0.0, 0.0, 0.0, 0.0, 1.651836091738518E9, 0.0, 2022-05-06 12:21:31.738
39.0, -258.7861173339188, -185.8244090983644, -210.81816050224006, -193.41640600841492, 0.1600000075995922, 0.11200000531971455, 1.0240000486373901, 0.0, 0.0, 0.0, 0.0, 0.0, 1.6518360917394035E9, 0.0, 2022-05-06 12:21:31.739
39.0, -263.70034587569535, -154.76453996635973, -172.8619158519432, -184.06665611919016, 0.1600000075995922, 0.11200000531971455, 1.0240000486373901, 0.0, 0.0, 0.0, 0.0, 0.0, 1.6518360917394035E9, 0.0, 2022-05-06 12:21:31.739
40.0, -220.9196302825585, -68.81415918469429, -96.86714875232428, -143.72435529716313, 0.1600000075995922, 0.11200000531971455, 1.0240000486373901, 0.0, 0.0, 0.0, 0.0, 0.0, 1.651836091753506E9, 0.0, 2022-05-06 12:21:31.753
40.0, -225.80393962468952, -113.79019605182111, -148.50394744053483, -151.0321198105812, 0.1600000075995922, 0.11200000531971455, 1.0240000486373901, 0.0, 0.0, 0.0, 0.0, 0.0, 1.651836091753506E9, 0.0, 2022-05-06 12:21:31.753
41.0, -256.72917235828936, -180.21829906478524, -212.3963982835412, -187.18947258219123, 0.1600000075995922, 0.11200000531971455, 1.0240000486373901, 0.0, 0.0, 0.0, 0.0, 0.0, 1.6518360917684784E9, 0.0, 2022-05-06 12:21:31.768
41.0, -254.17482068855315, -158.78493241872638, -171.0443244734779, -171.73994586523622, 0.1600000075995922, 0.11200000531971455, 1.0240000486373901, 0.0, 0.0, 0.0, 0.0, 0.0, 1.6518360917684784E9, 0.0, 2022-05-06 12:21:31.768
42.0, -214.19529016222805, -71.68266245070845, -95.69282016623765, -125.0959136178717, 0.1600000075995922, 0.11200000531971455, 1.0240000486373901, 0.0, 0.0, 0.0, 0.0, 0.0, 1.65183609176942E9, 0.0, 2022-05-06 12:21:31.769
42.0, -215.54165414627641, -101.42234689835459, -136.16227758675814, -143.41394360084087, 0.1600000075995922, 0.11200000531971455, 1.0240000486373901, 0.0, 0.0, 0.0, 0.0, 0.0, 1.65183609176942E9, 0.0, 2022-05-06 12:21:31.769
43.0, -265.99664444848895, -186.1273409947753, -215.3210000488907, -190.46936484333128, 0.1600000075995922, 0.11200000531971455, 1.0240000486373901, 0.0, 0.0, 0.0, 0.0, 0.0, 1.651836091783458E9, 0.0, 2022-05-06 12:21:31.783
43.0, -258.92449363227934, -147.8831240478903, -170.84984967578202, -183.6403075242415, 0.1600000075995922, 0.11200000531971455, 1.0240000486373901, 0.0, 0.0, 0.0, 0.0, 0.0, 1.651836091783458E9, 0.0, 2022-05-06 12:21:31.783
44.0, -216.89923783019185, -79.9291418530047, -110.33826839271933, -164.7500728480518, 0.1600000075995922, 0.11200000531971455, 1.0240000486373901, 0.0, 0.0, 0.0, 0.0, 0.0, 1.6518360917994554E9, 0.0, 2022-05-06 12:21:31.799
44.0, -231.78403965383768, -118.97369739040732, -150.5122737167403, -162.64450917299837, 0.1600000075995922, 0.11200000531971455, 1.0240000486373901, 0.0, 0.0, 0.0, 0.0, 0.0, 1.6518360917994554E9, 0.0, 2022-05-06 12:21:31.799
45.0, -259.10774873010814, -182.29394354019314, -211.53622129373252, -174.7131663300097, 0.1600000075995922, 0.11200000531971455, 1.0240000486373901, 0.0, 0.0, 0.0, 0.0, 0.0, 1.6518360918134687E9, 0.0, 2022-05-06 12:21:31.813
45.0, -258.0830161422491, -150.7030086144805, -170.54317787941545, -180.06122326664627, 0.1600000075995922, 0.11200000531971455, 1.0240000486373901, 0.0, 0.0, 0.0, 0.0, 0.0, 1.6518360918134687E9, 0.0, 2022-05-06 12:21:31.813
46.0, -210.5040089059621, -72.3670641425997, -97.6001691436395, -156.64944954402745, 0.1600000075995922, 0.11200000531971455, 1.0240000486373901, 0.0, 0.0, 0.0, 0.0, 0.0, 1.6518360918144605E9, 0.0, 2022-05-06 12:21:31.814
46.0, -227.83096540067345, -107.76147732324898, -143.9898881940171, -166.43676772806793, 0.1600000075995922, 0.11200000531971455, 1.0240000486373901, 0.0, 0.0, 0.0, 0.0, 0.0, 1.6518360918144605E9, 0.0, 2022-05-06 12:21:31.814
47.0, -271.1203073877841, -196.69255836959928, -219.16935710329562, -202.60534019954503, 0.1600000075995922, 0.11200000531971455, 1.0240000486373901, 0.0, 0.0, 0.0, 0.0, 0.0, 1.6518360918284824E9, 0.0, 2022-05-06 12:21:31.828
47.0, -256.8226698571816, -153.0703652864322, -168.98737949784845, -175.03479772619903, 0.1600000075995922, 0.11200000531971455, 1.0240000486373901, 0.0, 0.0, 0.0, 0.0, 0.0, 1.6518360918284824E9, 0.0, 2022-05-06 12:21:31.828
48.0, -210.1748977098614, -61.95892256591469, -91.92300101090223, -135.20112329814583, 0.1600000075995922, 0.11200000531971455, 1.0240000486373901, 0.0, 0.0, 0.0, 0.0, 0.0, 1.6518360918294022E9, 0.0, 2022-05-06 12:21:31.829
48.0, -217.23208892624825, -105.05378975532949, -139.78998054377735, -141.64497092179954, 0.1600000075995922, 0.11200000531971455, 1.0240000486373901, 0.0, 0.0, 0.0, 0.0, 0.0, 1.6518360918294022E9, 0.0, 2022-05-06 12:21:31.829
49.0, -256.2654247637838, -178.03045759070665, -202.08175420574844, -173.72957264166325, 0.1600000075995922, 0.11200000531971455, 1.0240000486373901, 0.0, 0.0, 0.0, 0.0, 0.0, 1.6518360918744543E9, 0.0, 2022-05-06 12:21:31.874
49.0, -259.941746420227, -151.36123100668192, -169.95975348632783, -180.78302395809442, 0.1600000075995922, 0.11200000531971455, 1.0240000486373901, 0.0, 0.0, 0.0, 0.0, 0.0, 1.6518360918744543E9, 0.0, 2022-05-06 12:21:31.874
50.0, -230.6620696671307, -81.90006912965328, -110.08021529577672, -161.15976889058948, 0.1600000075995922, 0.11200000531971455, 1.0240000486373901, 0.0, 0.0, 0.0, 0.0, 0.0, 1.6518360918754673E9, 0.0, 2022-05-06 12:21:31.875
50.0, -223.19348945561796, -111.54251617845148, -139.49452844727784, -153.5939512802288, 0.1600000075995922, 0.11200000531971455, 1.0240000486373901, 0.0, 0.0, 0.0, 0.0, 0.0, 1.6518360918754673E9, 0.0, 2022-05-06 12:21:31.875
51.0, -254.47401268500835, -180.46513246186078, -206.47987655363977, -189.36983425635844, 0.1600000075995922, 0.11200000531971455, 1.0240000486373901, 0.0, 0.0, 0.0, 0.0, 0.0, 1.651836091876469E9, 0.0, 2022-05-06 12:21:31.876
51.0, -254.91532087977976, -153.82208517752588, -165.58033063821495, -178.2361520882696, 0.1600000075995922, 0.11200000531971455, 1.0240000486373901, 0.0, 0.0, 0.0, 0.0, 0.0, 1.651836091876469E9, 0.0, 2022-05-06 12:21:31.876
52.0, -204.0564213823527, -66.03541351761669, -96.7100729541853, -136.37545188423246, 0.1600000075995922, 0.11200000531971455, 1.0240000486373901, 0.0, 0.0, 0.0, 0.0, 0.0, 1.6518360918894775E9, 0.0, 2022-05-06 12:21:31.889
52.0, -222.09021896868944, -107.55578282568604, -139.39355114847422, -160.6361828967929, 0.1600000075995922, 0.11200000531971455, 1.0240000486373901, 0.0, 0.0, 0.0, 0.0, 0.0, 1.6518360918894775E9, 0.0, 2022-05-06 12:21:31.889
53.0, -267.26073063351214, -187.81029597483575, -211.59231979306787, -192.01020362507552, 0.1600000075995922, 0.11200000531971455, 1.0240000486373901, 0.0, 0.0, 0.0, 0.0, 0.0, 1.6518360918903995E9, 0.0, 2022-05-06 12:21:31.890
53.0, -259.40320082660764, -158.23890702519566, -168.55355110298842, -180.29683696385473, 0.1600000075995922, 0.11200000531971455, 1.0240000486373901, 0.0, 0.0, 0.0, 0.0, 0.0, 1.6518360918903995E9, 0.0, 2022-05-06 12:21:31.890
54.0, -203.33836059086025, -67.0713658053428, -97.28227764740586, -143.7767138965428, 0.1600000075995922, 0.11200000531971455, 1.0240000486373901, 0.0, 0.0, 0.0, 0.0, 0.0, 1.6518360918914218E9, 0.0, 2022-05-06 12:21:31.891
54.0, -212.45997658278793, -100.2330587124452, -139.7301421444863, -159.16640221420676, 0.1600000075995922, 0.11200000531971455, 1.0240000486373901, 0.0, 0.0, 0.0, 0.0, 0.0, 1.6518360918914218E9, 0.0, 2022-05-06 12:21:31.891
55.0, -245.49451289139688, -171.3771755695343, -196.85711396764964, -167.66345491353422, 0.1600000075995922, 0.11200000531971455, 1.0240000486373901, 0.0, 0.0, 0.0, 0.0, 0.0, 1.6518360919035118E9, 0.0, 2022-05-06 12:21:31.903
55.0, -245.97695998568088, -148.28703324310482, -165.30731794144958, -171.11164267268032, 0.1600000075995922, 0.11200000531971455, 1.0240000486373901, 0.0, 0.0, 0.0, 0.0, 0.0, 1.6518360919035118E9, 0.0, 2022-05-06 12:21:31.903
56.0, -236.930141992867, -88.06716415658593, -117.41041920892894, -163.2653325656429, 0.1600000075995922, 0.11200000531971455, 1.0240000486373901, 0.0, 0.0, 0.0, 0.0, 0.0, 1.6518360919354749E9, 0.0, 2022-05-06 12:21:31.935
56.0, -221.87704467121512, -99.07742962613702, -132.1007462348789, -147.08652535732836, 0.1600000075995922, 0.11200000531971455, 1.0240000486373901, 0.0, 0.0, 0.0, 0.0, 0.0, 1.6518360919354749E9, 0.0, 2022-05-06 12:21:31.935
57.0, -256.80771025735885, -182.45101933833212, -204.2808153796941, -180.74562495853752, 0.1600000075995922, 0.11200000531971455, 1.0240000486373901, 0.0, 0.0, 0.0, 0.0, 0.0, 1.6518360919364307E9, 0.0, 2022-05-06 12:21:31.936
57.0, -256.5384374605492, -151.60432450380176, -168.65452840179205, -167.6746746134013, 0.1600000075995922, 0.11200000531971455, 1.0240000486373901, 0.0, 0.0, 0.0, 0.0, 0.0, 1.6518360919364307E9, 0.0, 2022-05-06 12:21:31.936
58.0, -216.33825283683836, -69.27042697928846, -99.14100792538375, -141.25976122636348, 0.1600000075995922, 0.11200000531971455, 1.0240000486373901, 0.0, 0.0, 0.0, 0.0, 0.0, 1.6518360919374015E9, 0.0, 2022-05-06 12:21:31.937
58.0, -217.04509392846376, -101.29519029986113, -134.14647151064128, -158.078091327101, 0.1600000075995922, 0.11200000531971455, 1.0240000486373901, 0.0, 0.0, 0.0, 0.0, 0.0, 1.6518360919374015E9, 0.0, 2022-05-06 12:21:31.937
59.0, -260.1661404175684, -179.73585197050124, -208.86967262532562, -195.39481308497488, 0.1600000075995922, 0.11200000531971455, 1.0240000486373901, 0.0, 0.0, 0.0, 0.0, 0.0, 1.6518360919384024E9, 0.0, 2022-05-06 12:21:31.938
59.0, -256.9086875561625, -151.26773350778967, -170.37114248145372, -178.55778348445892, 0.1600000075995922, 0.11200000531971455, 1.0240000486373901, 0.0, 0.0, 0.0, 0.0, 0.0, 1.6518360919384024E9, 0.0, 2022-05-06 12:21:31.938
60.0, -221.3609384773299, -80.19841464981437, -105.07622915506363, -148.2907731430605, 0.1600000075995922, 0.11200000531971455, 1.008000047877431, 0.0, 0.0, 0.0, 0.0, 0.0, 1.6518360919484568E9, 0.0, 2022-05-06 12:21:31.948
60.0, -211.46142329461873, -97.44309334550053, -132.97962272446603, -156.5896111447364, 0.1600000075995922, 0.11200000531971455, 1.008000047877431, 0.0, 0.0, 0.0, 0.0, 0.0, 1.6518360919484568E9, 0.0, 2022-05-06 12:21:31.948
61.0, -240.2623928533867, -177.16654070094228, -199.12349334079772, -181.6432009479031, 0.1600000075995922, 0.11200000531971455, 1.008000047877431, 0.0, 0.0, 0.0, 0.0, 0.0, 1.6518360919635184E9, 0.0, 2022-05-06 12:21:31.963
61.0, -261.4564059022814, -159.9256019052118, -176.5232779085636, -179.03649067878723, 0.1600000075995922, 0.11200000531971455, 1.008000047877431, 0.0, 0.0, 0.0, 0.0, 0.0, 1.6518360919635184E9, 0.0, 2022-05-06 12:21:31.963
62.0, -227.54673300404102, -85.58013068605214, -110.11761429533362, -158.27256612479687, 0.1600000075995922, 0.11200000531971455, 1.008000047877431, 0.0, 0.0, 0.0, 0.0, 0.0, 1.6518360919955294E9, 0.0, 2022-05-06 12:21:31.995
62.0, -205.1372524695471, -87.19576746691018, -117.45529800839722, -141.04658692888916, 0.1600000075995922, 0.11200000531971455, 1.008000047877431, 0.0, 0.0, 0.0, 0.0, 0.0, 1.6518360919955294E9, 0.0, 2022-05-06 12:21:31.995
63.0, -243.84521701093763, -180.74562495853752, -203.60389348771423, -172.03913786169142, 0.1600000075995922, 0.11200000531971455, 1.008000047877431, 0.0, 0.0, 0.0, 0.0, 0.0, 1.6518360919964201E9, 0.0, 2022-05-06 12:21:31.996
63.0, -275.5707883350551, -165.27365884184837, -187.51110397838056, -186.65466688852757, 0.1600000075995922, 0.11200000531971455, 1.008000047877431, 0.0, 0.0, 0.0, 0.0, 0.0, 1.6518360919964201E9, 0.0, 2022-05-06 12:21:31.996
64.0, -228.9978141868487, -80.35923034790903, -112.19699867069721, -152.9955672873184, 0.1600000075995922, 0.11200000531971455, 1.008000047877431, 0.0, 0.0, 0.0, 0.0, 0.0, 1.651836091997439E9, 0.0, 2022-05-06 12:21:31.997
64.0, -205.41026516631246, -90.74119262490422, -122.837014044635, -139.842339143157, 0.1600000075995922, 0.11200000531971455, 1.008000047877431, 0.0, 0.0, 0.0, 0.0, 0.0, 1.651836091997439E9, 0.0, 2022-05-06 12:21:31.997
65.0, -244.39124240446836, -178.3483490869403, -201.40857221372426, -176.2353056119755, 0.1600000075995922, 0.11200000531971455, 1.008000047877431, 0.0, 0.0, 0.0, 0.0, 0.0, 1.6518360919984777E9, 0.0, 2022-05-06 12:21:31.998
65.0, -259.5266175251454, -158.21646762546152, -173.99510553851724, -182.8661482334137, 0.1600000075995922, 0.11200000531971455, 1.008000047877431, 0.0, 0.0, 0.0, 0.0, 0.0, 1.6518360919984777E9, 0.0, 2022-05-06 12:21:31.998
66.0, -222.68112316168845, -81.24184673745185, -110.67485938873142, -152.17278929706663, 0.1600000075995922, 0.11200000531971455, 1.008000047877431, 0.0, 0.0, 0.0, 0.0, 0.0, 1.6518360920235176E9, 0.0, 2022-05-06 12:21:32.023
66.0, -219.63310469780117, -105.26696405280381, -139.18411675095558, -166.87807592283934, 0.1600000075995922, 0.11200000531971455, 1.008000047877431, 0.0, 0.0, 0.0, 0.0, 0.0, 1.6518360920235176E9, 0.0, 2022-05-06 12:21:32.023
67.0, -261.80421659816056, -183.92827982082963, -203.97040368337184, -190.89945333823562, 0.1600000075995922, 0.11200000531971455, 1.008000047877431, 0.0, 0.0, 0.0, 0.0, 0.0, 1.6518360920244615E9, 0.0, 2022-05-06 12:21:32.024
67.0, -254.33563638664782, -157.05709863919765, -169.3389300936833, -170.66285467799753, 0.1600000075995922, 0.11200000531971455, 1.008000047877431, 0.0, 0.0, 0.0, 0.0, 0.0, 1.6518360920244615E9, 0.0, 2022-05-06 12:21:32.024
68.0, -216.2896341374144, -68.80667938478291, -101.59438229631633, -141.90302401874214, 0.1600000075995922, 0.11200000531971455, 1.008000047877431, 0.0, 0.0, 0.0, 0.0, 0.0, 1.6518360920554917E9, 0.0, 2022-05-06 12:21:32.055
68.0, -210.84807970188558, -88.05594445671886, -121.85342035628855, -136.22211598604918, 0.1600000075995922, 0.11200000531971455, 1.008000047877431, 0.0, 0.0, 0.0, 0.0, 0.0, 1.6518360920554917E9, 0.0, 2022-05-06 12:21:32.055
69.0, -252.77609810512513, -175.1993533242494, -199.2095110397786, -172.39442835748196, 0.1600000075995922, 0.11200000531971455, 1.008000047877431, 0.0, 0.0, 0.0, 0.0, 0.0, 1.651836092056448E9, 0.0, 2022-05-06 12:21:32.056
69.0, -267.03259673621505, -173.02273155003786, -190.06545564811677, -206.3901189547032, 0.1600000075995922, 0.11200000531971455, 1.008000047877431, 0.0, 0.0, 0.0, 0.0, 0.0, 1.651836092056448E9, 0.0, 2022-05-06 12:21:32.056
70.0, -225.1793763320893, -91.90056161116809, -123.97020373120904, -175.01609822642058, 0.1600000075995922, 0.11200000531971455, 1.0240000486373901, 0.0, 0.0, 0.0, 0.0, 0.0, 1.6518360920574148E9, 0.0, 2022-05-06 12:21:32.057
70.0, -218.26804121397436, -108.9058867096901, -144.97348188236356, -174.21575963590294, 0.1600000075995922, 0.11200000531971455, 1.0240000486373901, 0.0, 0.0, 0.0, 0.0, 0.0, 1.6518360920574148E9, 0.0, 2022-05-06 12:21:32.057
71.0, -255.76801806967705, -195.10310088843107, -212.72176957968622, -189.28755645733327, 0.1600000075995922, 0.11200000531971455, 1.0240000486373901, 0.0, 0.0, 0.0, 0.0, 0.0, 1.6518360920584111E9, 0.0, 2022-05-06 12:21:32.058
71.0, -259.2049861289561, -162.73800667189062, -178.16883388906717, -172.5963829550892, 0.1600000075995922, 0.11200000531971455, 1.0240000486373901, 0.0, 0.0, 0.0, 0.0, 0.0, 1.6518360920584111E9, 0.0, 2022-05-06 12:21:32.058
72.0, -217.729495620355, -77.23267398495227, -109.12280090712011, -145.49332797620445, 0.1600000075995922, 0.11200000531971455, 1.0240000486373901, 0.0, 0.0, 0.0, 0.0, 0.0, 1.6518360920834627E9, 0.0, 2022-05-06 12:21:32.083
72.0, -199.86025363206863, -83.50074631068856, -118.99987669009715, -135.63495169300586, 0.1600000075995922, 0.11200000531971455, 1.0240000486373901, 0.0, 0.0, 0.0, 0.0, 0.0, 1.6518360920834627E9, 0.0, 2022-05-06 12:21:32.083
73.0, -245.8535432871431, -173.5612771436572, -196.1689723758027, -174.39901473373175, 0.1600000075995922, 0.11200000531971455, 1.0240000486373901, 0.0, 0.0, 0.0, 0.0, 0.0, 1.651836092084411E9, 0.0, 2022-05-06 12:21:32.084
73.0, -252.77609810512513, -156.16700244974345, -167.521338715218, -170.10934948455542, 0.1600000075995922, 0.11200000531971455, 1.0240000486373901, 0.0, 0.0, 0.0, 0.0, 0.0, 1.651836092084411E9, 0.0, 2022-05-06 12:21:32.084
74.0, -213.1032393751666, -68.87025768402964, -94.93736037518829, -137.81905326712877, 0.1600000075995922, 0.11200000531971455, 1.0240000486373901, 0.0, 0.0, 0.0, 0.0, 0.0, 1.6518360921155198E9, 0.0, 2022-05-06 12:21:32.115
74.0, -213.20047677401453, -97.45057314541191, -128.45808367803693, -151.4846477052197, 0.1600000075995922, 0.11200000531971455, 1.0240000486373901, 0.0, 0.0, 0.0, 0.0, 0.0, 1.6518360921155198E9, 0.0, 2022-05-06 12:21:32.115
75.0, -253.827009992674, -188.96592506114393, -210.0963598107919, -195.91839907877147, 0.1600000075995922, 0.11200000531971455, 1.0240000486373901, 0.0, 0.0, 0.0, 0.0, 0.0, 1.651836092116407E9, 0.0, 2022-05-06 12:21:32.116
75.0, -271.3783604847267, -168.76298550050706, -189.02576346043497, -189.84854145068675, 0.1600000075995922, 0.11200000531971455, 1.0240000486373901, 0.0, 0.0, 0.0, 0.0, 0.0, 1.651836092116407E9, 0.0, 2022-05-06 12:21:32.116
76.0, -223.0663328571245, -77.63284328021109, -102.24886478856206, -144.08712559286505, 0.1600000075995922, 0.11200000531971455, 1.0240000486373901, 0.0, 0.0, 0.0, 0.0, 0.0, 1.6518360921174757E9, 0.0, 2022-05-06 12:21:32.117
76.0, -216.48784883506596, -92.31943040620536, -123.52515563648194, -147.55775275174528, 0.1600000075995922, 0.11200000531971455, 1.0240000486373901, 0.0, 0.0, 0.0, 0.0, 0.0, 1.6518360921174757E9, 0.0, 2022-05-06 12:21:32.117
77.0, -243.3739896165207, -168.53485160320997, -191.1275872355327, -168.71810670103878, 0.1600000075995922, 0.11200000531971455, 1.0240000486373901, 0.0, 0.0, 0.0, 0.0, 0.0, 1.6518360921184716E9, 0.0, 2022-05-06 12:21:32.118
77.0, -264.7998764626682, -170.54691777937114, -187.82151567470282, -174.7917042290792, 0.1600000075995922, 0.11200000531971455, 1.0240000486373901, 0.0, 0.0, 0.0, 0.0, 0.0, 1.6518360921184716E9, 0.0, 2022-05-06 12:21:32.118
78.0, -216.2522351378575, -71.53306645248085, -98.8642553286627, -138.49971505906433, 0.1600000075995922, 0.11200000531971455, 1.0240000486373901, 0.0, 0.0, 0.0, 0.0, 0.0, 1.651836092143459E9, 0.0, 2022-05-06 12:21:32.143
78.0, -210.8368600020185, -90.98802602197975, -127.90083858463913, -143.22320870310068, 0.1600000075995922, 0.11200000531971455, 1.0240000486373901, 0.0, 0.0, 0.0, 0.0, 0.0, 1.651836092143459E9, 0.0, 2022-05-06 12:21:32.143
79.0, -258.55424353666604, -190.45440524350852, -214.48700235877186, -196.74491696897894, 0.1600000075995922, 0.11200000531971455, 1.0240000486373901, 0.0, 0.0, 0.0, 0.0, 0.0, 1.6518360921444268E9, 0.0, 2022-05-06 12:21:32.144
79.0, -267.9787914250046, -175.40130792185664, -193.78665610402822, -187.75045757554471, 0.1600000075995922, 0.11200000531971455, 1.0240000486373901, 0.0, 0.0, 0.0, 0.0, 0.0, 1.6518360921444268E9, 0.0, 2022-05-06 12:21:32.144
80.0, -213.653004668653, -70.28019996732473, -105.86908794566989, -149.33794513065368, 0.1600000075995922, 0.11200000531971455, 1.0240000486373901, 0.0, 0.0, 0.0, 0.0, 0.0, 1.6518360921755247E9, 0.0, 2022-05-06 12:21:32.175
80.0, -210.78450140263885, -84.43198139965534, -121.80854155682027, -150.53471311647445, 0.1600000075995922, 0.11200000531971455, 1.0240000486373901, 0.0, 0.0, 0.0, 0.0, 0.0, 1.6518360921755247E9, 0.0, 2022-05-06 12:21:32.175
81.0, -241.86680993437767, -175.22553262393922, -195.6154671823606, -172.85069615207613, 0.1600000075995922, 0.11200000531971455, 1.0240000486373901, 0.0, 0.0, 0.0, 0.0, 0.0, 1.651836092176413E9, 0.0, 2022-05-06 12:21:32.176
81.0, -256.6057556597516, -167.88784891087562, -183.98811822012067, -188.10574807133526, 0.1600000075995922, 0.11200000531971455, 1.0240000486373901, 0.0, 0.0, 0.0, 0.0, 0.0, 1.651836092176413E9, 0.0, 2022-05-06 12:21:32.176
82.0, -219.52838749904186, -73.52643312886357, -106.88260083366185, -152.9955672873184, 0.1600000075995922, 0.11200000531971455, 1.0240000486373901, 0.0, 0.0, 0.0, 0.0, 0.0, 1.6518360921774013E9, 0.0, 2022-05-06 12:21:32.177
82.0, -214.20276996213943, -99.3055635234341, -128.9106115726754, -157.60312403272837, 0.1600000075995922, 0.11200000531971455, 1.0240000486373901, 0.0, 0.0, 0.0, 0.0, 0.0, 1.6518360921774013E9, 0.0, 2022-05-06 12:21:32.177
83.0, -234.7460404187441, -176.77011130563915, -192.41411282029003, -163.7477796599269, 0.1600000075995922, 0.11200000531971455, 1.0240000486373901, 0.0, 0.0, 0.0, 0.0, 0.0, 1.6518360921784155E9, 0.0, 2022-05-06 12:21:32.178
83.0, -260.906640608795, -168.59095010254532, -181.35522865131497, -186.89776038564742, 0.1600000075995922, 0.11200000531971455, 1.0240000486373901, 0.0, 0.0, 0.0, 0.0, 0.0, 1.6518360921784155E9, 0.0, 2022-05-06 12:21:32.178
84.0, -219.09455910418183, -74.5923046162352, -103.28481707628816, -149.98120792303234, 0.1600000075995922, 0.11200000531971455, 1.0240000486373901, 0.0, 0.0, 0.0, 0.0, 0.0, 1.651836092203496E9, 0.0, 2022-05-06 12:21:32.203
84.0, -211.45394349470735, -84.73491329606622, -118.69694479368627, -135.8069870909676, 0.1600000075995922, 0.11200000531971455, 1.0240000486373901, 0.0, 0.0, 0.0, 0.0, 0.0, 1.651836092203496E9, 0.0, 2022-05-06 12:21:32.203
85.0, -236.78802579455078, -168.8190839998424, -195.81742177996784, -186.95011898502707, 0.1600000075995922, 0.11200000531971455, 1.0240000486373901, 0.0, 0.0, 0.0, 0.0, 0.0, 1.6518360922044623E9, 0.0, 2022-05-06 12:21:32.204
85.0, -254.4553131852299, -167.73077311273664, -181.43750645034015, -185.25220440514386, 0.1600000075995922, 0.11200000531971455, 1.0240000486373901, 0.0, 0.0, 0.0, 0.0, 0.0, 1.6518360922044623E9, 0.0, 2022-05-06 12:21:32.204
86.0, -228.16381649672985, -80.56118494551629, -110.28590979333967, -148.45906864106655, 0.1600000075995922, 0.11200000531971455, 1.0240000486373901, 0.0, 0.0, 0.0, 0.0, 0.0, 1.6518360922185054E9, 0.0, 2022-05-06 12:21:32.218
86.0, -220.86727168317884, -91.50413221586496, -129.01158887147903, -151.372450706549, 0.1600000075995922, 0.11200000531971455, 1.0240000486373901, 0.0, 0.0, 0.0, 0.0, 0.0, 1.6518360922185054E9, 0.0, 2022-05-06 12:21:32.218
87.0, -259.6462943237275, -185.24472460523248, -200.55213512387127, -178.303470287472, 0.1600000075995922, 0.11200000531971455, 1.0240000486373901, 0.0, 0.0, 0.0, 0.0, 0.0, 1.6518360922334416E9, 0.0, 2022-05-06 12:21:32.233
87.0, -250.94728702679276, -158.47078082244843, -175.2704114234075, -164.39104245230556, 0.1600000075995922, 0.11200000531971455, 1.0240000486373901, 0.0, 0.0, 0.0, 0.0, 0.0, 1.6518360922334416E9, 0.0, 2022-05-06 12:21:32.233
88.0, -220.85979188326746, -82.2254404257983, -110.9777912851423, -153.61265078000724, 0.1600000075995922, 0.11200000531971455, 1.0240000486373901, 0.0, 0.0, 0.0, 0.0, 0.0, 1.6518360922344363E9, 0.0, 2022-05-06 12:21:32.234
88.0, -213.64552486874163, -99.1559675252065, -127.11919949389994, -157.68540183175355, 0.1600000075995922, 0.11200000531971455, 1.0240000486373901, 0.0, 0.0, 0.0, 0.0, 0.0, 1.6518360922344363E9, 0.0, 2022-05-06 12:21:32.234
89.0, -247.43552096839994, -185.20732560567558, -199.71813743375242, -188.31892236880958, 0.1600000075995922, 0.11200000531971455, 1.0240000486373901, 0.0, 0.0, 0.0, 0.0, 0.0, 1.6518360922654705E9, 0.0, 2022-05-06 12:21:32.265
89.0, -276.1317733284086, -181.85263534542173, -193.44258530810475, -192.22337792254984, 0.1600000075995922, 0.11200000531971455, 1.0240000486373901, 0.0, 0.0, 0.0, 0.0, 0.0, 1.6518360922654705E9, 0.0, 2022-05-06 12:21:32.265
90.0, -229.28204658348113, -86.68340117298067, -118.07238150108606, -160.45666769891977, 0.1600000075995922, 0.11200000531971455, 1.0240000486373901, 0.0, 0.0, 0.0, 0.0, 0.0, 1.6518360922664046E9, 0.0, 2022-05-06 12:21:32.266
90.0, -210.7246630033478, -85.7446862841025, -119.833874380216, -148.0327200461179, 0.1600000075995922, 0.11200000531971455, 1.0240000486373901, 0.0, 0.0, 0.0, 0.0, 0.0, 1.6518360922664046E9, 0.0, 2022-05-06 12:21:32.266
91.0, -250.84630972798914, -188.0496495719999, -202.92697159573436, -184.96423210855573, 0.1600000075995922, 0.11200000531971455, 1.0240000486373901, 0.0, 0.0, 0.0, 0.0, 0.0, 1.6518360922674258E9, 0.0, 2022-05-06 12:21:32.267
91.0, -263.44603267870843, -176.23904551193118, -194.874966991134, -190.98547103721648, 0.1600000075995922, 0.11200000531971455, 1.0240000486373901, 0.0, 0.0, 0.0, 0.0, 0.0, 1.6518360922674258E9, 0.0, 2022-05-06 12:21:32.267
92.0, -238.86741016991436, -86.06631768029183, -114.76257004030049, -156.94864154048264, 0.1600000075995922, 0.11200000531971455, 1.0240000486373901, 0.0, 0.0, 0.0, 0.0, 0.0, 1.6518360922684083E9, 0.0, 2022-05-06 12:21:32.268
92.0, -224.82034593634307, -89.3013311419636, -128.0990532822907, -157.6629624320194, 0.1600000075995922, 0.11200000531971455, 1.0240000486373901, 0.0, 0.0, 0.0, 0.0, 0.0, 1.6518360922684083E9, 0.0, 2022-05-06 12:21:32.268
93.0, -259.76971102226526, -181.2018927531317, -205.26066916808486, -192.66094621736556, 0.1600000075995922, 0.11200000531971455, 1.0240000486373901, 0.0, 0.0, 0.0, 0.0, 0.0, 1.6518360922935224E9, 0.0, 2022-05-06 12:21:32.293
93.0, -264.3548283679411, -176.72149260621518, -190.73863764014095, -190.9817311372608, 0.1600000075995922, 0.11200000531971455, 1.0240000486373901, 0.0, 0.0, 0.0, 0.0, 0.0, 1.6518360922935224E9, 0.0, 2022-05-06 12:21:32.293
94.0, -238.79261217080057, -88.10082325618714, -119.66557888220996, -154.12127717398107, 0.1600000075995922, 0.11200000531971455, 1.0240000486373901, 0.0, 0.0, 0.0, 0.0, 0.0, 1.6518360922944627E9, 0.0, 2022-05-06 12:21:32.294
94.0, -225.16441673226655, -91.71730651333928, -125.08469391800463, -147.74474774952978, 0.1600000075995922, 0.11200000531971455, 1.0240000486373901, 0.0, 0.0, 0.0, 0.0, 0.0, 1.6518360922944627E9, 0.0, 2022-05-06 12:21:32.294
95.0, -254.91532087977976, -179.2384452763945, -195.24895698670298, -171.42579426895827, 0.1600000075995922, 0.11200000531971455, 1.0240000486373901, 0.0, 0.0, 0.0, 0.0, 0.0, 1.651836092308539E9, 0.0, 2022-05-06 12:21:32.308
95.0, -276.41600572504103, -178.95421287976205, -203.42437828984112, -196.81597506813705, 0.1600000075995922, 0.11200000531971455, 1.0240000486373901, 0.0, 0.0, 0.0, 0.0, 0.0, 1.651836092308539E9, 0.0, 2022-05-06 12:21:32.308
96.0, -228.32463219482452, -88.90490174666047, -122.17879165243357, -159.43567501101643, 0.1600000075995922, 0.11200000531971455, 1.0240000486373901, 0.0, 0.0, 0.0, 0.0, 0.0, 1.6518360923094416E9, 0.0, 2022-05-06 12:21:32.309
96.0, -220.05197349283844, -91.17128111980855, -125.26420911587775, -150.58333181589842, 0.1600000075995922, 0.11200000531971455, 1.0240000486373901, 0.0, 0.0, 0.0, 0.0, 0.0, 1.6518360923094416E9, 0.0, 2022-05-06 12:21:32.309
97.0, -254.56003038398921, -188.30396276898682, -209.2137434212491, -198.97015744261444, 0.1600000075995922, 0.11200000531971455, 1.0240000486373901, 0.0, 0.0, 0.0, 0.0, 0.0, 1.6518360923234549E9, 0.0, 2022-05-06 12:21:32.323
97.0, -269.95719850156456, -177.58540949597955, -193.91755260247737, -187.00247758440673, 0.1600000075995922, 0.11200000531971455, 1.0240000486373901, 0.0, 0.0, 0.0, 0.0, 0.0, 1.6518360923234549E9, 0.0, 2022-05-06 12:21:32.323
98.0, -218.8439858071506, -73.93782212398946, -107.86245462205261, -143.50744109973311, 0.1600000075995922, 0.11200000531971455, 1.0240000486373901, 0.0, 0.0, 0.0, 0.0, 0.0, 1.6518360923385282E9, 0.0, 2022-05-06 12:21:32.338
98.0, -214.85351255442947, -93.03001139778644, -124.26939572766423, -152.02693319879472, 0.1600000075995922, 0.11200000531971455, 1.0240000486373901, 0.0, 0.0, 0.0, 0.0, 0.0, 1.6518360923385282E9, 0.0, 2022-05-06 12:21:32.338
99.0, -258.0530969426036, -182.88110783323646, -202.88957259617746, -178.22493238840252, 0.1600000075995922, 0.11200000531971455, 1.0240000486373901, 0.0, 0.0, 0.0, 0.0, 0.0, 1.6518360923393955E9, 0.0, 2022-05-06 12:21:32.339
99.0, -257.0769830541685, -164.31624445319176, -182.7950901342556, -172.24857225921005, 0.1600000075995922, 0.11200000531971455, 1.0240000486373901, 0.0, 0.0, 0.0, 0.0, 0.0, 1.6518360923393955E9, 0.0, 2022-05-06 12:21:32.339
100.0, -235.91662910487503, -84.31604450102895, -120.79128876887262, -161.3766830880195, 0.1600000075995922, 0.11200000531971455, 1.008000047877431, 0.0, 0.0, 0.0, 0.0, 0.0, 1.6518360923534665E9, 0.0, 2022-05-06 12:21:32.353
100.0, -221.92566337063909, -91.98283941019326, -125.81771430931985, -158.31370502430946, 0.1600000075995922, 0.11200000531971455, 1.008000047877431, 0.0, 0.0, 0.0, 0.0, 0.0, 1.6518360923534665E9, 0.0, 2022-05-06 12:21:32.353
0.0, -252.83032665448263, -177.04125405242667, -192.7207846166566, -178.68867998290807, 0.1600000075995922, 0.11200000531971455, 1.008000047877431, 0.0, 0.0, 0.0, 0.0, 0.0, 1.6518360923544493E9, 0.0, 2022-05-06 12:21:32.354
1.0, -271.72804113058373, -176.181077062618, -198.685925045982, -186.11238139495254, 0.1600000075995922, 0.11200000531971455, 1.008000047877431, 0.0, 0.0, 0.0, 0.0, 0.0, 1.651836092384531E9, 0.0, 2022-05-06 12:21:32.384
1.0, -218.58032286027446, -84.4675104492344, -120.8698266679421, -154.7084414670244, 0.1600000075995922, 0.11200000531971455, 1.008000047877431, 0.0, 0.0, 0.0, 0.0, 0.0, 1.651836092384531E9, 0.0, 2022-05-06 12:21:32.384
2.0, -217.92210046807304, -75.80964205181226, -119.7964753806591, -158.13044992648065, 0.1600000075995922, 0.11200000531971455, 1.008000047877431, 0.0, 0.0, 0.0, 0.0, 0.0, 1.6518360923854568E9, 0.0, 2022-05-06 12:21:32.385
2.0, -265.2991531067528, -181.45433600014076, -205.81417436152697, -181.24677155259997, 0.1600000075995922, 0.11200000531971455, 1.008000047877431, 0.0, 0.0, 0.0, 0.0, 0.0, 1.6518360923854568E9, 0.0, 2022-05-06 12:21:32.385
3.0, -277.53984566172585, -179.6217850218527, -198.13989965245128, -180.14724096562713, 0.1600000075995922, 0.11200000531971455, 1.008000047877431, 0.0, 0.0, 0.0, 0.0, 0.0, 1.651836092386395E9, 0.0, 2022-05-06 12:21:32.386
3.0, -232.13746019965038, -85.97469013137743, -118.5361290955916, -161.6646553846076, 0.1600000075995922, 0.11200000531971455, 1.008000047877431, 0.0, 0.0, 0.0, 0.0, 0.0, 1.651836092386395E9, 0.0, 2022-05-06 12:21:32.386
4.0, -215.70807969430462, -71.62469400139526, -108.61791441310197, -123.18856464046985, 0.1600000075995922, 0.11200000531971455, 1.008000047877431, 0.0, 0.0, 0.0, 0.0, 0.0, 1.6518360923984876E9, 0.0, 2022-05-06 12:21:32.398
4.0, -253.08463985146955, -174.92447067750618, -198.40169264934957, -185.62245450075716, 0.1600000075995922, 0.11200000531971455, 1.008000047877431, 0.0, 0.0, 0.0, 0.0, 0.0, 1.6518360923984876E9, 0.0, 2022-05-06 12:21:32.398
5.0, -268.69124236656353, -177.70695624453947, -191.8643475268036, -192.67216591723263, 0.1600000075995922, 0.11200000531971455, 1.008000047877431, 0.0, 0.0, 0.0, 0.0, 0.0, 1.651836092414482E9, 0.0, 2022-05-06 12:21:32.414
5.0, -247.95723701221868, -99.04564047651365, -127.07806059438735, -165.72244683653116, 0.1600000075995922, 0.11200000531971455, 1.008000047877431, 0.0, 0.0, 0.0, 0.0, 0.0, 1.651836092414482E9, 0.0, 2022-05-06 12:21:32.414
6.0, -222.27908391645178, -91.2105500693433, -122.99408984277397, -148.39549034181982, 0.1600000075995922, 0.11200000531971455, 1.008000047877431, 0.0, 0.0, 0.0, 0.0, 0.0, 1.651836092415413E9, 0.0, 2022-05-06 12:21:32.415
6.0, -253.56334704579785, -169.90178503701463, -197.82574805617332, -179.1225083777681, 0.1600000075995922, 0.11200000531971455, 1.008000047877431, 0.0, 0.0, 0.0, 0.0, 0.0, 1.651836092415413E9, 0.0, 2022-05-06 12:21:32.415
7.0, -271.57844513235614, -176.66352415690199, -199.71813743375242, -193.48746410757303, 0.1600000075995922, 0.11200000531971455, 1.008000047877431, 0.0, 0.0, 0.0, 0.0, 0.0, 1.6518360924284985E9, 0.0, 2022-05-06 12:21:32.428
7.0, -237.7286106334068, -82.34324727440253, -119.37386668566614, -162.2966984771192, 0.1600000075995922, 0.11200000531971455, 1.008000047877431, 0.0, 0.0, 0.0, 0.0, 0.0, 1.6518360924284985E9, 0.0, 2022-05-06 12:21:32.428
8.0, -208.6695879776962, -78.57716801902279, -109.90817989781499, -134.30354730878025, 0.1600000075995922, 0.11200000531971455, 1.008000047877431, 0.0, 0.0, 0.0, 0.0, 0.0, 1.651836092444518E9, 0.0, 2022-05-06 12:21:32.444
8.0, -248.06943401088938, -179.31885312544182, -196.88703316729516, -177.0506038023159, 0.1600000075995922, 0.11200000531971455, 1.008000047877431, 0.0, 0.0, 0.0, 0.0, 0.0, 1.651836092444518E9, 0.0, 2022-05-06 12:21:32.444
9.0, -280.83469752268866, -185.01846065791324, -206.1021466581151, -199.6134202349931, 0.1600000075995922, 0.11200000531971455, 1.008000047877431, 0.0, 0.0, 0.0, 0.0, 0.0, 1.6518360924894547E9, 0.0, 2022-05-06 12:21:32.489
9.0, -233.17715238733217, -80.97818379057571, -117.96766430232674, -158.9270486170426, 0.1600000075995922, 0.11200000531971455, 1.008000047877431, 0.0, 0.0, 0.0, 0.0, 0.0, 1.6518360924894547E9, 0.0, 2022-05-06 12:21:32.489
10.0, -219.0478103547357, -86.27014222787693, -119.29158888664097, -155.22828756086528, 0.1600000075995922, 0.11200000531971455, 1.008000047877431, 0.0, 0.0, 0.0, 0.0, 0.0, 1.6518360924903984E9, 0.0, 2022-05-06 12:21:32.490
10.0, -249.96930318837985, -170.96765652438626, -184.17137331794947, -172.98159265052527, 0.1600000075995922, 0.11200000531971455, 1.008000047877431, 0.0, 0.0, 0.0, 0.0, 0.0, 1.6518360924903984E9, 0.0, 2022-05-06 12:21:32.490
11.0, -275.49786028591916, -180.5455403109081, -203.3570600906387, -187.81403587479144, 0.1600000075995922, 0.11200000531971455, 1.008000047877431, 0.0, 0.0, 0.0, 0.0, 0.0, 1.6518360924914117E9, 0.0, 2022-05-06 12:21:32.491
11.0, -240.12214660504833, -92.71024995157495, -126.25154270417988, -154.64860306773335, 0.1600000075995922, 0.11200000531971455, 1.008000047877431, 0.0, 0.0, 0.0, 0.0, 0.0, 1.6518360924914117E9, 0.0, 2022-05-06 12:21:32.491
12.0, -216.52337788464502, -83.22586366394535, -117.69091170560569, -153.69492857903242, 0.1600000075995922, 0.11200000531971455, 1.008000047877431, 0.0, 0.0, 0.0, 0.0, 0.0, 1.6518360925054746E9, 0.0, 2022-05-06 12:21:32.505
12.0, -258.4813154875301, -177.33670614892617, -199.74057683348656, -181.93117324449122, 0.1600000075995922, 0.11200000531971455, 1.008000047877431, 0.0, 0.0, 0.0, 0.0, 0.0, 1.6518360925054746E9, 0.0, 2022-05-06 12:21:32.505
13.0, -263.728395125363, -177.254428349901, -198.52510934788734, -182.6380143361166, 0.1600000075995922, 0.11200000531971455, 1.008000047877431, 0.0, 0.0, 0.0, 0.0, 0.0, 1.6518360925064554E9, 0.0, 2022-05-06 12:21:32.506
13.0, -241.83128088479862, -95.06638692365959, -129.85306636150926, -169.6717811897397, 0.1600000075995922, 0.11200000531971455, 1.008000047877431, 0.0, 0.0, 0.0, 0.0, 0.0, 1.6518360925064554E9, 0.0, 2022-05-06 12:21:32.506
14.0, -211.7101266416721, -77.50755663169548, -108.13920721877366, -142.5126277115196, 0.1600000075995922, 0.11200000531971455, 1.008000047877431, 0.0, 0.0, 0.0, 0.0, 0.0, 1.6518360925076573E9, 0.0, 2022-05-06 12:21:32.507
14.0, -267.76000727759674, -192.4833009694703, -212.12712548673153, -191.8680874267593, 0.1600000075995922, 0.11200000531971455, 1.008000047877431, 0.0, 0.0, 0.0, 0.0, 0.0, 1.6518360925076573E9, 0.0, 2022-05-06 12:21:32.507
15.0, -282.99261979712173, -193.46315475786105, -212.63201198074967, -198.92153874319047, 0.1600000075995922, 0.11200000531971455, 1.008000047877431, 0.0, 0.0, 0.0, 0.0, 0.0, 1.6518360925084336E9, 0.0, 2022-05-06 12:21:32.508
15.0, -228.95480533735827, -90.36159277940169, -112.80286246351898, -144.0646861931309, 0.1600000075995922, 0.11200000531971455, 1.008000047877431, 0.0, 0.0, 0.0, 0.0, 0.0, 1.6518360925084336E9, 0.0, 2022-05-06 12:21:32.508
16.0, -212.0803767372854, -74.11920727184042, -112.61586746573448, -150.49357421696186, 0.1600000075995922, 0.11200000531971455, 1.008000047877431, 0.0, 0.0, 0.0, 0.0, 0.0, 1.6518360925184505E9, 0.0, 2022-05-06 12:21:32.518
16.0, -247.37007271917537, -167.0968600702472, -185.88424749765545, -175.38634832203388, 0.1600000075995922, 0.11200000531971455, 1.008000047877431, 0.0, 0.0, 0.0, 0.0, 0.0, 1.6518360925184505E9, 0.0, 2022-05-06 12:21:32.518
17.0, -265.53102690400556, -178.3950978363864, -193.74551720451564, -175.76781811751425, 0.1600000075995922, 0.11200000531971455, 1.008000047877431, 0.0, 0.0, 0.0, 0.0, 0.0, 1.65183609255058E9, 0.0, 2022-05-06 12:21:32.550
17.0, -230.28620972158387, -90.29801448015496, -122.80335494503379, -154.97771426383406, 0.1600000075995922, 0.11200000531971455, 1.008000047877431, 0.0, 0.0, 0.0, 0.0, 0.0, 1.65183609255058E9, 0.0, 2022-05-06 12:21:32.550
18.0, -205.9357211100869, -75.74980365252122, -112.51115026697516, -148.87419753614813, 0.1600000075995922, 0.11200000531971455, 1.008000047877431, 0.0, 0.0, 0.0, 0.0, 0.0, 1.6518360925514033E9, 0.0, 2022-05-06 12:21:32.551
18.0, -234.276682974305, -164.73698319820687, -181.0859558545053, -162.09848377946764, 0.1600000075995922, 0.11200000531971455, 1.008000047877431, 0.0, 0.0, 0.0, 0.0, 0.0, 1.6518360925514033E9, 0.0, 2022-05-06 12:21:32.551
19.0, -272.8537510172464, -186.76873383717611, -206.58833365235478, -202.00321630667895, 0.1600000075995922, 0.11200000531971455, 1.008000047877431, 0.0, 0.0, 0.0, 0.0, 0.0, 1.6518360925524263E9, 0.0, 2022-05-06 12:21:32.552
19.0, -248.92213120078668, -99.26255467394367, -131.99602903611958, -161.43652148731053, 0.1600000075995922, 0.11200000531971455, 1.008000047877431, 0.0, 0.0, 0.0, 0.0, 0.0, 1.6518360925524263E9, 0.0, 2022-05-06 12:21:32.552
20.0, -230.29368952149525, -92.25024225702509, -124.89395902026445, -163.9310347577557, 0.1600000075995922, 0.11200000531971455, 1.008000047877431, 0.0, 0.0, 0.0, 0.0, 0.0, 1.6518360925535717E9, 0.0, 2022-05-06 12:21:32.553
20.0, -245.7693955381401, -168.3946053548716, -189.2052786583081, -183.29997662827373, 0.1600000075995922, 0.11200000531971455, 1.008000047877431, 0.0, 0.0, 0.0, 0.0, 0.0, 1.6518360925535717E9, 0.0, 2022-05-06 12:21:32.553
21.0, -262.4044705410488, -177.52370114671066, -193.6856788052246, -177.39093469828367, 0.1600000075995922, 0.11200000531971455, 1.008000047877431, 0.0, 0.0, 0.0, 0.0, 0.0, 1.651836092563514E9, 0.0, 2022-05-06 12:21:32.563
21.0, -238.5027699242346, -101.73836844461039, -124.6172064235434, -161.61229678522795, 0.1600000075995922, 0.11200000531971455, 1.008000047877431, 0.0, 0.0, 0.0, 0.0, 0.0, 1.651836092563514E9, 0.0, 2022-05-06 12:21:32.563
22.0, -215.58466299576685, -77.79178902832791, -104.82191595807672, -137.6245784694329, 0.1600000075995922, 0.11200000531971455, 1.008000047877431, 0.0, 0.0, 0.0, 0.0, 0.0, 1.6518360925784633E9, 0.0, 2022-05-06 12:21:32.578
22.0, -239.93141170730814, -155.63780660601333, -178.07159649021924, -167.98134640976787, 0.1600000075995922, 0.11200000531971455, 1.008000047877431, 0.0, 0.0, 0.0, 0.0, 0.0, 1.6518360925784633E9, 0.0, 2022-05-06 12:21:32.578
23.0, -260.42606346448883, -184.96610205853358, -198.0202228538692, -192.6833856170997, 0.1600000075995922, 0.11200000531971455, 1.008000047877431, 0.0, 0.0, 0.0, 0.0, 0.0, 1.651836092610548E9, 0.0, 2022-05-06 12:21:32.610
23.0, -248.23024970898405, -104.37873781332746, -128.2823083801195, -171.22009977139533, 0.1600000075995922, 0.11200000531971455, 1.008000047877431, 0.0, 0.0, 0.0, 0.0, 0.0, 1.651836092610548E9, 0.0, 2022-05-06 12:21:32.610
24.0, -227.3167291567661, -93.8060406385921, -123.70841073431075, -162.4462944753468, 0.1600000075995922, 0.11200000531971455, 1.008000047877431, 0.0, 0.0, 0.0, 0.0, 0.0, 1.651836092611397E9, 0.0, 2022-05-06 12:21:32.611
24.0, -245.9451708360575, -165.60090008797124, -182.69037293549627, -153.7734664781019, 0.1600000075995922, 0.11200000531971455, 1.008000047877431, 0.0, 0.0, 0.0, 0.0, 0.0, 1.651836092611397E9, 0.0, 2022-05-06 12:21:32.611
25.0, -265.75168100139126, -184.3677180656232, -196.93191196676344, -179.46657917369157, 0.1600000075995922, 0.11200000531971455, 1.008000047877431, 0.0, 0.0, 0.0, 0.0, 0.0, 1.6518360926124964E9, 0.0, 2022-05-06 12:21:32.612
25.0, -236.0232162536122, -100.75851465621963, -130.58982665278018, -170.68155417777598, 0.1600000075995922, 0.11200000531971455, 1.008000047877431, 0.0, 0.0, 0.0, 0.0, 0.0, 1.6518360926124964E9, 0.0, 2022-05-06 12:21:32.612
26.0, -222.24916471680626, -86.01208913093433, -122.60514024738222, -168.10476310830563, 0.1600000075995922, 0.11200000531971455, 1.008000047877431, 0.0, 0.0, 0.0, 0.0, 0.0, 1.651836092613469E9, 0.0, 2022-05-06 12:21:32.613
26.0, -253.60822584526613, -166.74530947441235, -193.1658327113837, -191.59133483003825, 0.1600000075995922, 0.11200000531971455, 1.008000047877431, 0.0, 0.0, 0.0, 0.0, 0.0, 1.651836092613469E9, 0.0, 2022-05-06 12:21:32.613
27.0, -264.64093071455136, -184.12836446845904, -201.3225545147434, -188.1281874710694, 0.1600000075995922, 0.11200000531971455, 1.008000047877431, 0.0, 0.0, 0.0, 0.0, 0.0, 1.6518360926234596E9, 0.0, 2022-05-06 12:21:32.623
27.0, -238.6486260225065, -93.63774514058605, -119.67679858207703, -154.22973427269608, 0.1600000075995922, 0.11200000531971455, 1.008000047877431, 0.0, 0.0, 0.0, 0.0, 0.0, 1.6518360926234596E9, 0.0, 2022-05-06 12:21:32.623
28.0, -209.95611356245354, -69.17505953041837, -105.2744438527152, -132.70661002770066, 0.1600000075995922, 0.11200000531971455, 1.008000047877431, 0.0, 0.0, 0.0, 0.0, 0.0, 1.6518360926384764E9, 0.0, 2022-05-06 12:21:32.638
28.0, -247.34763331944123, -166.67051147529855, -188.603154765442, -175.10585582535714, 0.1600000075995922, 0.11200000531971455, 1.008000047877431, 0.0, 0.0, 0.0, 0.0, 0.0, 1.6518360926384764E9, 0.0, 2022-05-06 12:21:32.638
29.0, -265.86013810010627, -181.96296239411458, -198.73080384545028, -194.235444098711, 0.1600000075995922, 0.11200000531971455, 1.008000047877431, 0.0, 0.0, 0.0, 0.0, 0.0, 1.6518360926705065E9, 0.0, 2022-05-06 12:21:32.670
29.0, -230.78735631564632, -88.11017300607637, -123.89540573209524, -157.6330432323739, 0.1600000075995922, 0.11200000531971455, 1.008000047877431, 0.0, 0.0, 0.0, 0.0, 0.0, 1.6518360926705065E9, 0.0, 2022-05-06 12:21:32.670
30.0, -219.25350485229865, -89.01896869530901, -121.3560136621818, -162.7492263717577, 0.1600000075995922, 0.11200000531971455, 1.0240000486373901, 0.0, 0.0, 0.0, 0.0, 0.0, 1.6518360926715145E9, 0.0, 2022-05-06 12:21:32.671
30.0, -240.34654060238972, -179.81999971950427, -197.75095005705953, -186.4601920908317, 0.1600000075995922, 0.11200000531971455, 1.0240000486373901, 0.0, 0.0, 0.0, 0.0, 0.0, 1.6518360926715145E9, 0.0, 2022-05-06 12:21:32.671
31.0, -266.64177719084546, -178.06224674033, -193.92503240238875, -175.25545182358474, 0.1600000075995922, 0.11200000531971455, 1.0240000486373901, 0.0, 0.0, 0.0, 0.0, 0.0, 1.6518360926725247E9, 0.0, 2022-05-06 12:21:32.672
31.0, -237.88942633150145, -98.33505948493257, -124.1347593292594, -154.41298937052488, 0.1600000075995922, 0.11200000531971455, 1.0240000486373901, 0.0, 0.0, 0.0, 0.0, 0.0, 1.6518360926725247E9, 0.0, 2022-05-06 12:21:32.672
32.0, -213.16868762439117, -80.42093869717792, -110.65241998899728, -149.3304653307423, 0.1600000075995922, 0.11200000531971455, 1.0240000486373901, 0.0, 0.0, 0.0, 0.0, 0.0, 1.6518360926734002E9, 0.0, 2022-05-06 12:21:32.673
32.0, -237.34714083792642, -155.48073080787435, -179.27584427595139, -168.40021520480514, 0.1600000075995922, 0.11200000531971455, 1.0240000486373901, 0.0, 0.0, 0.0, 0.0, 0.0, 1.6518360926734002E9, 0.0, 2022-05-06 12:21:32.673
33.0, -268.0330199743621, -186.91458993544802, -202.11915320530534, -181.94613284431398, 0.1600000075995922, 0.11200000531971455, 1.0240000486373901, 0.0, 0.0, 0.0, 0.0, 0.0, 1.6518360926834676E9, 0.0, 2022-05-06 12:21:32.683
33.0, -240.70931089809164, -99.2513349740766, -128.70117717515677, -157.75645993091166, 0.1600000075995922, 0.11200000531971455, 1.0240000486373901, 0.0, 0.0, 0.0, 0.0, 0.0, 1.6518360926834676E9, 0.0, 2022-05-06 12:21:32.683
34.0, -205.25131941819564, -63.52781059732661, -100.85762200504541, -139.41599054820836, 0.1600000075995922, 0.11200000531971455, 1.0240000486373901, 0.0, 0.0, 0.0, 0.0, 0.0, 1.6518360926984572E9, 0.0, 2022-05-06 12:21:32.698
34.0, -231.44931860780343, -156.93555189063773, -180.0126045672223, -156.06602515093982, 0.1600000075995922, 0.11200000531971455, 1.0240000486373901, 0.0, 0.0, 0.0, 0.0, 0.0, 1.6518360926984572E9, 0.0, 2022-05-06 12:21:32.698
35.0, -266.4435624931939, -183.30932637816295, -201.34499391447753, -183.10550183057785, 0.1600000075995922, 0.11200000531971455, 1.0240000486373901, 0.0, 0.0, 0.0, 0.0, 0.0, 1.6518360927305098E9, 0.0, 2022-05-06 12:21:32.730
35.0, -234.6805921695195, -95.46281631896272, -128.01677548326552, -158.60915712080896, 0.1600000075995922, 0.11200000531971455, 1.0240000486373901, 0.0, 0.0, 0.0, 0.0, 0.0, 1.6518360927305098E9, 0.0, 2022-05-06 12:21:32.730
36.0, -218.62146175978705, -79.79263550462201, -115.37965353298932, -153.6687492793426, 0.1600000075995922, 0.11200000531971455, 1.0240000486373901, 0.0, 0.0, 0.0, 0.0, 0.0, 1.6518360927314E9, 0.0, 2022-05-06 12:21:32.731
36.0, -247.63186571607366, -163.577614211943, -182.24906474072486, -183.4196534268558, 0.1600000075995922, 0.11200000531971455, 1.0240000486373901, 0.0, 0.0, 0.0, 0.0, 0.0, 1.6518360927314E9, 0.0, 2022-05-06 12:21:32.731
37.0, -271.1072177379392, -187.6588300266303, -213.42113087140024, -195.55562878306955, 0.1600000075995922, 0.11200000531971455, 1.0240000486373901, 0.0, 0.0, 0.0, 0.0, 0.0, 1.6518360927324111E9, 0.0, 2022-05-06 12:21:32.732
37.0, -233.04251598892733, -96.955036401283, -127.64278548769653, -162.27799897734076, 0.1600000075995922, 0.11200000531971455, 1.0240000486373901, 0.0, 0.0, 0.0, 0.0, 0.0, 1.6518360927324111E9, 0.0, 2022-05-06 12:21:32.732
38.0, -204.03211203264073, -65.95500566856936, -97.82830304093659, -140.4743822356686, 0.1600000075995922, 0.11200000531971455, 1.0240000486373901, 0.0, 0.0, 0.0, 0.0, 0.0, 1.65183609273342E9, 0.0, 2022-05-06 12:21:32.733
38.0, -239.14977261656895, -161.69644453423098, -180.50253146141768, -164.99690624512732, 0.1600000075995922, 0.11200000531971455, 1.0240000486373901, 0.0, 0.0, 0.0, 0.0, 0.0, 1.65183609273342E9, 0.0, 2022-05-06 12:21:32.733
39.0, -268.28359327139333, -192.3673640708439, -209.71862991526723, -191.2397842342034, 0.1600000075995922, 0.11200000531971455, 1.0240000486373901, 0.0, 0.0, 0.0, 0.0, 0.0, 1.65183609275846E9, 0.0, 2022-05-06 12:21:32.758
39.0, -235.81752175604925, -105.45582900056615, -134.90567120164633, -165.69252763688564, 0.1600000075995922, 0.11200000531971455, 1.0240000486373901, 0.0, 0.0, 0.0, 0.0, 0.0, 1.65183609275846E9, 0.0, 2022-05-06 12:21:32.758
40.0, -218.83837595721707, -82.25722957542166, -114.13426684774458, -160.5539050977677, 0.1600000075995922, 0.11200000531971455, 1.008000047877431, 0.0, 0.0, 0.0, 0.0, 0.0, 1.6518360927594323E9, 0.0, 2022-05-06 12:21:32.759
40.0, -233.18463218724355, -152.19335874682292, -175.99221211485565, -164.08437065593898, 0.1600000075995922, 0.11200000531971455, 1.008000047877431, 0.0, 0.0, 0.0, 0.0, 0.0, 1.6518360927594323E9, 0.0, 2022-05-06 12:21:32.759
41.0, -248.7650554026477, -178.2903806376271, -193.03867611289024, -179.18234677705914, 0.1600000075995922, 0.12800000607967377, 1.008000047877431, 0.0, 0.0, 0.0, 0.0, 0.0, 1.6518360927745008E9, 0.0, 2022-05-06 12:21:32.774
41.0, -231.4941974072717, -87.84090020926669, -115.76486322842538, -138.72036915645003, 0.1600000075995922, 0.12800000607967377, 1.008000047877431, 0.0, 0.0, 0.0, 0.0, 0.0, 1.6518360927745008E9, 0.0, 2022-05-06 12:21:32.774
42.0, -213.86804891610518, -76.3145285458304, -106.72552503552288, -147.63629065081477, 0.1600000075995922, 0.12800000607967377, 1.008000047877431, 0.0, 0.0, 0.0, 0.0, 0.0, 1.6518360927755196E9, 0.0, 2022-05-06 12:21:32.775
42.0, -246.41265833051875, -157.02904938952997, -185.25220440514386, -178.9766522794962, 0.1600000075995922, 0.12800000607967377, 1.008000047877431, 0.0, 0.0, 0.0, 0.0, 0.0, 1.6518360927755196E9, 0.0, 2022-05-06 12:21:32.775
43.0, -251.2857479727827, -175.05162727599964, -190.8358750389889, -170.64415517821908, 0.1600000075995922, 0.12800000607967377, 1.008000047877431, 0.0, 0.0, 0.0, 0.0, 0.0, 1.651836092788443E9, 0.0, 2022-05-06 12:21:32.788
43.0, -236.1279334523715, -99.61784516973421, -128.04669468291104, -166.1936742309481, 0.1600000075995922, 0.12800000607967377, 1.008000047877431, 0.0, 0.0, 0.0, 0.0, 0.0, 1.651836092788443E9, 0.0, 2022-05-06 12:21:32.788
44.0, -210.83872995199636, -78.02366282558069, -109.47435150295496, -149.52120022848248, 0.1600000075995922, 0.12800000607967377, 1.008000047877431, 0.0, 0.0, 0.0, 0.0, 0.0, 1.651836092803535E9, 0.0, 2022-05-06 12:21:32.803
44.0, -251.38298537163064, -165.20073079271242, -190.0168369486928, -184.9717119084671, 0.1600000075995922, 0.12800000607967377, 1.008000047877431, 0.0, 0.0, 0.0, 0.0, 0.0, 1.651836092803535E9, 0.0, 2022-05-06 12:21:32.803
45.0, -263.6722966260277, -185.624324450735, -205.4327045660466, -191.52401663083583, 0.1600000075995922, 0.12800000607967377, 1.008000047877431, 0.0, 0.0, 0.0, 0.0, 0.0, 1.6518360928184574E9, 0.0, 2022-05-06 12:21:32.818
45.0, -236.22891075117514, -107.98026147065684, -132.69913022778928, -159.151442614384, 0.1600000075995922, 0.12800000607967377, 1.008000047877431, 0.0, 0.0, 0.0, 0.0, 0.0, 1.6518360928184574E9, 0.0, 2022-05-06 12:21:32.818
46.0, -205.2625391180627, -63.209919101092964, -96.41088095773011, -128.5478412769735, 0.1600000075995922, 0.12800000607967377, 1.008000047877431, 0.0, 0.0, 0.0, 0.0, 0.0, 1.6518360928194077E9, 0.0, 2022-05-06 12:21:32.819
46.0, -236.95819124253467, -156.69245839351788, -180.52497086115181, -173.25086544733495, 0.1600000075995922, 0.12800000607967377, 1.008000047877431, 0.0, 0.0, 0.0, 0.0, 0.0, 1.6518360928194077E9, 0.0, 2022-05-06 12:21:32.819
47.0, -257.8380526951514, -186.30498624267057, -209.62513241637498, -192.25329712219536, 0.1600000075995922, 0.12800000607967377, 1.008000047877431, 0.0, 0.0, 0.0, 0.0, 0.0, 1.651836092833466E9, 0.0, 2022-05-06 12:21:32.833
47.0, -242.2426698799245, -110.81884553702548, -142.8417389076203, -173.0825699493289, 0.1600000075995922, 0.12800000607967377, 1.008000047877431, 0.0, 0.0, 0.0, 0.0, 0.0, 1.651836092833466E9, 0.0, 2022-05-06 12:21:32.833
48.0, -203.0372986444272, -72.78032308770344, -99.75435151811689, -137.37774507235736, 0.1600000075995922, 0.12800000607967377, 1.008000047877431, 0.0, 0.0, 0.0, 0.0, 0.0, 1.6518360928485231E9, 0.0, 2022-05-06 12:21:32.848
48.0, -244.19489765679464, -155.22267771093175, -179.73959187045693, -170.99944567400962, 0.1600000075995922, 0.12800000607967377, 1.008000047877431, 0.0, 0.0, 0.0, 0.0, 0.0, 1.6518360928485231E9, 0.0, 2022-05-06 12:21:32.848
49.0, -264.3379988181405, -187.4045168296434, -208.48820282984525, -185.03903010766953, 0.1600000075995922, 0.12800000607967377, 1.008000047877431, 0.0, 0.0, 0.0, 0.0, 0.0, 1.6518360928493946E9, 0.0, 2022-05-06 12:21:32.849
49.0, -228.0908884475939, -100.74729495635256, -117.11870701238513, -141.2485415264964, 0.1600000075995922, 0.12800000607967377, 1.008000047877431, 0.0, 0.0, 0.0, 0.0, 0.0, 1.6518360928493946E9, 0.0, 2022-05-06 12:21:32.849
50.0, -204.90350872231647, -66.22053856542334, -95.61802216712385, -133.2114965217188, 0.1600000075995922, 0.12800000607967377, 1.008000047877431, 0.0, 0.0, 0.0, 0.0, 0.0, 1.6518360928634708E9, 0.0, 2022-05-06 12:21:32.863
50.0, -236.34110774984583, -151.14992665918544, -178.62884158361703, -174.08860303740948, 0.1600000075995922, 0.12800000607967377, 1.008000047877431, 0.0, 0.0, 0.0, 0.0, 0.0, 1.6518360928634708E9, 0.0, 2022-05-06 12:21:32.863
51.0, -254.74889533175156, -182.37435138924047, -203.37949949037284, -191.76337022799999, 0.1600000075995922, 0.11200000531971455, 1.008000047877431, 0.0, 0.0, 0.0, 0.0, 0.0, 1.6518360928644347E9, 0.0, 2022-05-06 12:21:32.864
51.0, -242.28754867939278, -112.7037551146932, -138.15564426314086, -173.27330484706908, 0.1600000075995922, 0.11200000531971455, 1.008000047877431, 0.0, 0.0, 0.0, 0.0, 0.0, 1.6518360928644347E9, 0.0, 2022-05-06 12:21:32.864
52.0, -212.84331632824615, -67.64918034849688, -102.43211988639086, -145.01088088192046, 0.1600000075995922, 0.11200000531971455, 1.008000047877431, 0.0, 0.0, 0.0, 0.0, 0.0, 1.6518360928784842E9, 0.0, 2022-05-06 12:21:32.878
52.0, -243.25618276791647, -157.93036527885124, -181.0485568549484, -175.53594432026148, 0.1600000075995922, 0.11200000531971455, 1.008000047877431, 0.0, 0.0, 0.0, 0.0, 0.0, 1.6518360928784842E9, 0.0, 2022-05-06 12:21:32.878
53.0, -272.86871061706915, -193.7062482549809, -213.30893387272954, -193.36404740903527, 0.1600000075995922, 0.11200000531971455, 1.008000047877431, 0.0, 0.0, 0.0, 0.0, 0.0, 1.6518360928935647E9, 0.0, 2022-05-06 12:21:32.893
53.0, -240.03238900611177, -105.00704100588337, -126.86862619686872, -154.75332026649266, 0.1600000075995922, 0.11200000531971455, 1.008000047877431, 0.0, 0.0, 0.0, 0.0, 0.0, 1.6518360928935647E9, 0.0, 2022-05-06 12:21:32.893
54.0, -209.80277766427025, -74.74377056444064, -106.83772203419358, -147.31465925462544, 0.1600000075995922, 0.11200000531971455, 1.008000047877431, 0.0, 0.0, 0.0, 0.0, 0.0, 1.651836092894396E9, 0.0, 2022-05-06 12:21:32.894
54.0, -236.21769105130807, -150.7983760633506, -172.33085005823523, -163.9310347577557, 0.1600000075995922, 0.11200000531971455, 1.008000047877431, 0.0, 0.0, 0.0, 0.0, 0.0, 1.651836092894396E9, 0.0, 2022-05-06 12:21:32.894
55.0, -255.83346631890163, -185.13813745649531, -203.17754489276558, -171.51929176785052, 0.1600000075995922, 0.11200000531971455, 1.008000047877431, 0.0, 0.0, 0.0, 0.0, 0.0, 1.651836092908543E9, 0.0, 2022-05-06 12:21:32.908
55.0, -243.69749096268788, -112.95806831168011, -142.01148111745715, -166.5227854270488, 0.1600000075995922, 0.11200000531971455, 1.008000047877431, 0.0, 0.0, 0.0, 0.0, 0.0, 1.651836092908543E9, 0.0, 2022-05-06 12:21:32.908
56.0, -204.76887232391164, -63.78586369426921, -96.26128495950252, -148.04019984602928, 0.1600000075995922, 0.11200000531971455, 1.008000047877431, 0.0, 0.0, 0.0, 0.0, 0.0, 1.6518360929235368E9, 0.0, 2022-05-06 12:21:32.923
56.0, -231.03792961267754, -148.02337029622868, -167.20718711894006, -171.0405845735222, 0.1600000075995922, 0.11200000531971455, 1.008000047877431, 0.0, 0.0, 0.0, 0.0, 0.0, 1.6518360929235368E9, 0.0, 2022-05-06 12:21:32.923
57.0, -255.34727932466194, -176.3942513600923, -194.49349719565362, -168.32541720569134, 0.1600000075995922, 0.11200000531971455, 1.008000047877431, 0.0, 0.0, 0.0, 0.0, 0.0, 1.6518360929244523E9, 0.0, 2022-05-06 12:21:32.924
57.0, -234.65815276978537, -104.19922261545435, -134.00809521228075, -161.51131948642433, 0.1600000075995922, 0.11200000531971455, 1.008000047877431, 0.0, 0.0, 0.0, 0.0, 0.0, 1.6518360929244523E9, 0.0, 2022-05-06 12:21:32.924
58.0, -203.5608846382238, -71.52371670259163, -97.70862624235451, -144.38257768936455, 0.1600000075995922, 0.11200000531971455, 1.008000047877431, 0.0, 0.0, 0.0, 0.0, 0.0, 1.6518360929384875E9, 0.0, 2022-05-06 12:21:32.938
58.0, -226.4191531674005, -147.21555190579966, -167.62605591397732, -162.64076927304268, 0.1600000075995922, 0.11200000531971455, 1.008000047877431, 0.0, 0.0, 0.0, 0.0, 0.0, 1.6518360929384875E9, 0.0, 2022-05-06 12:21:32.938
59.0, -267.8909037760459, -186.46206204080954, -207.88607893697917, -180.0126045672223, 0.1600000075995922, 0.11200000531971455, 1.008000047877431, 0.0, 0.0, 0.0, 0.0, 0.0, 1.651836092953645E9, 0.0, 2022-05-06 12:21:32.953
59.0, -253.63814504491165, -126.73211984848604, -155.15722946170717, -183.96567882038653, 0.1600000075995922, 0.11200000531971455, 1.008000047877431, 0.0, 0.0, 0.0, 0.0, 0.0, 1.651836092953645E9, 0.0, 2022-05-06 12:21:32.953
60.0, -221.73305852292106, -81.87949967989698, -114.43719874415547, -155.01885316334665, 0.1600000075995922, 0.11200000531971455, 1.008000047877431, 0.0, 0.0, 0.0, 0.0, 0.0, 1.6518360929545422E9, 0.0, 2022-05-06 12:21:32.954
60.0, -231.84200810315087, -155.9407385024242, -174.95251992717385, -169.58202359080315, 0.1600000075995922, 0.11200000531971455, 1.008000047877431, 0.0, 0.0, 0.0, 0.0, 0.0, 1.6518360929545422E9, 0.0, 2022-05-06 12:21:32.954
61.0, -256.5141281108372, -190.60213129175827, -210.92661760095507, -192.30191582161933, 0.1600000075995922, 0.12800000607967377, 1.008000047877431, 0.0, 0.0, 0.0, 0.0, 0.0, 1.6518360929686885E9, 0.0, 2022-05-06 12:21:32.968
61.0, -241.3525736904703, -116.46983437007293, -136.96635607723147, -164.2975449534133, 0.1600000075995922, 0.12800000607967377, 1.008000047877431, 0.0, 0.0, 0.0, 0.0, 0.0, 1.6518360929686885E9, 0.0, 2022-05-06 12:21:32.968
62.0, -208.50129247969016, -66.93485945696011, -89.82865703571588, -135.19738339819014, 0.1600000075995922, 0.12800000607967377, 1.008000047877431, 0.0, 0.0, 0.0, 0.0, 0.0, 1.651836093000452E9, 0.0, 2022-05-06 12:21:33.000
62.0, -227.51494385441765, -134.49615215649828, -161.94140798132867, -162.3752363761887, 0.1600000075995922, 0.12800000607967377, 1.008000047877431, 0.0, 0.0, 0.0, 0.0, 0.0, 1.651836093000452E9, 0.0, 2022-05-06 12:21:33.000
63.0, -246.45005733007565, -175.05162727599964, -197.62379345856607, -173.66599434241652, 0.1600000075995922, 0.12800000607967377, 1.008000047877431, 0.0, 0.0, 0.0, 0.0, 0.0, 1.6518360930014007E9, 0.0, 2022-05-06 12:21:33.001
63.0, -225.03165028383955, -106.80593288457021, -130.8441398497671, -159.86202360596508, 0.1600000075995922, 0.12800000607967377, 1.008000047877431, 0.0, 0.0, 0.0, 0.0, 0.0, 1.6518360930014007E9, 0.0, 2022-05-06 12:21:33.001
64.0, -209.63074226630852, -65.89890716923401, -100.80526340566576, -149.6259174272418, 0.1600000075995922, 0.12800000607967377, 1.008000047877431, 0.0, 0.0, 0.0, 0.0, 0.0, 1.65183609300241E9, 0.0, 2022-05-06 12:21:33.002
64.0, -234.47489767195657, -139.5637165964581, -160.02283930405974, -157.9284953288734, 0.1600000075995922, 0.12800000607967377, 1.008000047877431, 0.0, 0.0, 0.0, 0.0, 0.0, 1.65183609300241E9, 0.0, 2022-05-06 12:21:33.002
65.0, -258.23448209045455, -180.66895700944588, -202.84469379670918, -168.7854249002412, 0.1600000075995922, 0.12800000607967377, 1.008000047877431, 0.0, 0.0, 0.0, 0.0, 0.0, 1.6518360930034513E9, 0.0, 2022-05-06 12:21:33.003
65.0, -247.57202731678262, -120.41542882332578, -139.16915715113282, -165.9692802336067, 0.1600000075995922, 0.12800000607967377, 1.008000047877431, 0.0, 0.0, 0.0, 0.0, 0.0, 1.6518360930034513E9, 0.0, 2022-05-06 12:21:33.003
66.0, -210.16554795997217, -64.65726038394496, -98.80067702941597, -146.27122716698796, 0.1600000075995922, 0.12800000607967377, 1.008000047877431, 0.0, 0.0, 0.0, 0.0, 0.0, 1.6518360930455065E9, 0.0, 2022-05-06 12:21:33.045
