%OpenBCI Raw EEG Data
%Number of channels = 4
%Sample Rate = 200 Hz
%Board = OpenBCI_GUI$BoardGanglionBLE
Sample Index, EXG Channel 0, EXG Channel 1, EXG Channel 2, EXG Channel 3, Accel Channel 0, Accel Channel 1, Accel Channel 2, Other, Other, Other, Other, Other, Timestamp, Other, Timestamp (Formatted)
12.0, -51.90233158506453, -121.31113486271352, -83.29131191316992, -43.12478638906032, 0.1600000075995922, 0.0, 0.0, 0.0, 0.0, 0.0, 0.0, 0.0, 1.651835811476018E9, 0.0, 2022-05-06 12:16:51.476
12.0, -94.81394367665052, -167.9663868099451, -119.52720258384943, -74.09863782208413, 0.1600000075995922, 0.0, 0.0, 0.0, 0.0, 0.0, 0.0, 0.0, 1.651835811476018E9, 0.0, 2022-05-06 12:16:51.476
0.0, -172.9329739511013, -20.438553257845342, -70.02401682035998, -112.41017296817154, 0.1600000075995922, 0.0, 0.0, 0.0, 0.0, 0.0, 0.0, 0.0, 1.6518358115050075E9, 0.0, 2022-05-06 12:16:51.505
1.0, -223.64601735025644, -150.9573218114674, -148.3824006919749, -145.8149593723938, 0.1600000075995922, 0.11200000531971455, 0.0, 0.0, 0.0, 0.0, 0.0, 0.0, 1.651835811518006E9, 0.0, 2022-05-06 12:16:51.518
1.0, -249.4139280449599, -173.73705244157463, -176.55506705818698, -182.20792584121227, 0.1600000075995922, 0.11200000531971455, 0.0, 0.0, 0.0, 0.0, 0.0, 0.0, 1.651835811518006E9, 0.0, 2022-05-06 12:16:51.518
2.0, -206.08718705829233, -47.13021924160421, -89.40417839074507, -130.66836455184966, 0.1600000075995922, 0.11200000531971455, 0.0, 0.0, 0.0, 0.0, 0.0, 0.0, 1.6518358115349996E9, 0.0, 2022-05-06 12:16:51.534
2.0, -171.77734486479312, -30.020176944322884, -76.17615224746987, -118.91385899111629, 0.1600000075995922, 0.11200000531971455, 0.0, 0.0, 0.0, 0.0, 0.0, 0.0, 1.6518358115349996E9, 0.0, 2022-05-06 12:16:51.534
3.0, -242.65592882502824, -164.91836834605783, -166.0945668821223, -166.42180812824517, 0.1600000075995922, 0.11200000531971455, 0.0, 0.0, 0.0, 0.0, 0.0, 0.0, 1.6518358115360022E9, 0.0, 2022-05-06 12:16:51.536
3.0, -266.5688491417095, -186.50507089029998, -183.63469767430797, -184.41446681506932, 0.1600000075995922, 0.11200000531971455, 0.0, 0.0, 0.0, 0.0, 0.0, 0.0, 1.6518358115360022E9, 0.0, 2022-05-06 12:16:51.536
4.0, -198.26705625094473, -42.54510189592838, -87.13779901759699, -120.55193517170846, 0.1600000075995922, 0.11200000531971455, 0.0, 0.0, 0.0, 0.0, 0.0, 0.0, 1.651835811548102E9, 0.0, 2022-05-06 12:16:51.548
4.0, -167.1211694199592, -21.32116964738816, -65.42767977481708, -92.3755289055407, 0.1600000075995922, 0.11200000531971455, 0.0, 0.0, 0.0, 0.0, 0.0, 0.0, 1.651835811548102E9, 0.0, 2022-05-06 12:16:51.548
5.0, -227.96934169903398, -160.73342029564083, -166.4311578781344, -166.25725253019482, 0.1600000075995922, 0.11200000531971455, 0.0, 0.0, 0.0, 0.0, 0.0, 0.0, 1.6518358115640483E9, 0.0, 2022-05-06 12:16:51.564
5.0, -258.6140819359571, -186.80800278671086, -186.59669843921438, -190.24497084598988, 0.1600000075995922, 0.11200000531971455, 0.0, 0.0, 0.0, 0.0, 0.0, 0.0, 1.6518358115640483E9, 0.0, 2022-05-06 12:16:51.564
6.0, -203.3907191902399, -46.917044944129884, -94.0977528351359, -124.14597902912647, 0.1600000075995922, 0.11200000531971455, 0.0, 0.0, 0.0, 0.0, 0.0, 0.0, 1.6518358115781004E9, 0.0, 2022-05-06 12:16:51.578
6.0, -165.0417850445956, -27.260130777023733, -77.4252788326703, -104.05897636711597, 0.1600000075995922, 0.11200000531971455, 0.0, 0.0, 0.0, 0.0, 0.0, 0.0, 1.6518358115781004E9, 0.0, 2022-05-06 12:16:51.578
7.0, -240.8158980468288, -159.50673311017454, -167.77752186218277, -173.40046144556254, 0.1600000075995922, 0.11200000531971455, 0.0, 0.0, 0.0, 0.0, 0.0, 0.0, 1.6518358116100755E9, 0.0, 2022-05-06 12:16:51.610
7.0, -260.7607845105231, -182.61931483633816, -173.27517479704693, -168.90136179886758, 0.1600000075995922, 0.11200000531971455, 0.0, 0.0, 0.0, 0.0, 0.0, 0.0, 1.6518358116100755E9, 0.0, 2022-05-06 12:16:51.610
8.0, -204.3144744792953, -47.99787603132427, -93.16277784621343, -126.37869930267334, 0.1600000075995922, 0.11200000531971455, 0.0, 0.0, 0.0, 0.0, 0.0, 0.0, 1.6518358116110086E9, 0.0, 2022-05-06 12:16:51.611
8.0, -177.76492469385266, -35.89929967466742, -83.27448236336932, -122.21245075203478, 0.1600000075995922, 0.11200000531971455, 0.0, 0.0, 0.0, 0.0, 0.0, 0.0, 1.6518358116110086E9, 0.0, 2022-05-06 12:16:51.611
9.0, -233.17154253739864, -166.1861944310367, -169.23982274485752, -169.17063459567726, 0.1600000075995922, 0.11200000531971455, 0.0, 0.0, 0.0, 0.0, 0.0, 0.0, 1.6518358116119945E9, 0.0, 2022-05-06 12:16:51.611
9.0, -254.0850630896166, -177.0057250028476, -176.62986505730078, -175.3414695225656, 0.1600000075995922, 0.11200000531971455, 0.0, 0.0, 0.0, 0.0, 0.0, 0.0, 1.6518358116119945E9, 0.0, 2022-05-06 12:16:51.611
10.0, -218.5447938106954, -62.920076854527, -112.58781821606681, -154.31201207172126, 0.1600000075995922, 0.11200000531971455, 1.0240000486373901, 0.0, 0.0, 0.0, 0.0, 0.0, 1.6518358116130154E9, 0.0, 2022-05-06 12:16:51.613
10.0, -195.00586348958313, -49.01886871922761, -96.15469781076536, -133.0245015239343, 0.1600000075995922, 0.11200000531971455, 1.0240000486373901, 0.0, 0.0, 0.0, 0.0, 0.0, 1.6518358116130154E9, 0.0, 2022-05-06 12:16:51.613
11.0, -240.21377415396273, -163.3401305647567, -167.96451685996726, -164.0432317564264, 0.1600000075995922, 0.06400000303983688, 1.0240000486373901, 0.0, 0.0, 0.0, 0.0, 0.0, 1.6518358116230428E9, 0.0, 2022-05-06 12:16:51.623
11.0, -249.61962254252285, -158.23890702519566, -169.23982274485752, -171.54547106754035, 0.1600000075995922, 0.06400000303983688, 1.0240000486373901, 0.0, 0.0, 0.0, 0.0, 0.0, 1.6518358116230428E9, 0.0, 2022-05-06 12:16:51.623
12.0, -197.17500546388328, -47.97543663159013, -89.82304718578234, -115.39835303276777, 0.0800000037997961, 0.06400000303983688, 1.0240000486373901, 0.0, 0.0, 0.0, 0.0, 0.0, 1.6518358116240113E9, 0.0, 2022-05-06 12:16:51.624
12.0, -191.606294429861, -56.47996913082898, -99.00450157700107, -130.29063465632498, 0.0800000037997961, 0.06400000303983688, 1.0240000486373901, 0.0, 0.0, 0.0, 0.0, 0.0, 1.6518358116240113E9, 0.0, 2022-05-06 12:16:51.624
13.0, -245.58053059037775, -167.28946491796523, -176.82807975495234, -171.7885645646602, 0.0800000037997961, 0.06400000303983688, 1.0240000486373901, 0.0, 0.0, 0.0, 0.0, 0.0, 1.6518358116541026E9, 0.0, 2022-05-06 12:16:51.654
13.0, -249.6046629427001, -155.49008055776358, -169.01916864747182, -156.35399744752795, 0.0800000037997961, 0.06400000303983688, 1.0240000486373901, 0.0, 0.0, 0.0, 0.0, 0.0, 1.6518358116541026E9, 0.0, 2022-05-06 12:16:51.654
14.0, -207.68412433937192, -58.00584831275046, -104.91728340694681, -140.5529201347381, 0.0800000037997961, 0.06400000303983688, 1.0240000486373901, 0.0, 0.0, 0.0, 0.0, 0.0, 1.6518358116550152E9, 0.0, 2022-05-06 12:16:51.655
14.0, -208.286248232238, -70.01466707047075, -114.4802075936459, -146.05431296955794, 0.0800000037997961, 0.06400000303983688, 1.0240000486373901, 0.0, 0.0, 0.0, 0.0, 0.0, 1.6518358116550152E9, 0.0, 2022-05-06 12:16:51.655
15.0, -247.03535167314112, -176.1156288133934, -184.16950336797163, -185.69725249987096, 0.0800000037997961, 0.06400000303983688, 1.0240000486373901, 0.0, 0.0, 0.0, 0.0, 0.0, 1.6518358116560087E9, 0.0, 2022-05-06 12:16:51.656
15.0, -235.14246981404722, -156.60831064451486, -164.99129639519379, -160.47162729874253, 0.0800000037997961, 0.06400000303983688, 1.0240000486373901, 0.0, 0.0, 0.0, 0.0, 0.0, 1.6518358116560087E9, 0.0, 2022-05-06 12:16:51.656
16.0, -203.3570600906387, -47.06664094235748, -92.35121955582872, -119.66557888220996, 0.0800000037997961, 0.06400000303983688, 1.0240000486373901, 0.0, 0.0, 0.0, 0.0, 0.0, 1.6518358116680634E9, 0.0, 2022-05-06 12:16:51.668
16.0, -215.45189654733986, -71.78737964946777, -113.10392440995201, -155.83789125364274, 0.0800000037997961, 0.06400000303983688, 1.0240000486373901, 0.0, 0.0, 0.0, 0.0, 0.0, 1.6518358116680634E9, 0.0, 2022-05-06 12:16:51.668
17.0, -250.8612693278119, -170.01211208570749, -176.11001896345988, -180.43147336225957, 0.0800000037997961, 0.06400000303983688, 1.0240000486373901, 0.0, 0.0, 0.0, 0.0, 0.0, 1.6518358116831007E9, 0.0, 2022-05-06 12:16:51.683
17.0, -254.8293031807989, -160.09389740321785, -166.3563598790206, -162.82776427082717, 0.0800000037997961, 0.06400000303983688, 1.0240000486373901, 0.0, 0.0, 0.0, 0.0, 0.0, 1.6518358116831007E9, 0.0, 2022-05-06 12:16:51.683
18.0, -202.29118860326707, -53.40577136725187, -99.9544361657463, -137.46750267129391, 0.0800000037997961, 0.06400000303983688, 1.0240000486373901, 0.0, 0.0, 0.0, 0.0, 0.0, 1.6518358116840167E9, 0.0, 2022-05-06 12:16:51.684
18.0, -203.75348948594183, -64.36741813737899, -107.64741037460044, -142.20595591515303, 0.0800000037997961, 0.06400000303983688, 1.0240000486373901, 0.0, 0.0, 0.0, 0.0, 0.0, 1.6518358116840167E9, 0.0, 2022-05-06 12:16:51.684
19.0, -238.84871067013592, -162.34905707649887, -171.79791431454942, -176.7551517058164, 0.0800000037997961, 0.06400000303983688, 1.0240000486373901, 0.0, 0.0, 0.0, 0.0, 0.0, 1.6518358117141118E9, 0.0, 2022-05-06 12:16:51.714
19.0, -251.74388571735471, -158.05191202741116, -166.73408977454528, -169.99341258592904, 0.0800000037997961, 0.06400000303983688, 1.0240000486373901, 0.0, 0.0, 0.0, 0.0, 0.0, 1.6518358117141118E9, 0.0, 2022-05-06 12:16:51.714
20.0, -205.1297726696357, -51.756475486792624, -93.0281414478086, -125.86633300874382, 0.0800000037997961, 0.06400000303983688, 0.5120000243186951, 0.0, 0.0, 0.0, 0.0, 0.0, 1.651835811715053E9, 0.0, 2022-05-06 12:16:51.715
20.0, -208.7312963269651, -64.28140043839812, -103.61205832241103, -134.4007847076282, 0.0800000037997961, 0.06400000303983688, 0.5120000243186951, 0.0, 0.0, 0.0, 0.0, 0.0, 1.651835811715053E9, 0.0, 2022-05-06 12:16:51.715
21.0, -234.71612121909857, -159.49925331026316, -165.41390509018674, -167.79061151202768, 0.0800000037997961, 0.09600000455975533, 0.5120000243186951, 0.0, 0.0, 0.0, 0.0, 0.0, 1.651835811716004E9, 0.0, 2022-05-06 12:16:51.716
21.0, -252.43950710911304, -157.0720582390204, -174.42332408344373, -177.18524020072073, 0.0800000037997961, 0.09600000455975533, 0.5120000243186951, 0.0, 0.0, 0.0, 0.0, 0.0, 1.651835811716004E9, 0.0, 2022-05-06 12:16:51.716
22.0, -193.21071151085198, -56.22565593384206, -94.36702563194558, -124.4302114257589, 0.11200000531971455, 0.09600000455975533, 0.5120000243186951, 0.0, 0.0, 0.0, 0.0, 0.0, 1.651835811728034E9, 0.0, 2022-05-06 12:16:51.728
22.0, -204.89415897242725, -55.64971134066582, -91.59575976477936, -123.25214293971658, 0.11200000531971455, 0.09600000455975533, 0.5120000243186951, 0.0, 0.0, 0.0, 0.0, 0.0, 1.651835811728034E9, 0.0, 2022-05-06 12:16:51.728
23.0, -247.02787187322974, -160.69976119603962, -168.52176195336506, -175.21805282402784, 0.11200000531971455, 0.09600000455975533, 0.5120000243186951, 0.0, 0.0, 0.0, 0.0, 0.0, 1.6518358117430522E9, 0.0, 2022-05-06 12:16:51.743
23.0, -242.68584802467376, -155.9613079521805, -162.64263922302052, -177.53679079655558, 0.11200000531971455, 0.09600000455975533, 0.5120000243186951, 0.0, 0.0, 0.0, 0.0, 0.0, 1.6518358117430522E9, 0.0, 2022-05-06 12:16:51.743
24.0, -207.77388193830848, -51.04215459525585, -94.69987672800198, -122.93051154352725, 0.11200000531971455, 0.09600000455975533, 0.5120000243186951, 0.0, 0.0, 0.0, 0.0, 0.0, 1.6518358117440016E9, 0.0, 2022-05-06 12:16:51.744
24.0, -204.55008817650378, -61.775667468085885, -102.41529033659026, -142.68840300943702, 0.11200000531971455, 0.09600000455975533, 0.5120000243186951, 0.0, 0.0, 0.0, 0.0, 0.0, 1.6518358117440016E9, 0.0, 2022-05-06 12:16:51.744
25.0, -239.66026896052063, -164.69023444876075, -166.64433217560872, -170.64789507817477, 0.11200000531971455, 0.09600000455975533, 0.5120000243186951, 0.0, 0.0, 0.0, 0.0, 0.0, 1.6518358117740579E9, 0.0, 2022-05-06 12:16:51.774
25.0, -249.21571334730834, -163.79265845939517, -175.68741026846692, -180.95131945610046, 0.11200000531971455, 0.09600000455975533, 0.5120000243186951, 0.0, 0.0, 0.0, 0.0, 0.0, 1.6518358117740579E9, 0.0, 2022-05-06 12:16:51.774
26.0, -217.72201582044363, -65.27247392665595, -107.56887247553095, -142.42287011258304, 0.11200000531971455, 0.09600000455975533, 0.5120000243186951, 0.0, 0.0, 0.0, 0.0, 0.0, 1.6518358117750187E9, 0.0, 2022-05-06 12:16:51.775
26.0, -196.03807587735355, -52.84478637389839, -90.42143117869273, -124.983716619201, 0.11200000531971455, 0.09600000455975533, 0.5120000243186951, 0.0, 0.0, 0.0, 0.0, 0.0, 1.6518358117750187E9, 0.0, 2022-05-06 12:16:51.775
27.0, -235.20604811329395, -154.4055095706135, -163.4317581136711, -159.05794511549175, 0.11200000531971455, 0.09600000455975533, 0.5120000243186951, 0.0, 0.0, 0.0, 0.0, 0.0, 1.6518358117760265E9, 0.0, 2022-05-06 12:16:51.776
27.0, -258.6739203352481, -164.75755264796317, -174.74869537958875, -172.4879258563742, 0.11200000531971455, 0.09600000455975533, 0.5120000243186951, 0.0, 0.0, 0.0, 0.0, 0.0, 1.6518358117760265E9, 0.0, 2022-05-06 12:16:51.776
28.0, -217.46396272350103, -59.344732496887445, -97.7291956921108, -131.10967274662107, 0.11200000531971455, 0.09600000455975533, 0.5120000243186951, 0.0, 0.0, 0.0, 0.0, 0.0, 1.6518358117880647E9, 0.0, 2022-05-06 12:16:51.788
28.0, -197.99778345413506, -58.22276251018047, -95.32817992055789, -123.77572893351316, 0.11200000531971455, 0.09600000455975533, 0.5120000243186951, 0.0, 0.0, 0.0, 0.0, 0.0, 1.6518358117880647E9, 0.0, 2022-05-06 12:16:51.788
29.0, -240.39328935183585, -158.21272772550583, -169.6175526403822, -162.58841067366302, 0.11200000531971455, 0.09600000455975533, 0.5120000243186951, 0.0, 0.0, 0.0, 0.0, 0.0, 1.65183581180309E9, 0.0, 2022-05-06 12:16:51.803
29.0, -253.61009579524398, -156.148302949965, -169.26600204454735, -169.47356649208814, 0.11200000531971455, 0.09600000455975533, 0.5120000243186951, 0.0, 0.0, 0.0, 0.0, 0.0, 1.65183581180309E9, 0.0, 2022-05-06 12:16:51.803
30.0, -205.30928786750883, -55.44401684310287, -96.22201600996777, -134.60647920519114, 0.11200000531971455, 0.09600000455975533, 0.7680000364780426, 0.0, 0.0, 0.0, 0.0, 0.0, 1.651835811804006E9, 0.0, 2022-05-06 12:16:51.804
30.0, -189.51943025458604, -51.44606379047036, -91.1731510697864, -123.30824143905193, 0.11200000531971455, 0.09600000455975533, 0.7680000364780426, 0.0, 0.0, 0.0, 0.0, 0.0, 1.651835811804006E9, 0.0, 2022-05-06 12:16:51.804
31.0, -239.91458215750754, -157.43482853472233, -171.38278541946784, -170.90594817511737, 0.11200000531971455, 0.11200000531971455, 0.7680000364780426, 0.0, 0.0, 0.0, 0.0, 0.0, 1.651835811866046E9, 0.0, 2022-05-06 12:16:51.866
31.0, -235.78947250638157, -160.8867561938241, -172.67305090418085, -176.98328560311347, 0.11200000531971455, 0.11200000531971455, 0.7680000364780426, 0.0, 0.0, 0.0, 0.0, 0.0, 1.651835811866046E9, 0.0, 2022-05-06 12:16:51.866
32.0, -224.1770831439644, -62.8078798558563, -111.30129263130948, -137.9536896655336, 0.12800000607967377, 0.11200000531971455, 0.7680000364780426, 0.0, 0.0, 0.0, 0.0, 0.0, 1.651835811867048E9, 0.0, 2022-05-06 12:16:51.867
32.0, -195.0544821890071, -49.76684871036559, -87.13031921768561, -113.13945345953107, 0.12800000607967377, 0.11200000531971455, 0.7680000364780426, 0.0, 0.0, 0.0, 0.0, 0.0, 1.651835811867048E9, 0.0, 2022-05-06 12:16:51.867
33.0, -241.05525164399296, -150.93488241173327, -159.54600205970928, -163.98713325709105, 0.12800000607967377, 0.11200000531971455, 0.7680000364780426, 0.0, 0.0, 0.0, 0.0, 0.0, 1.6518358118680153E9, 0.0, 2022-05-06 12:16:51.868
33.0, -252.98553250264376, -157.75272003095597, -161.77872233325616, -155.62097705621272, 0.12800000607967377, 0.11200000531971455, 0.7680000364780426, 0.0, 0.0, 0.0, 0.0, 0.0, 1.6518358118680153E9, 0.0, 2022-05-06 12:16:51.868
34.0, -206.04978805873543, -55.13360514678061, -94.03791443584487, -137.28050767350942, 0.12800000607967377, 0.11200000531971455, 0.7680000364780426, 0.0, 0.0, 0.0, 0.0, 0.0, 1.651835811868994E9, 0.0, 2022-05-06 12:16:51.868
34.0, -196.58784117083997, -60.3619852848351, -108.74694096157327, -149.31176583096385, 0.12800000607967377, 0.11200000531971455, 0.7680000364780426, 0.0, 0.0, 0.0, 0.0, 0.0, 1.651835811868994E9, 0.0, 2022-05-06 12:16:51.868
35.0, -234.88067681714892, -160.25471310131252, -171.27806822070852, -178.3483490869403, 0.12800000607967377, 0.11200000531971455, 0.7680000364780426, 0.0, 0.0, 0.0, 0.0, 0.0, 1.651835811879043E9, 0.0, 2022-05-06 12:16:51.879
35.0, -265.89192724972963, -168.72558650095016, -179.50584812322631, -177.51061149686575, 0.12800000607967377, 0.11200000531971455, 0.7680000364780426, 0.0, 0.0, 0.0, 0.0, 0.0, 1.651835811879043E9, 0.0, 2022-05-06 12:16:51.879
36.0, -220.26514779031277, -59.66636389307678, -101.85430534323677, -132.67669082805514, 0.12800000607967377, 0.11200000531971455, 0.7680000364780426, 0.0, 0.0, 0.0, 0.0, 0.0, 1.6518358119250684E9, 0.0, 2022-05-06 12:16:51.925
36.0, -200.70921092201024, -56.77542122732848, -90.90387827297673, -118.17335879988968, 0.12800000607967377, 0.11200000531971455, 0.7680000364780426, 0.0, 0.0, 0.0, 0.0, 0.0, 1.6518358119250684E9, 0.0, 2022-05-06 12:16:51.925
37.0, -235.49776030983776, -155.2582067605108, -165.26056919200346, -162.47621367499232, 0.12800000607967377, 0.11200000531971455, 0.7680000364780426, 0.0, 0.0, 0.0, 0.0, 0.0, 1.6518358119260185E9, 0.0, 2022-05-06 12:16:51.926
37.0, -246.0031392853707, -156.67562884371728, -164.93145799590275, -172.58516325522214, 0.12800000607967377, 0.11200000531971455, 0.7680000364780426, 0.0, 0.0, 0.0, 0.0, 0.0, 1.6518358119260185E9, 0.0, 2022-05-06 12:16:51.926
38.0, -219.50594809930772, -65.74370132107288, -110.3326585427858, -148.30573274288327, 0.12800000607967377, 0.11200000531971455, 0.7680000364780426, 0.0, 0.0, 0.0, 0.0, 0.0, 1.6518358119270132E9, 0.0, 2022-05-06 12:16:51.927
38.0, -200.7653094213456, -54.135051858611405, -98.26026148581877, -138.24540186207741, 0.12800000607967377, 0.11200000531971455, 0.7680000364780426, 0.0, 0.0, 0.0, 0.0, 0.0, 1.6518358119270132E9, 0.0, 2022-05-06 12:16:51.927
39.0, -238.20918777771294, -155.15348956175148, -164.26201590383425, -165.99919943325222, 0.12800000607967377, 0.11200000531971455, 0.7680000364780426, 0.0, 0.0, 0.0, 0.0, 0.0, 1.6518358119280148E9, 0.0, 2022-05-06 12:16:51.928
39.0, -257.57812964823097, -167.28572501800954, -178.0248477407731, -179.41048067435622, 0.12800000607967377, 0.11200000531971455, 0.7680000364780426, 0.0, 0.0, 0.0, 0.0, 0.0, 1.6518358119280148E9, 0.0, 2022-05-06 12:16:51.928
40.0, -201.81996120885015, -56.973635924980044, -99.74126186827198, -132.66173122823238, 0.12800000607967377, 0.11200000531971455, 0.8800000417977571, 0.0, 0.0, 0.0, 0.0, 0.0, 1.651835811941049E9, 0.0, 2022-05-06 12:16:51.941
40.0, -192.7918427158147, -52.122985682450235, -96.65210450487211, -124.78176202159375, 0.12800000607967377, 0.11200000531971455, 0.8800000417977571, 0.0, 0.0, 0.0, 0.0, 0.0, 1.651835811941049E9, 0.0, 2022-05-06 12:16:51.941
41.0, -239.29001886490732, -155.59853765647858, -160.81756804464385, -164.25640605390072, 0.12800000607967377, 0.11200000531971455, 0.8800000417977571, 0.0, 0.0, 0.0, 0.0, 0.0, 1.6518358119420192E9, 0.0, 2022-05-06 12:16:51.942
41.0, -246.22005348280072, -157.14311633817852, -165.27178889187053, -165.94684083387256, 0.12800000607967377, 0.11200000531971455, 0.8800000417977571, 0.0, 0.0, 0.0, 0.0, 0.0, 1.6518358119420192E9, 0.0, 2022-05-06 12:16:51.942
42.0, -191.95784502569586, -54.06025385949761, -92.02958815963939, -117.2757828105241, 0.144000006839633, 0.11200000531971455, 0.8800000417977571, 0.0, 0.0, 0.0, 0.0, 0.0, 1.651835811943009E9, 0.0, 2022-05-06 12:16:51.943
42.0, -177.80606359336525, -45.03961516637355, -87.98301640758291, -119.6132202828303, 0.144000006839633, 0.11200000531971455, 0.8800000417977571, 0.0, 0.0, 0.0, 0.0, 0.0, 1.651835811943009E9, 0.0, 2022-05-06 12:16:51.943
43.0, -246.97551327385008, -157.50588663388044, -166.0945668821223, -177.7163059944287, 0.144000006839633, 0.11200000531971455, 0.8800000417977571, 0.0, 0.0, 0.0, 0.0, 0.0, 1.65183581194401E9, 0.0, 2022-05-06 12:16:51.944
43.0, -252.2300727115944, -153.1489031855017, -159.81153495656326, -160.53520559798926, 0.144000006839633, 0.11200000531971455, 0.8800000417977571, 0.0, 0.0, 0.0, 0.0, 0.0, 1.65183581194401E9, 0.0, 2022-05-06 12:16:51.944
44.0, -217.12363182753325, -60.49662168323994, -103.28668702626601, -128.843293373473, 0.144000006839633, 0.11200000531971455, 0.8800000417977571, 0.0, 0.0, 0.0, 0.0, 0.0, 1.6518358119530497E9, 0.0, 2022-05-06 12:16:51.953
44.0, -199.36284693796188, -57.755275015719235, -102.71822223300114, -140.33974583726376, 0.144000006839633, 0.11200000531971455, 0.8800000417977571, 0.0, 0.0, 0.0, 0.0, 0.0, 1.6518358119530497E9, 0.0, 2022-05-06 12:16:51.953
45.0, -227.5542128039524, -149.80543262511492, -158.37167347362265, -151.56318560428917, 0.144000006839633, 0.11200000531971455, 0.8800000417977571, 0.0, 0.0, 0.0, 0.0, 0.0, 1.651835811953997E9, 0.0, 2022-05-06 12:16:51.953
45.0, -249.29051134642214, -156.19318174943328, -169.48665614193305, -167.91028831060976, 0.144000006839633, 0.11200000531971455, 0.8800000417977571, 0.0, 0.0, 0.0, 0.0, 0.0, 1.651835811953997E9, 0.0, 2022-05-06 12:16:51.953
46.0, -220.52320088725537, -66.5515197115019, -111.8884569243528, -153.30597898364067, 0.144000006839633, 0.11200000531971455, 0.8800000417977571, 0.0, 0.0, 0.0, 0.0, 0.0, 1.651835811984057E9, 0.0, 2022-05-06 12:16:51.984
46.0, -198.89161954354495, -61.03516727685928, -106.55535958753899, -149.56981892790645, 0.144000006839633, 0.11200000531971455, 0.8800000417977571, 0.0, 0.0, 0.0, 0.0, 0.0, 1.651835811984057E9, 0.0, 2022-05-06 12:16:51.984
47.0, -236.23078070115298, -152.12791049759835, -164.45275080157444, -167.1174295200035, 0.144000006839633, 0.11200000531971455, 0.8800000417977571, 0.0, 0.0, 0.0, 0.0, 0.0, 1.6518358119850543E9, 0.0, 2022-05-06 12:16:51.985
47.0, -264.609141564928, -170.09438988473266, -182.60622518649325, -180.68952645920217, 0.144000006839633, 0.11200000531971455, 0.8800000417977571, 0.0, 0.0, 0.0, 0.0, 0.0, 1.6518358119850543E9, 0.0, 2022-05-06 12:16:51.985
48.0, -209.87196581345052, -57.729095716029406, -106.09909179294482, -131.1695111459121, 0.144000006839633, 0.11200000531971455, 0.8800000417977571, 0.0, 0.0, 0.0, 0.0, 0.0, 1.6518358119860222E9, 0.0, 2022-05-06 12:16:51.986
48.0, -188.34136176854372, -52.897144973278046, -97.86757199047133, -124.21703712828457, 0.144000006839633, 0.11200000531971455, 0.8800000417977571, 0.0, 0.0, 0.0, 0.0, 0.0, 1.6518358119860222E9, 0.0, 2022-05-06 12:16:51.986
49.0, -238.27276607695967, -147.06034605763853, -161.71514403400943, -162.4874333748594, 0.144000006839633, 0.11200000531971455, 0.8800000417977571, 0.0, 0.0, 0.0, 0.0, 0.0, 1.6518358119980955E9, 0.0, 2022-05-06 12:16:51.998
49.0, -245.38605579268187, -155.8939897529781, -166.77522867405787, -166.68360112514347, 0.144000006839633, 0.11200000531971455, 0.8800000417977571, 0.0, 0.0, 0.0, 0.0, 0.0, 1.6518358119980955E9, 0.0, 2022-05-06 12:16:51.998
50.0, -206.40133865457028, -60.4367832839489, -104.01222761766985, -134.48306250665337, 0.144000006839633, 0.11200000531971455, 0.9600000455975533, 0.0, 0.0, 0.0, 0.0, 0.0, 1.6518358120300736E9, 0.0, 2022-05-06 12:16:52.030
50.0, -198.5064098481089, -49.5798537125811, -88.59262010036036, -117.5001768078655, 0.144000006839633, 0.11200000531971455, 0.9600000455975533, 0.0, 0.0, 0.0, 0.0, 0.0, 1.6518358120300736E9, 0.0, 2022-05-06 12:16:52.030
51.0, -230.79296616557986, -150.4786146171391, -156.74855689285323, -159.31973811239004, 0.144000006839633, 0.11200000531971455, 0.9600000455975533, 0.0, 0.0, 0.0, 0.0, 0.0, 1.6518358120309973E9, 0.0, 2022-05-06 12:16:52.030
51.0, -239.98564025666565, -153.67248917929828, -162.5753210238181, -163.21671386621892, 0.144000006839633, 0.11200000531971455, 0.9600000455975533, 0.0, 0.0, 0.0, 0.0, 0.0, 1.6518358120309973E9, 0.0, 2022-05-06 12:16:52.030
52.0, -209.09032672271132, -52.38103877939284, -96.2481953096576, -120.69031147006899, 0.144000006839633, 0.11200000531971455, 0.9600000455975533, 0.0, 0.0, 0.0, 0.0, 0.0, 1.6518358120320344E9, 0.0, 2022-05-06 12:16:52.032
52.0, -189.72886465210468, -53.22625616937876, -93.30863394448534, -133.99687551241368, 0.144000006839633, 0.11200000531971455, 0.9600000455975533, 0.0, 0.0, 0.0, 0.0, 0.0, 1.6518358120320344E9, 0.0, 2022-05-06 12:16:52.032
53.0, -240.45312775112689, -149.56233912799507, -160.33886085031554, -164.99690624512732, 0.144000006839633, 0.11200000531971455, 0.9600000455975533, 0.0, 0.0, 0.0, 0.0, 0.0, 1.6518358120330043E9, 0.0, 2022-05-06 12:16:52.033
53.0, -249.01375874970108, -160.84561729431152, -168.8433933495544, -170.0794302849099, 0.144000006839633, 0.11200000531971455, 0.9600000455975533, 0.0, 0.0, 0.0, 0.0, 0.0, 1.6518358120330043E9, 0.0, 2022-05-06 12:16:52.033
54.0, -205.85531326103956, -59.16147739905864, -101.49527494749054, -139.86851844284683, 0.144000006839633, 0.11200000531971455, 0.9600000455975533, 0.0, 0.0, 0.0, 0.0, 0.0, 1.6518358120430264E9, 0.0, 2022-05-06 12:16:52.043
54.0, -198.5064098481089, -59.5092880949378, -100.53038075892255, -139.5468870466575, 0.144000006839633, 0.11200000531971455, 0.9600000455975533, 0.0, 0.0, 0.0, 0.0, 0.0, 1.6518358120430264E9, 0.0, 2022-05-06 12:16:52.043
55.0, -220.0257941931486, -140.01063464116305, -151.58749495400116, -154.809418765828, 0.144000006839633, 0.11200000531971455, 0.9600000455975533, 0.0, 0.0, 0.0, 0.0, 0.0, 1.65183581209105E9, 0.0, 2022-05-06 12:16:52.091
55.0, -241.42924163956195, -153.87070387694985, -161.1354595408775, -157.0795380389318, 0.144000006839633, 0.11200000531971455, 0.9600000455975533, 0.0, 0.0, 0.0, 0.0, 0.0, 1.65183581209105E9, 0.0, 2022-05-06 12:16:52.091
56.0, -206.11710625793785, -49.703270411118865, -96.15095791080967, -123.07636764179915, 0.144000006839633, 0.11200000531971455, 0.9600000455975533, 0.0, 0.0, 0.0, 0.0, 0.0, 1.6518358120920184E9, 0.0, 2022-05-06 12:16:52.092
56.0, -194.85626749135554, -53.323493568226695, -95.8405462144874, -142.50140801165253, 0.144000006839633, 0.11200000531971455, 0.9600000455975533, 0.0, 0.0, 0.0, 0.0, 0.0, 1.6518358120920184E9, 0.0, 2022-05-06 12:16:52.092
57.0, -224.65579033829272, -149.68201592657715, -158.34549417393282, -158.65029602032155, 0.144000006839633, 0.11200000531971455, 0.9600000455975533, 0.0, 0.0, 0.0, 0.0, 0.0, 1.6518358120930233E9, 0.0, 2022-05-06 12:16:52.093
57.0, -233.06308543868363, -157.3375911358744, -163.5439551123418, -161.43652148731053, 0.144000006839633, 0.11200000531971455, 0.9600000455975533, 0.0, 0.0, 0.0, 0.0, 0.0, 1.6518358120930233E9, 0.0, 2022-05-06 12:16:52.093
58.0, -200.0921274293214, -53.14771827030927, -93.60034614102915, -122.96791054308414, 0.144000006839633, 0.11200000531971455, 0.9600000455975533, 0.0, 0.0, 0.0, 0.0, 0.0, 1.651835812094024E9, 0.0, 2022-05-06 12:16:52.094
58.0, -203.92178498394787, -57.51966131851077, -96.38657160801813, -130.3916119551286, 0.144000006839633, 0.11200000531971455, 0.9600000455975533, 0.0, 0.0, 0.0, 0.0, 0.0, 1.651835812094024E9, 0.0, 2022-05-06 12:16:52.094
59.0, -235.49028050992638, -155.5199997574091, -161.50944953644648, -161.4440012872219, 0.144000006839633, 0.11200000531971455, 0.9600000455975533, 0.0, 0.0, 0.0, 0.0, 0.0, 1.6518358121030605E9, 0.0, 2022-05-06 12:16:52.103
59.0, -247.76089226454496, -156.7429470429197, -168.2113502570428, -177.09922250173986, 0.144000006839633, 0.11200000531971455, 0.9600000455975533, 0.0, 0.0, 0.0, 0.0, 0.0, 1.6518358121030605E9, 0.0, 2022-05-06 12:16:52.103
60.0, -211.45394349470735, -64.41603683680296, -99.83475936716422, -133.42093091923743, 0.144000006839633, 0.11200000531971455, 0.9920000471174717, 0.0, 0.0, 0.0, 0.0, 0.0, 1.651835812104046E9, 0.0, 2022-05-06 12:16:52.104
60.0, -193.74177730455995, -53.47308956645429, -93.3572526439093, -115.25249693449587, 0.144000006839633, 0.11200000531971455, 0.9920000471174717, 0.0, 0.0, 0.0, 0.0, 0.0, 1.651835812104046E9, 0.0, 2022-05-06 12:16:52.104
61.0, -230.65084996726364, -150.28039991948754, -162.52296242443845, -167.0089724212885, 0.144000006839633, 0.11200000531971455, 0.9920000471174717, 0.0, 0.0, 0.0, 0.0, 0.0, 1.651835812150046E9, 0.0, 2022-05-06 12:16:52.150
61.0, -245.60670989006758, -159.65258920844644, -168.57038065278903, -176.1231086133048, 0.144000006839633, 0.11200000531971455, 0.9920000471174717, 0.0, 0.0, 0.0, 0.0, 0.0, 1.651835812150046E9, 0.0, 2022-05-06 12:16:52.150
62.0, -205.4289646660909, -61.12492487579584, -104.734028309118, -131.77537493873388, 0.1600000075995922, 0.11200000531971455, 0.9920000471174717, 0.0, 0.0, 0.0, 0.0, 0.0, 1.6518358121510677E9, 0.0, 2022-05-06 12:16:52.151
62.0, -193.33038830943406, -60.137591287493706, -95.02150812419131, -128.34214677941054, 0.1600000075995922, 0.11200000531971455, 0.9920000471174717, 0.0, 0.0, 0.0, 0.0, 0.0, 1.6518358121510677E9, 0.0, 2022-05-06 12:16:52.151
63.0, -232.2178680486977, -151.4061098061502, -154.4223391204141, -147.31465925462544, 0.1600000075995922, 0.11200000531971455, 0.9920000471174717, 0.0, 0.0, 0.0, 0.0, 0.0, 1.6518358121520488E9, 0.0, 2022-05-06 12:16:52.152
63.0, -238.64675607252866, -154.19981507305056, -165.63455918757245, -164.43218135181814, 0.1600000075995922, 0.11200000531971455, 0.9920000471174717, 0.0, 0.0, 0.0, 0.0, 0.0, 1.6518358121520488E9, 0.0, 2022-05-06 12:16:52.152
64.0, -205.9488107599318, -65.21263552736491, -109.50614065257832, -140.3621852369979, 0.1600000075995922, 0.11200000531971455, 0.9920000471174717, 0.0, 0.0, 0.0, 0.0, 0.0, 1.65183581215301E9, 0.0, 2022-05-06 12:16:52.153
64.0, -207.97957643587142, -60.79581367969513, -102.22455543885008, -141.02040762919933, 0.1600000075995922, 0.11200000531971455, 0.9920000471174717, 0.0, 0.0, 0.0, 0.0, 0.0, 1.65183581215301E9, 0.0, 2022-05-06 12:16:52.153
65.0, -226.37988421786577, -149.37908403016627, -154.55323561886325, -159.79470540676266, 0.1600000075995922, 0.11200000531971455, 0.9920000471174717, 0.0, 0.0, 0.0, 0.0, 0.0, 1.6518358121630895E9, 0.0, 2022-05-06 12:16:52.163
65.0, -225.5159673281014, -148.89663693588227, -156.34090779768303, -158.24264692515135, 0.1600000075995922, 0.11200000531971455, 0.9920000471174717, 0.0, 0.0, 0.0, 0.0, 0.0, 1.6518358121630895E9, 0.0, 2022-05-06 12:16:52.163
66.0, -206.40507855452597, -60.45174288377166, -101.66731034545228, -133.2526354212314, 0.1600000075995922, 0.11200000531971455, 0.9920000471174717, 0.0, 0.0, 0.0, 0.0, 0.0, 1.6518358121640089E9, 0.0, 2022-05-06 12:16:52.164
66.0, -192.26451682206243, -49.78928811009973, -89.35181979136541, -122.37700635008514, 0.1600000075995922, 0.11200000531971455, 0.9920000471174717, 0.0, 0.0, 0.0, 0.0, 0.0, 1.6518358121640089E9, 0.0, 2022-05-06 12:16:52.164
67.0, -235.14246981404722, -145.5531663754955, -156.55782199511304, -153.6612694794312, 0.1600000075995922, 0.11200000531971455, 0.9920000471174717, 0.0, 0.0, 0.0, 0.0, 0.0, 1.651835812178049E9, 0.0, 2022-05-06 12:16:52.178
67.0, -244.6717349011451, -162.58093087375164, -170.85171962575987, -174.1559212366119, 0.1600000075995922, 0.11200000531971455, 0.9920000471174717, 0.0, 0.0, 0.0, 0.0, 0.0, 1.651835812178049E9, 0.0, 2022-05-06 12:16:52.178
68.0, -205.22327016852796, -61.59615227021277, -99.61410526977852, -130.8740590494126, 0.1600000075995922, 0.11200000531971455, 0.9920000471174717, 0.0, 0.0, 0.0, 0.0, 0.0, 1.6518358122100677E9, 0.0, 2022-05-06 12:16:52.210
68.0, -192.77688311599195, -54.69603685196489, -91.92487096088007, -128.7610155744478, 0.1600000075995922, 0.11200000531971455, 0.9920000471174717, 0.0, 0.0, 0.0, 0.0, 0.0, 1.6518358122100677E9, 0.0, 2022-05-06 12:16:52.210
69.0, -224.87644443567842, -143.91135029494762, -150.6861790646799, -156.66066924389452, 0.1600000075995922, 0.11200000531971455, 0.9920000471174717, 0.0, 0.0, 0.0, 0.0, 0.0, 1.6518358122110348E9, 0.0, 2022-05-06 12:16:52.211
69.0, -233.4819542337209, -148.7395611377433, -149.0144437844865, -144.17314329184592, 0.1600000075995922, 0.11200000531971455, 0.9920000471174717, 0.0, 0.0, 0.0, 0.0, 0.0, 1.6518358122110348E9, 0.0, 2022-05-06 12:16:52.211
70.0, -201.60678691137582, -51.12443239428103, -93.6190456408076, -117.76570970471948, 0.1600000075995922, 0.11200000531971455, 0.9920000471174717, 0.0, 0.0, 0.0, 0.0, 0.0, 1.6518358122120652E9, 0.0, 2022-05-06 12:16:52.212
70.0, -191.50531713105738, -49.59855321235955, -94.6923969280906, -136.15853768680245, 0.1600000075995922, 0.11200000531971455, 0.9920000471174717, 0.0, 0.0, 0.0, 0.0, 0.0, 1.6518358122120652E9, 0.0, 2022-05-06 12:16:52.212
71.0, -219.7714809961617, -143.3653249014169, -151.4977373550646, -153.7809462780133, 0.1600000075995922, 0.12800000607967377, 0.9920000471174717, 0.0, 0.0, 0.0, 0.0, 0.0, 1.6518358122130144E9, 0.0, 2022-05-06 12:16:52.213
71.0, -237.0423389915377, -150.516013616696, -164.4303114018403, -159.31599821243435, 0.1600000075995922, 0.12800000607967377, 0.9920000471174717, 0.0, 0.0, 0.0, 0.0, 0.0, 1.6518358122130144E9, 0.0, 2022-05-06 12:16:52.213
72.0, -220.50076148752123, -64.19164283946157, -108.50384746445343, -143.37280470132828, 0.1600000075995922, 0.12800000607967377, 0.9920000471174717, 0.0, 0.0, 0.0, 0.0, 0.0, 1.6518358122230608E9, 0.0, 2022-05-06 12:16:52.223
72.0, -192.75070381630212, -56.39021153189242, -97.57959969388321, -134.40826450753957, 0.1600000075995922, 0.12800000607967377, 0.9920000471174717, 0.0, 0.0, 0.0, 0.0, 0.0, 1.6518358122230608E9, 0.0, 2022-05-06 12:16:52.223
73.0, -226.31630591861904, -143.34288550168276, -150.4954441669397, -155.68829525541514, 0.1600000075995922, 0.12800000607967377, 0.9920000471174717, 0.0, 0.0, 0.0, 0.0, 0.0, 1.6518358122380552E9, 0.0, 2022-05-06 12:16:52.238
73.0, -244.88116929866374, -156.72424754314125, -168.8396534495987, -164.12924945540726, 0.1600000075995922, 0.12800000607967377, 0.9920000471174717, 0.0, 0.0, 0.0, 0.0, 0.0, 1.6518358122380552E9, 0.0, 2022-05-06 12:16:52.238
74.0, -190.4581451434642, -56.74176212772727, -95.15988442255184, -120.35746037401259, 0.1600000075995922, 0.12800000607967377, 0.9920000471174717, 0.0, 0.0, 0.0, 0.0, 0.0, 1.6518358122700708E9, 0.0, 2022-05-06 12:16:52.270
74.0, -189.6054479535669, -51.771435086615384, -90.94501717248932, -126.6891109989956, 0.1600000075995922, 0.12800000607967377, 0.9920000471174717, 0.0, 0.0, 0.0, 0.0, 0.0, 1.6518358122700708E9, 0.0, 2022-05-06 12:16:52.270
75.0, -222.40811046492308, -142.63230451010168, -152.88898013858125, -155.89772965293378, 0.1600000075995922, 0.12800000607967377, 0.9920000471174717, 0.0, 0.0, 0.0, 0.0, 0.0, 1.6518358122710328E9, 0.0, 2022-05-06 12:16:52.271
75.0, -249.7841781405732, -161.01391279231757, -177.35166574874893, -181.2018927531317, 0.1600000075995922, 0.12800000607967377, 0.9920000471174717, 0.0, 0.0, 0.0, 0.0, 0.0, 1.6518358122710328E9, 0.0, 2022-05-06 12:16:52.271
76.0, -213.71658296789974, -68.57854548748583, -110.12322414526716, -142.7744207084179, 0.1600000075995922, 0.12800000607967377, 0.9920000471174717, 0.0, 0.0, 0.0, 0.0, 0.0, 1.6518358122719972E9, 0.0, 2022-05-06 12:16:52.271
76.0, -184.6426007123664, -47.45933043770492, -88.94417069619521, -123.29328183922917, 0.1600000075995922, 0.12800000607967377, 0.9920000471174717, 0.0, 0.0, 0.0, 0.0, 0.0, 1.6518358122719972E9, 0.0, 2022-05-06 12:16:52.271
77.0, -227.90202349983156, -143.86647149547935, -155.2451171106659, -159.53665230982006, 0.1600000075995922, 0.12800000607967377, 0.9920000471174717, 0.0, 0.0, 0.0, 0.0, 0.0, 1.6518358122730129E9, 0.0, 2022-05-06 12:16:52.273
77.0, -248.28821815829724, -159.23746031336486, -163.8356673088856, -161.672135184519, 0.1600000075995922, 0.12800000607967377, 0.9920000471174717, 0.0, 0.0, 0.0, 0.0, 0.0, 1.6518358122730129E9, 0.0, 2022-05-06 12:16:52.273
78.0, -204.8791993726045, -61.016467777080834, -105.86721799569204, -135.96780278906226, 0.1600000075995922, 0.12800000607967377, 0.9920000471174717, 0.0, 0.0, 0.0, 0.0, 0.0, 1.6518358122980485E9, 0.0, 2022-05-06 12:16:52.298
78.0, -198.49145024828613, -57.88243161421269, -100.1040321639739, -145.94211597088724, 0.1600000075995922, 0.12800000607967377, 0.9920000471174717, 0.0, 0.0, 0.0, 0.0, 0.0, 1.6518358122980485E9, 0.0, 2022-05-06 12:16:52.298
79.0, -223.95268914662302, -150.1083645215258, -153.74541722843423, -149.70819522626698, 0.1600000075995922, 0.12800000607967377, 0.9920000471174717, 0.0, 0.0, 0.0, 0.0, 0.0, 1.6518358122990348E9, 0.0, 2022-05-06 12:16:52.299
79.0, -255.62590187136084, -177.72004589438438, -180.63155800988898, -177.92200049199164, 0.1600000075995922, 0.12800000607967377, 0.9920000471174717, 0.0, 0.0, 0.0, 0.0, 0.0, 1.6518358122990348E9, 0.0, 2022-05-06 12:16:52.299
80.0, -210.7620620029047, -77.95447467640042, -115.23566738469526, -141.5477335229516, 0.1600000075995922, 0.12800000607967377, 1.008000047877431, 0.0, 0.0, 0.0, 0.0, 0.0, 1.6518358123290484E9, 0.0, 2022-05-06 12:16:52.329
80.0, -185.9029469974339, -51.296467792242765, -93.45075014280155, -125.01737571880221, 0.1600000075995922, 0.12800000607967377, 1.008000047877431, 0.0, 0.0, 0.0, 0.0, 0.0, 1.6518358123290484E9, 0.0, 2022-05-06 12:16:52.329
81.0, -219.15813740342855, -142.61734491027892, -151.48651765519753, -159.37957651168108, 0.1600000075995922, 0.12800000607967377, 1.008000047877431, 0.0, 0.0, 0.0, 0.0, 0.0, 1.6518358123299935E9, 0.0, 2022-05-06 12:16:52.329
81.0, -239.32741786446422, -149.18834913242608, -160.76894934521988, -163.1531355669722, 0.1600000075995922, 0.12800000607967377, 1.008000047877431, 0.0, 0.0, 0.0, 0.0, 0.0, 1.6518358123299935E9, 0.0, 2022-05-06 12:16:52.329
82.0, -205.0998534699902, -61.50639467127621, -98.60433228174224, -134.475582706742, 0.1600000075995922, 0.12800000607967377, 1.008000047877431, 0.0, 0.0, 0.0, 0.0, 0.0, 1.6518358123310091E9, 0.0, 2022-05-06 12:16:52.331
82.0, -187.4550054790452, -45.80255475733429, -84.22441695211455, -117.7993688043207, 0.1600000075995922, 0.12800000607967377, 1.008000047877431, 0.0, 0.0, 0.0, 0.0, 0.0, 1.6518358123310091E9, 0.0, 2022-05-06 12:16:52.331
83.0, -227.50933400448412, -142.85295860748738, -157.1636857879348, -167.62605591397732, 0.1600000075995922, 0.12800000607967377, 1.008000047877431, 0.0, 0.0, 0.0, 0.0, 0.0, 1.6518358123430786E9, 0.0, 2022-05-06 12:16:52.343
83.0, -249.21571334730834, -161.49261998664588, -168.71623675106093, -172.28597125876695, 0.1600000075995922, 0.12800000607967377, 1.008000047877431, 0.0, 0.0, 0.0, 0.0, 0.0, 1.6518358123430786E9, 0.0, 2022-05-06 12:16:52.343
84.0, -217.27696772571653, -70.699068762362, -109.44630225328729, -138.00230836495757, 0.1600000075995922, 0.12800000607967377, 1.008000047877431, 0.0, 0.0, 0.0, 0.0, 0.0, 1.6518358123440285E9, 0.0, 2022-05-06 12:16:52.344
84.0, -187.78411667514592, -47.58274713624269, -84.37027305038646, -122.28350885119289, 0.1600000075995922, 0.12800000607967377, 1.008000047877431, 0.0, 0.0, 0.0, 0.0, 0.0, 1.6518358123440285E9, 0.0, 2022-05-06 12:16:52.344
85.0, -220.04449369292706, -140.94186973012984, -149.66518637677655, -155.2956057600677, 0.1600000075995922, 0.12800000607967377, 1.008000047877431, 0.0, 0.0, 0.0, 0.0, 0.0, 1.6518358123580458E9, 0.0, 2022-05-06 12:16:52.358
85.0, -234.20375492516905, -151.7015619026497, -163.3195611150004, -165.5616311384365, 0.1600000075995922, 0.12800000607967377, 1.008000047877431, 0.0, 0.0, 0.0, 0.0, 0.0, 1.6518358123580458E9, 0.0, 2022-05-06 12:16:52.358
86.0, -198.7607230450958, -56.37899183202535, -94.31466703256592, -123.70093093439937, 0.1600000075995922, 0.12800000607967377, 1.008000047877431, 0.0, 0.0, 0.0, 0.0, 0.0, 1.6518358123900614E9, 0.0, 2022-05-06 12:16:52.390
86.0, -184.14893391821533, -48.37560592684895, -95.7320891157724, -129.93160426057875, 0.1600000075995922, 0.12800000607967377, 1.008000047877431, 0.0, 0.0, 0.0, 0.0, 0.0, 1.6518358123900614E9, 0.0, 2022-05-06 12:16:52.390
87.0, -218.20072301477194, -135.03656770009547, -148.2328046937473, -150.42999591771513, 0.1600000075995922, 0.12800000607967377, 1.008000047877431, 0.0, 0.0, 0.0, 0.0, 0.0, 1.6518358123909993E9, 0.0, 2022-05-06 12:16:52.390
87.0, -249.40270834509283, -160.1088570030406, -166.7677488741465, -161.69457458425313, 0.1600000075995922, 0.12800000607967377, 1.008000047877431, 0.0, 0.0, 0.0, 0.0, 0.0, 1.6518358123909993E9, 0.0, 2022-05-06 12:16:52.390
88.0, -202.90079229604453, -65.0705193290487, -105.74754119710997, -131.206910145469, 0.1600000075995922, 0.12800000607967377, 1.008000047877431, 0.0, 0.0, 0.0, 0.0, 0.0, 1.6518358123920517E9, 0.0, 2022-05-06 12:16:52.392
88.0, -173.8567292401567, -37.185825259424746, -80.63037309469655, -107.15935343038291, 0.1600000075995922, 0.12800000607967377, 1.008000047877431, 0.0, 0.0, 0.0, 0.0, 0.0, 1.6518358123920517E9, 0.0, 2022-05-06 12:16:52.392
89.0, -228.68366259057075, -133.6228855168447, -147.8326353984885, -153.3358981832862, 0.1600000075995922, 0.12800000607967377, 1.008000047877431, 0.0, 0.0, 0.0, 0.0, 0.0, 1.6518358123930156E9, 0.0, 2022-05-06 12:16:52.393
89.0, -239.0431854678318, -158.46704092249274, -173.12183889886364, -175.24423212371767, 0.1600000075995922, 0.12800000607967377, 1.008000047877431, 0.0, 0.0, 0.0, 0.0, 0.0, 1.6518358123930156E9, 0.0, 2022-05-06 12:16:52.393
90.0, -208.09177343454212, -77.10177748650312, -112.78229301376268, -146.065532669425, 0.1600000075995922, 0.12800000607967377, 1.0240000486373901, 0.0, 0.0, 0.0, 0.0, 0.0, 1.6518358124180515E9, 0.0, 2022-05-06 12:16:52.418
90.0, -190.11407434754074, -55.25328194536269, -90.32793367980048, -126.52455540094525, 0.1600000075995922, 0.12800000607967377, 1.0240000486373901, 0.0, 0.0, 0.0, 0.0, 0.0, 1.6518358124180515E9, 0.0, 2022-05-06 12:16:52.418
91.0, -229.24090768396854, -141.1774834273383, -153.6145207299851, -152.5916580921039, 0.1600000075995922, 0.12800000607967377, 1.0240000486373901, 0.0, 0.0, 0.0, 0.0, 0.0, 1.6518358124189851E9, 0.0, 2022-05-06 12:16:52.418
91.0, -244.16310850717127, -155.95756805222481, -165.53358188876882, -165.0417850445956, 0.1600000075995922, 0.12800000607967377, 1.0240000486373901, 0.0, 0.0, 0.0, 0.0, 0.0, 1.6518358124189851E9, 0.0, 2022-05-06 12:16:52.418
92.0, -215.13400505110621, -70.05580596998334, -99.30369357345626, -136.12487858720124, 0.1600000075995922, 0.12800000607967377, 1.0240000486373901, 0.0, 0.0, 0.0, 0.0, 0.0, 1.6518358124510448E9, 0.0, 2022-05-06 12:16:52.451
92.0, -189.42967265564948, -50.79158129822463, -86.09062703000382, -125.2829086156562, 0.1600000075995922, 0.12800000607967377, 1.0240000486373901, 0.0, 0.0, 0.0, 0.0, 0.0, 1.6518358124510448E9, 0.0, 2022-05-06 12:16:52.451
93.0, -219.12073840387166, -138.6904499568045, -154.56445531873032, -165.0417850445956, 0.1600000075995922, 0.12800000607967377, 1.0240000486373901, 0.0, 0.0, 0.0, 0.0, 0.0, 1.6518358124520235E9, 0.0, 2022-05-06 12:16:52.452
93.0, -244.4847399033606, -155.45268155820668, -166.3526199790649, -168.91632139869034, 0.1600000075995922, 0.12800000607967377, 1.0240000486373901, 0.0, 0.0, 0.0, 0.0, 0.0, 1.6518358124520235E9, 0.0, 2022-05-06 12:16:52.452
94.0, -204.98017667140812, -61.1024854760617, -94.66621762840077, -125.948610807769, 0.1600000075995922, 0.12800000607967377, 1.0240000486373901, 0.0, 0.0, 0.0, 0.0, 0.0, 1.6518358124530113E9, 0.0, 2022-05-06 12:16:52.453
94.0, -185.07642910722643, -46.17654475290328, -83.86538655636832, -118.14343960024416, 0.1600000075995922, 0.12800000607967377, 1.0240000486373901, 0.0, 0.0, 0.0, 0.0, 0.0, 1.6518358124530113E9, 0.0, 2022-05-06 12:16:52.453
95.0, -213.3575525721535, -140.1041321400553, -147.97101169684902, -147.78962654899806, 0.1600000075995922, 0.12800000607967377, 1.0240000486373901, 0.0, 0.0, 0.0, 0.0, 0.0, 1.6518358124539876E9, 0.0, 2022-05-06 12:16:52.453
95.0, -237.1844551898539, -161.2570062894374, -176.62986505730078, -182.89232753310353, 0.1600000075995922, 0.12800000607967377, 1.0240000486373901, 0.0, 0.0, 0.0, 0.0, 0.0, 1.6518358124539876E9, 0.0, 2022-05-06 12:16:52.453
96.0, -210.45539020653814, -70.61305106338114, -107.94660237105563, -139.52070774696767, 0.1600000075995922, 0.12800000607967377, 1.0240000486373901, 0.0, 0.0, 0.0, 0.0, 0.0, 1.6518358124781075E9, 0.0, 2022-05-06 12:16:52.478
96.0, -185.85806819796562, -52.45957667846233, -91.14697177009657, -121.81602135673165, 0.1600000075995922, 0.12800000607967377, 1.0240000486373901, 0.0, 0.0, 0.0, 0.0, 0.0, 1.6518358124781075E9, 0.0, 2022-05-06 12:16:52.478
97.0, -229.7383143780753, -148.06263924576342, -158.7606230690144, -167.70085391309112, 0.1600000075995922, 0.12800000607967377, 1.0240000486373901, 0.0, 0.0, 0.0, 0.0, 0.0, 1.6518358124790177E9, 0.0, 2022-05-06 12:16:52.479
97.0, -253.0865098014474, -157.16181583795696, -167.44467076612636, -159.34965731203556, 0.1600000075995922, 0.12800000607967377, 1.0240000486373901, 0.0, 0.0, 0.0, 0.0, 0.0, 1.6518358124790177E9, 0.0, 2022-05-06 12:16:52.479
98.0, -216.57386653404683, -66.90681020729244, -106.18884939188138, -139.57680624630302, 0.1600000075995922, 0.12800000607967377, 1.0240000486373901, 0.0, 0.0, 0.0, 0.0, 0.0, 1.651835812493102E9, 0.0, 2022-05-06 12:16:52.493
98.0, -193.8277950035408, -51.345086491666734, -93.58538654120639, -131.8015542384237, 0.1600000075995922, 0.12800000607967377, 1.0240000486373901, 0.0, 0.0, 0.0, 0.0, 0.0, 1.651835812493102E9, 0.0, 2022-05-06 12:16:52.493
99.0, -223.56747945118695, -138.05092706438154, -152.99369733734056, -157.7415003310889, 0.1600000075995922, 0.12800000607967377, 1.0240000486373901, 0.0, 0.0, 0.0, 0.0, 0.0, 1.651835812493998E9, 0.0, 2022-05-06 12:16:52.493
99.0, -241.2310269419104, -156.28293934836984, -172.69923020387068, -170.6703344779089, 0.1600000075995922, 0.12800000607967377, 1.0240000486373901, 0.0, 0.0, 0.0, 0.0, 0.0, 1.651835812493998E9, 0.0, 2022-05-06 12:16:52.493
100.0, -227.47193500492722, -84.0392919043079, -120.75949961924925, -145.34747187793255, 0.1600000075995922, 0.12800000607967377, 1.008000047877431, 0.0, 0.0, 0.0, 0.0, 0.0, 1.6518358125411053E9, 0.0, 2022-05-06 12:16:52.541
100.0, -194.28780269809067, -59.86457859072834, -100.63509795768186, -135.5077950945124, 0.1600000075995922, 0.12800000607967377, 1.008000047877431, 0.0, 0.0, 0.0, 0.0, 0.0, 1.6518358125411053E9, 0.0, 2022-05-06 12:16:52.541
0.0, -219.26285460218787, -141.27472082618624, -154.09135797433555, -159.50299321021885, 0.1600000075995922, 0.12800000607967377, 1.008000047877431, 0.0, 0.0, 0.0, 0.0, 0.0, 1.6518358125420072E9, 0.0, 2022-05-06 12:16:52.542
1.0, -251.5980296190828, -158.05565192736685, -167.94020751025528, -162.68938797246665, 0.1600000075995922, 0.12800000607967377, 1.008000047877431, 0.0, 0.0, 0.0, 0.0, 0.0, 1.6518358125430472E9, 0.0, 2022-05-06 12:16:52.543
1.0, -223.27576725464314, -81.89632922969759, -120.79502866882831, -147.15758345648646, 0.1600000075995922, 0.12800000607967377, 1.008000047877431, 0.0, 0.0, 0.0, 0.0, 0.0, 1.6518358125430472E9, 0.0, 2022-05-06 12:16:52.543
2.0, -199.3553671380505, -61.07630617637187, -100.2330587124452, -135.89300478994846, 0.144000006839633, 0.12800000607967377, 1.008000047877431, 0.0, 0.0, 0.0, 0.0, 0.0, 1.651835812544027E9, 0.0, 2022-05-06 12:16:52.544
2.0, -230.1833624728024, -144.027287193574, -153.51167348120362, -157.38994973525405, 0.144000006839633, 0.12800000607967377, 1.008000047877431, 0.0, 0.0, 0.0, 0.0, 0.0, 1.651835812544027E9, 0.0, 2022-05-06 12:16:52.544
3.0, -246.8932354748249, -162.45377427525818, -157.56946493312716, -154.22973427269608, 0.144000006839633, 0.12800000607967377, 1.008000047877431, 0.0, 0.0, 0.0, 0.0, 0.0, 1.651835812555066E9, 0.0, 2022-05-06 12:16:52.555
3.0, -209.86074611358345, -67.08258550520986, -101.20169280096889, -120.88852616772056, 0.144000006839633, 0.12800000607967377, 1.008000047877431, 0.0, 0.0, 0.0, 0.0, 0.0, 1.651835812555066E9, 0.0, 2022-05-06 12:16:52.555
4.0, -197.91550565510988, -54.078953359276056, -96.25006525963545, -147.0678258575499, 0.144000006839633, 0.12800000607967377, 1.008000047877431, 0.0, 0.0, 0.0, 0.0, 0.0, 1.6518358125560665E9, 0.0, 2022-05-06 12:16:52.556
4.0, -214.38976495992392, -136.03512098826468, -148.3655711421743, -162.45751417521387, 0.144000006839633, 0.12800000607967377, 1.008000047877431, 0.0, 0.0, 0.0, 0.0, 0.0, 1.6518358125560665E9, 0.0, 2022-05-06 12:16:52.556
5.0, -258.7561981342733, -170.88350877538323, -185.77953029889613, -184.6014618128538, 0.144000006839633, 0.12800000607967377, 1.008000047877431, 0.0, 0.0, 0.0, 0.0, 0.0, 1.651835812557052E9, 0.0, 2022-05-06 12:16:52.557
5.0, -236.89648289326578, -82.06088482774794, -119.97973047848791, -146.05057306960225, 0.144000006839633, 0.12800000607967377, 1.008000047877431, 0.0, 0.0, 0.0, 0.0, 0.0, 1.651835812557052E9, 0.0, 2022-05-06 12:16:52.557
6.0, -193.4201459083706, -53.682523963972926, -89.76881863642484, -123.57003443595022, 0.144000006839633, 0.12800000607967377, 1.008000047877431, 0.0, 0.0, 0.0, 0.0, 0.0, 1.6518358125830624E9, 0.0, 2022-05-06 12:16:52.583
6.0, -231.49980725720525, -142.37425141315907, -152.56547879241407, -165.29235834162682, 0.144000006839633, 0.12800000607967377, 1.008000047877431, 0.0, 0.0, 0.0, 0.0, 0.0, 1.6518358125830624E9, 0.0, 2022-05-06 12:16:52.583
7.0, -244.8549899989739, -153.19004208501428, -162.31165807694197, -158.02947262767702, 0.144000006839633, 0.12800000607967377, 1.008000047877431, 0.0, 0.0, 0.0, 0.0, 0.0, 1.6518358125839963E9, 0.0, 2022-05-06 12:16:52.583
7.0, -215.67255064472556, -75.31410530768335, -116.84195441566408, -150.37389741837978, 0.144000006839633, 0.12800000607967377, 1.008000047877431, 0.0, 0.0, 0.0, 0.0, 0.0, 1.6518358125839963E9, 0.0, 2022-05-06 12:16:52.583
8.0, -204.33317397907376, -53.1364985704422, -98.41172743402421, -137.4749824712053, 0.144000006839633, 0.12800000607967377, 1.008000047877431, 0.0, 0.0, 0.0, 0.0, 0.0, 1.651835812598046E9, 0.0, 2022-05-06 12:16:52.598
8.0, -235.90166950505227, -144.79396668449044, -158.3735434236005, -161.6347361849621, 0.144000006839633, 0.12800000607967377, 1.008000047877431, 0.0, 0.0, 0.0, 0.0, 0.0, 1.651835812598046E9, 0.0, 2022-05-06 12:16:52.598
9.0, -254.76198498159647, -160.69602129608393, -177.05808360222727, -173.50891854427755, 0.144000006839633, 0.12800000607967377, 1.008000047877431, 0.0, 0.0, 0.0, 0.0, 0.0, 1.6518358125990093E9, 0.0, 2022-05-06 12:16:52.599
9.0, -216.40557103604078, -73.56383212842047, -112.66074626520276, -138.20800286252052, 0.144000006839633, 0.12800000607967377, 1.008000047877431, 0.0, 0.0, 0.0, 0.0, 0.0, 1.6518358125990093E9, 0.0, 2022-05-06 12:16:52.599
10.0, -203.6936510866508, -52.79990757443011, -93.90514798741788, -130.56364735309035, 0.144000006839633, 0.12800000607967377, 1.0240000486373901, 0.0, 0.0, 0.0, 0.0, 0.0, 1.651835812645125E9, 0.0, 2022-05-06 12:16:52.645
10.0, -228.99033438693732, -137.46376277133822, -150.9236627118662, -154.49900706950575, 0.144000006839633, 0.12800000607967377, 1.0240000486373901, 0.0, 0.0, 0.0, 0.0, 0.0, 1.651835812645125E9, 0.0, 2022-05-06 12:16:52.645
11.0, -242.09120393171906, -151.28643300756812, -161.68335488438606, -153.7398073785007, 0.144000006839633, 0.12800000607967377, 1.0240000486373901, 0.0, 0.0, 0.0, 0.0, 0.0, 1.6518358126460257E9, 0.0, 2022-05-06 12:16:52.646
11.0, -214.1391916628927, -68.86651778407395, -106.79658313468099, -128.48052307777107, 0.144000006839633, 0.12800000607967377, 1.0240000486373901, 0.0, 0.0, 0.0, 0.0, 0.0, 1.6518358126460257E9, 0.0, 2022-05-06 12:16:52.646
12.0, -195.78376268036664, -50.552227701060474, -88.0073257572949, -125.61201981175691, 0.1600000075995922, 0.12800000607967377, 1.0240000486373901, 0.0, 0.0, 0.0, 0.0, 0.0, 1.6518358126470158E9, 0.0, 2022-05-06 12:16:52.647
12.0, -205.38408586662263, -129.33322026766837, -141.12138492800295, -135.79202749114484, 0.1600000075995922, 0.12800000607967377, 1.0240000486373901, 0.0, 0.0, 0.0, 0.0, 0.0, 1.6518358126470158E9, 0.0, 2022-05-06 12:16:52.647
13.0, -241.7097341362387, -154.9253556644544, -165.0417850445956, -165.2287800423801, 0.1600000075995922, 0.12800000607967377, 1.0240000486373901, 0.0, 0.0, 0.0, 0.0, 0.0, 1.6518358126480036E9, 0.0, 2022-05-06 12:16:52.648
13.0, -231.32029205933213, -74.91019611246884, -108.50197751447558, -132.7327893273905, 0.1600000075995922, 0.12800000607967377, 1.0240000486373901, 0.0, 0.0, 0.0, 0.0, 0.0, 1.6518358126480036E9, 0.0, 2022-05-06 12:16:52.648
14.0, -206.77906855009496, -59.11285869963467, -102.73131188284606, -150.06348572205752, 0.1600000075995922, 0.12800000607967377, 1.0240000486373901, 0.0, 0.0, 0.0, 0.0, 0.0, 1.6518358126590421E9, 0.0, 2022-05-06 12:16:52.659
14.0, -225.58328552730381, -136.0276411883533, -156.04732565116137, -166.17123483121395, 0.1600000075995922, 0.12800000607967377, 1.0240000486373901, 0.0, 0.0, 0.0, 0.0, 0.0, 1.6518358126590421E9, 0.0, 2022-05-06 12:16:52.659
15.0, -248.19846055936068, -162.06108477991074, -166.97905322164297, -165.32601744122803, 0.1600000075995922, 0.12800000607967377, 1.0240000486373901, 0.0, 0.0, 0.0, 0.0, 0.0, 1.6518358126600032E9, 0.0, 2022-05-06 12:16:52.660
15.0, -231.97851445153356, -80.98379364050925, -123.427918237634, -147.3296188544482, 0.1600000075995922, 0.12800000607967377, 1.0240000486373901, 0.0, 0.0, 0.0, 0.0, 0.0, 1.6518358126600032E9, 0.0, 2022-05-06 12:16:52.660
16.0, -209.8383067138493, -60.915490478277206, -100.98477860353887, -133.77622141502798, 0.1600000075995922, 0.12800000607967377, 1.0240000486373901, 0.0, 0.0, 0.0, 0.0, 0.0, 1.6518358126730647E9, 0.0, 2022-05-06 12:16:52.673
16.0, -232.41982264630497, -143.7355749970302, -156.41383584681898, -169.7465791888535, 0.1600000075995922, 0.12800000607967377, 1.0240000486373901, 0.0, 0.0, 0.0, 0.0, 0.0, 1.6518358126730647E9, 0.0, 2022-05-06 12:16:52.673
17.0, -243.5983836138621, -159.5964907091111, -171.23879927117378, -169.16689469572157, 0.1600000075995922, 0.12800000607967377, 1.0240000486373901, 0.0, 0.0, 0.0, 0.0, 0.0, 1.6518358127051296E9, 0.0, 2022-05-06 12:16:52.705
17.0, -218.61211200989783, -75.88257010094821, -112.36155426874757, -141.89928411878645, 0.1600000075995922, 0.12800000607967377, 1.0240000486373901, 0.0, 0.0, 0.0, 0.0, 0.0, 1.6518358127051296E9, 0.0, 2022-05-06 12:16:52.705
18.0, -198.54754874762148, -49.5424547130242, -92.55130420345813, -130.86657924950123, 0.1600000075995922, 0.12800000607967377, 1.0240000486373901, 0.0, 0.0, 0.0, 0.0, 0.0, 1.651835812706064E9, 0.0, 2022-05-06 12:16:52.706
18.0, -228.2236548960209, -142.71084240917116, -154.2596534723416, -156.5185530455783, 0.1600000075995922, 0.12800000607967377, 1.0240000486373901, 0.0, 0.0, 0.0, 0.0, 0.0, 1.651835812706064E9, 0.0, 2022-05-06 12:16:52.706
19.0, -241.0440319441259, -157.16929563786834, -165.1913810428232, -157.68166193179786, 0.1600000075995922, 0.12800000607967377, 1.0240000486373901, 0.0, 0.0, 0.0, 0.0, 0.0, 1.651835812707068E9, 0.0, 2022-05-06 12:16:52.707
19.0, -219.18431670311838, -75.9985069995746, -115.20013833511621, -142.19099631533027, 0.1600000075995922, 0.12800000607967377, 1.0240000486373901, 0.0, 0.0, 0.0, 0.0, 0.0, 1.651835812707068E9, 0.0, 2022-05-06 12:16:52.707
20.0, -202.38468610215932, -54.176190758123994, -96.60909565538168, -132.26530183292925, 0.1600000075995922, 0.12800000607967377, 1.008000047877431, 0.0, 0.0, 0.0, 0.0, 0.0, 1.6518358127660544E9, 0.0, 2022-05-06 12:16:52.766
20.0, -228.5527660921216, -138.5894726580009, -152.49068079330027, -158.2987454244867, 0.1600000075995922, 0.12800000607967377, 1.008000047877431, 0.0, 0.0, 0.0, 0.0, 0.0, 1.6518358127660544E9, 0.0, 2022-05-06 12:16:52.766
21.0, -226.94460911117494, -150.54219291638583, -160.20235450193286, -148.35061154235154, 0.1600000075995922, 0.11200000531971455, 1.008000047877431, 0.0, 0.0, 0.0, 0.0, 0.0, 1.6518358127670016E9, 0.0, 2022-05-06 12:16:52.767
21.0, -209.71862991526723, -64.55441313516349, -102.51065778546035, -116.58390131872147, 0.1600000075995922, 0.11200000531971455, 1.008000047877431, 0.0, 0.0, 0.0, 0.0, 0.0, 1.6518358127670016E9, 0.0, 2022-05-06 12:16:52.767
22.0, -208.23014973290265, -57.699176516383886, -102.21520568896085, -150.4823545170948, 0.1600000075995922, 0.11200000531971455, 1.008000047877431, 0.0, 0.0, 0.0, 0.0, 0.0, 1.6518358127680273E9, 0.0, 2022-05-06 12:16:52.768
22.0, -221.106625280343, -135.066486899741, -153.0030470872298, -160.68106169626117, 0.1600000075995922, 0.11200000531971455, 1.008000047877431, 0.0, 0.0, 0.0, 0.0, 0.0, 1.6518358127680273E9, 0.0, 2022-05-06 12:16:52.768
23.0, -231.0697187623009, -154.46160806994885, -154.22973427269608, -138.83630605507642, 0.1600000075995922, 0.11200000531971455, 1.008000047877431, 0.0, 0.0, 0.0, 0.0, 0.0, 1.6518358127690232E9, 0.0, 2022-05-06 12:16:52.769
23.0, -210.89669840130955, -70.23158126790076, -106.29543654061854, -119.56834148336202, 0.1600000075995922, 0.11200000531971455, 1.008000047877431, 0.0, 0.0, 0.0, 0.0, 0.0, 1.6518358127690232E9, 0.0, 2022-05-06 12:16:52.769
24.0, -210.89295850135386, -57.93479021359235, -102.67521338351071, -148.6685030385852, 0.1600000075995922, 0.11200000531971455, 1.008000047877431, 0.0, 0.0, 0.0, 0.0, 0.0, 1.65183581279605E9, 0.0, 2022-05-06 12:16:52.796
24.0, -231.43622895795852, -138.30524026136845, -156.8177450420335, -171.08920327294618, 0.1600000075995922, 0.11200000531971455, 1.008000047877431, 0.0, 0.0, 0.0, 0.0, 0.0, 1.65183581279605E9, 0.0, 2022-05-06 12:16:52.796
25.0, -251.4858326204121, -163.80761805921793, -180.59228906035423, -184.81089621037245, 0.1600000075995922, 0.11200000531971455, 1.008000047877431, 0.0, 0.0, 0.0, 0.0, 0.0, 1.6518358127970772E9, 0.0, 2022-05-06 12:16:52.797
25.0, -219.8874178947881, -78.6687955679372, -114.28386284597218, -137.52360117062926, 0.1600000075995922, 0.11200000531971455, 1.008000047877431, 0.0, 0.0, 0.0, 0.0, 0.0, 1.6518358127970772E9, 0.0, 2022-05-06 12:16:52.797
26.0, -207.03712164703757, -60.05157358851284, -102.10300869029015, -139.89469774253666, 0.1600000075995922, 0.11200000531971455, 1.008000047877431, 0.0, 0.0, 0.0, 0.0, 0.0, 1.6518358127980285E9, 0.0, 2022-05-06 12:16:52.798
26.0, -232.00843365117908, -142.0301806172356, -153.8894033767283, -162.3378373766318, 0.1600000075995922, 0.11200000531971455, 1.008000047877431, 0.0, 0.0, 0.0, 0.0, 0.0, 1.6518358127980285E9, 0.0, 2022-05-06 12:16:52.798
27.0, -243.02991882059723, -155.80423215404153, -163.99461305700243, -164.37982275243849, 0.1600000075995922, 0.11200000531971455, 1.008000047877431, 0.0, 0.0, 0.0, 0.0, 0.0, 1.6518358127990167E9, 0.0, 2022-05-06 12:16:52.799
27.0, -221.2562212785706, -82.76772591937333, -117.15236611198634, -139.38607134856284, 0.1600000075995922, 0.11200000531971455, 1.008000047877431, 0.0, 0.0, 0.0, 0.0, 0.0, 1.6518358127990167E9, 0.0, 2022-05-06 12:16:52.799
28.0, -198.95519784279168, -52.59421307686716, -90.65143502596766, -123.62613293528557, 0.1600000075995922, 0.11200000531971455, 1.008000047877431, 0.0, 0.0, 0.0, 0.0, 0.0, 1.6518358128260503E9, 0.0, 2022-05-06 12:16:52.826
28.0, -219.4012309005484, -129.92786436062306, -143.08483240474015, -146.00195437017828, 0.1600000075995922, 0.11200000531971455, 1.008000047877431, 0.0, 0.0, 0.0, 0.0, 0.0, 1.6518358128260503E9, 0.0, 2022-05-06 12:16:52.826
29.0, -243.49740631505847, -169.0098188975826, -180.3080566637218, -181.7142590470612, 0.1600000075995922, 0.11200000531971455, 1.008000047877431, 0.0, 0.0, 0.0, 0.0, 0.0, 1.6518358128270462E9, 0.0, 2022-05-06 12:16:52.827
29.0, -220.9532893821597, -78.05171207524836, -107.56326262559742, -141.08024602849036, 0.1600000075995922, 0.11200000531971455, 1.008000047877431, 0.0, 0.0, 0.0, 0.0, 0.0, 1.6518358128270462E9, 0.0, 2022-05-06 12:16:52.827
30.0, -196.10913397651166, -56.27801453322172, -91.21989981923252, -127.51188898924738, 0.1600000075995922, 0.11200000531971455, 1.008000047877431, 0.0, 0.0, 0.0, 0.0, 0.0, 1.6518358128280015E9, 0.0, 2022-05-06 12:16:52.828
30.0, -224.53985343966633, -136.75692167971283, -140.61275853402913, -149.20704863220453, 0.1600000075995922, 0.11200000531971455, 1.008000047877431, 0.0, 0.0, 0.0, 0.0, 0.0, 1.6518358128280015E9, 0.0, 2022-05-06 12:16:52.828
31.0, -244.86994959879667, -157.18051533773541, -160.65862229652703, -161.41782198753208, 0.1600000075995922, 0.11200000531971455, 1.008000047877431, 0.0, 0.0, 0.0, 0.0, 0.0, 1.6518358128290176E9, 0.0, 2022-05-06 12:16:52.829
31.0, -204.59496697597206, -68.65708338655531, -102.00203139148653, -117.35806060954928, 0.1600000075995922, 0.11200000531971455, 1.008000047877431, 0.0, 0.0, 0.0, 0.0, 0.0, 1.6518358128290176E9, 0.0, 2022-05-06 12:16:52.829
32.0, -192.0176834249869, -45.37994606234133, -90.7823315244168, -126.6143129998818, 0.1600000075995922, 0.11200000531971455, 1.008000047877431, 0.0, 0.0, 0.0, 0.0, 0.0, 1.6518358128380756E9, 0.0, 2022-05-06 12:16:52.838
32.0, -235.46410121023655, -139.3224930493161, -154.3681105710566, -168.27305860631168, 0.1600000075995922, 0.11200000531971455, 1.008000047877431, 0.0, 0.0, 0.0, 0.0, 0.0, 1.6518358128380756E9, 0.0, 2022-05-06 12:16:52.838
33.0, -240.09035745542496, -157.06831833906472, -170.98448607418686, -172.3084106585011, 0.1600000075995922, 0.11200000531971455, 1.008000047877431, 0.0, 0.0, 0.0, 0.0, 0.0, 1.6518358128390093E9, 0.0, 2022-05-06 12:16:52.839
33.0, -225.29157333076, -90.20264703128487, -121.86090015619993, -149.659576526843, 0.1600000075995922, 0.11200000531971455, 1.008000047877431, 0.0, 0.0, 0.0, 0.0, 0.0, 1.6518358128390093E9, 0.0, 2022-05-06 12:16:52.839
34.0, -191.24726403411478, -49.37789911497384, -84.15522880293429, -117.54131570737809, 0.1600000075995922, 0.11200000531971455, 1.008000047877431, 0.0, 0.0, 0.0, 0.0, 0.0, 1.6518358128530383E9, 0.0, 2022-05-06 12:16:52.853
34.0, -220.8822312830016, -133.20027682185173, -147.93922254722565, -152.17278929706663, 0.1600000075995922, 0.11200000531971455, 1.008000047877431, 0.0, 0.0, 0.0, 0.0, 0.0, 1.6518358128530383E9, 0.0, 2022-05-06 12:16:52.853
35.0, -242.98877992108464, -157.16181583795696, -171.32107707019895, -168.39273540489376, 0.1600000075995922, 0.11200000531971455, 1.008000047877431, 0.0, 0.0, 0.0, 0.0, 0.0, 1.6518358128860528E9, 0.0, 2022-05-06 12:16:52.886
35.0, -214.09057296346873, -74.3679106188938, -106.18323954194784, -131.9474103366956, 0.1600000075995922, 0.11200000531971455, 1.008000047877431, 0.0, 0.0, 0.0, 0.0, 0.0, 1.6518358128860528E9, 0.0, 2022-05-06 12:16:52.886
36.0, -177.28995739948004, -38.62568674236536, -76.17428229749203, -100.97729880362749, 0.1600000075995922, 0.11200000531971455, 1.008000047877431, 0.0, 0.0, 0.0, 0.0, 0.0, 1.6518358128870032E9, 0.0, 2022-05-06 12:16:52.887
36.0, -212.77786807902157, -120.98950346652418, -134.9879490006715, -146.44700246490538, 0.1600000075995922, 0.11200000531971455, 1.008000047877431, 0.0, 0.0, 0.0, 0.0, 0.0, 1.6518358128870032E9, 0.0, 2022-05-06 12:16:52.887
37.0, -250.64809503033757, -158.2276873253286, -164.51071925088763, -158.7811925187707, 0.1600000075995922, 0.11200000531971455, 1.008000047877431, 0.0, 0.0, 0.0, 0.0, 0.0, 1.6518358128880115E9, 0.0, 2022-05-06 12:16:52.888
37.0, -228.42186959367245, -91.05160432122648, -129.55013446509838, -166.6686415253207, 0.1600000075995922, 0.11200000531971455, 1.008000047877431, 0.0, 0.0, 0.0, 0.0, 0.0, 1.6518358128880115E9, 0.0, 2022-05-06 12:16:52.888
38.0, -203.42063838988543, -60.1039321878925, -100.46493250969797, -147.27352035511285, 0.1600000075995922, 0.11200000531971455, 1.008000047877431, 0.0, 0.0, 0.0, 0.0, 0.0, 1.6518358128889945E9, 0.0, 2022-05-06 12:16:52.888
38.0, -232.9209692403674, -147.13514405675232, -162.91752186976373, -173.47151954472065, 0.1600000075995922, 0.11200000531971455, 1.008000047877431, 0.0, 0.0, 0.0, 0.0, 0.0, 1.6518358128889945E9, 0.0, 2022-05-06 12:16:52.888
39.0, -250.72289302945137, -170.150488384068, -180.43521326221526, -172.79459765274078, 0.1600000075995922, 0.11200000531971455, 1.008000047877431, 0.0, 0.0, 0.0, 0.0, 0.0, 1.651835812898052E9, 0.0, 2022-05-06 12:16:52.898
39.0, -223.04763335734606, -86.33185057714581, -118.33417449798435, -142.38173121307045, 0.1600000075995922, 0.11200000531971455, 1.008000047877431, 0.0, 0.0, 0.0, 0.0, 0.0, 1.651835812898052E9, 0.0, 2022-05-06 12:16:52.898
40.0, -193.89137330278754, -46.67021154705435, -90.32606372982264, -122.44432454928756, 0.1600000075995922, 0.11200000531971455, 1.008000047877431, 0.0, 0.0, 0.0, 0.0, 0.0, 1.651835812913057E9, 0.0, 2022-05-06 12:16:52.913
40.0, -222.76340096071362, -131.59585974086076, -147.56149265170097, -146.44700246490538, 0.1600000075995922, 0.11200000531971455, 1.008000047877431, 0.0, 0.0, 0.0, 0.0, 0.0, 1.651835812913057E9, 0.0, 2022-05-06 12:16:52.913
41.0, -242.85040362272412, -161.63847608491778, -172.29345105867833, -167.73825291264802, 0.1600000075995922, 0.11200000531971455, 1.008000047877431, 0.0, 0.0, 0.0, 0.0, 0.0, 1.6518358129450488E9, 0.0, 2022-05-06 12:16:52.945
41.0, -217.22834902629256, -84.34970360063016, -119.59078088309616, -138.48849535919726, 0.1600000075995922, 0.11200000531971455, 1.008000047877431, 0.0, 0.0, 0.0, 0.0, 0.0, 1.6518358129450488E9, 0.0, 2022-05-06 12:16:52.945
42.0, -189.60170805361122, -49.329280415549874, -89.3013311419636, -133.89589821361005, 0.1600000075995922, 0.11200000531971455, 1.008000047877431, 0.0, 0.0, 0.0, 0.0, 0.0, 1.6518358129460287E9, 0.0, 2022-05-06 12:16:52.946
42.0, -222.13509776815772, -130.03258155938238, -146.9631086587906, -158.1828085258603, 0.1600000075995922, 0.11200000531971455, 1.008000047877431, 0.0, 0.0, 0.0, 0.0, 0.0, 1.6518358129460287E9, 0.0, 2022-05-06 12:16:52.946
43.0, -239.10302386712283, -152.8871101886034, -164.60421674977988, -154.67852226737887, 0.1600000075995922, 0.11200000531971455, 1.008000047877431, 0.0, 0.0, 0.0, 0.0, 0.0, 1.6518358129470224E9, 0.0, 2022-05-06 12:16:52.947
43.0, -207.83372033759952, -65.440769424662, -105.50257775001228, -116.58390131872147, 0.1600000075995922, 0.11200000531971455, 1.008000047877431, 0.0, 0.0, 0.0, 0.0, 0.0, 1.6518358129470224E9, 0.0, 2022-05-06 12:16:52.947
44.0, -171.33229677006602, -34.358460892923176, -80.69956124387681, -121.58040765952319, 0.1600000075995922, 0.11200000531971455, 1.008000047877431, 0.0, 0.0, 0.0, 0.0, 0.0, 1.651835812948033E9, 0.0, 2022-05-06 12:16:52.948
44.0, -216.4018311360851, -125.06225451827049, -144.83510558400303, -159.9667408047244, 0.1600000075995922, 0.11200000531971455, 1.008000047877431, 0.0, 0.0, 0.0, 0.0, 0.0, 1.651835812948033E9, 0.0, 2022-05-06 12:16:52.948
45.0, -251.4858326204121, -169.05095779709518, -174.36535563413054, -173.83802974037826, 0.1600000075995922, 0.11200000531971455, 1.008000047877431, 0.0, 0.0, 0.0, 0.0, 0.0, 1.6518358129730527E9, 0.0, 2022-05-06 12:16:52.973
45.0, -219.9173370944336, -78.28358587250113, -114.33996134530753, -142.35181201342493, 0.1600000075995922, 0.11200000531971455, 1.008000047877431, 0.0, 0.0, 0.0, 0.0, 0.0, 1.6518358129730527E9, 0.0, 2022-05-06 12:16:52.973
46.0, -187.9075333736837, -51.38622539117932, -92.27829150669277, -128.77971507422626, 0.1600000075995922, 0.11200000531971455, 1.008000047877431, 0.0, 0.0, 0.0, 0.0, 0.0, 1.6518358129740396E9, 0.0, 2022-05-06 12:16:52.974
46.0, -216.74964183196425, -131.07601364701986, -146.6302575627342, -147.19124255608767, 0.1600000075995922, 0.11200000531971455, 1.008000047877431, 0.0, 0.0, 0.0, 0.0, 0.0, 1.6518358129740396E9, 0.0, 2022-05-06 12:16:52.974
47.0, -259.18628662917763, -163.43362806364894, -172.8993148515001, -174.20827983599156, 0.1600000075995922, 0.11200000531971455, 1.008000047877431, 0.0, 0.0, 0.0, 0.0, 0.0, 1.6518358130350597E9, 0.0, 2022-05-06 12:16:53.035
47.0, -223.33560565393418, -81.7429933315143, -113.92857235018164, -138.08458616398275, 0.1600000075995922, 0.11200000531971455, 1.008000047877431, 0.0, 0.0, 0.0, 0.0, 0.0, 1.6518358130350597E9, 0.0, 2022-05-06 12:16:53.035
48.0, -194.3102420978248, -48.67479792330414, -87.00129266921431, -129.1724045695737, 0.1600000075995922, 0.11200000531971455, 1.008000047877431, 0.0, 0.0, 0.0, 0.0, 0.0, 1.6518358130360477E9, 0.0, 2022-05-06 12:16:53.036
48.0, -222.31835286598653, -131.19569044560194, -151.69408210273832, -158.777452618815, 0.1600000075995922, 0.11200000531971455, 1.008000047877431, 0.0, 0.0, 0.0, 0.0, 0.0, 1.6518358130360477E9, 0.0, 2022-05-06 12:16:53.036
49.0, -237.34153098799288, -160.71472079586238, -173.72583274170756, -166.92295472230762, 0.1600000075995922, 0.11200000531971455, 1.008000047877431, 0.0, 0.0, 0.0, 0.0, 0.0, 1.6518358130370166E9, 0.0, 2022-05-06 12:16:53.037
49.0, -220.8822312830016, -82.98090021684766, -122.56400134786963, -148.04767964594066, 0.1600000075995922, 0.11200000531971455, 1.008000047877431, 0.0, 0.0, 0.0, 0.0, 0.0, 1.6518358130370166E9, 0.0, 2022-05-06 12:16:53.037
50.0, -201.22157721593976, -59.57660629414022, -95.69282016623765, -138.9522429537028, 0.1600000075995922, 0.11200000531971455, 1.008000047877431, 0.0, 0.0, 0.0, 0.0, 0.0, 1.6518358130379968E9, 0.0, 2022-05-06 12:16:53.037
50.0, -213.05836057569832, -121.58788745943457, -141.92546341847628, -141.17000362742692, 0.1600000075995922, 0.11200000531971455, 1.008000047877431, 0.0, 0.0, 0.0, 0.0, 0.0, 1.6518358130379968E9, 0.0, 2022-05-06 12:16:53.037
51.0, -240.5615848498419, -163.57574426196516, -179.11502857785672, -169.98219288606197, 0.1600000075995922, 0.11200000531971455, 1.008000047877431, 0.0, 0.0, 0.0, 0.0, 0.0, 1.651835813096058E9, 0.0, 2022-05-06 12:16:53.096
51.0, -226.8137126127258, -90.12784903217107, -121.77114255726337, -154.3681105710566, 0.1600000075995922, 0.11200000531971455, 1.008000047877431, 0.0, 0.0, 0.0, 0.0, 0.0, 1.651835813096058E9, 0.0, 2022-05-06 12:16:53.096
52.0, -196.18767187558115, -43.723170381970704, -85.12760279141366, -121.22885706368834, 0.1600000075995922, 0.11200000531971455, 1.008000047877431, 0.0, 0.0, 0.0, 0.0, 0.0, 1.651835813097028E9, 0.0, 2022-05-06 12:16:53.097
52.0, -208.98186962399632, -127.06684089452028, -147.37823755387217, -158.2239474253729, 0.1600000075995922, 0.11200000531971455, 1.008000047877431, 0.0, 0.0, 0.0, 0.0, 0.0, 1.651835813097028E9, 0.0, 2022-05-06 12:16:53.097
53.0, -233.62033053208143, -160.25471310131252, -169.29031139425933, -170.31130408216268, 0.1600000075995922, 0.11200000531971455, 1.008000047877431, 0.0, 0.0, 0.0, 0.0, 0.0, 1.6518358130979948E9, 0.0, 2022-05-06 12:16:53.097
53.0, -227.59535170346498, -89.44344734027982, -120.29388207476586, -142.3966908128932, 0.1600000075995922, 0.11200000531971455, 1.008000047877431, 0.0, 0.0, 0.0, 0.0, 0.0, 1.6518358130979948E9, 0.0, 2022-05-06 12:16:53.097
54.0, -190.56286234222353, -41.18377831205726, -74.44644851796329, -101.8262560935691, 0.1600000075995922, 0.11200000531971455, 1.008000047877431, 0.0, 0.0, 0.0, 0.0, 0.0, 1.651835813098998E9, 0.0, 2022-05-06 12:16:53.098
54.0, -219.83505929540843, -130.5823468528688, -148.57126563973725, -151.86237760074437, 0.1600000075995922, 0.11200000531971455, 1.008000047877431, 0.0, 0.0, 0.0, 0.0, 0.0, 1.651835813098998E9, 0.0, 2022-05-06 12:16:53.098
55.0, -239.2638395652175, -160.49032679852098, -169.7503190888092, -166.49660612735897, 0.1600000075995922, 0.11200000531971455, 1.008000047877431, 0.0, 0.0, 0.0, 0.0, 0.0, 1.6518358131100397E9, 0.0, 2022-05-06 12:16:53.110
55.0, -222.4006306650117, -83.36237001232803, -115.30485553387552, -146.35350496601313, 0.1600000075995922, 0.11200000531971455, 1.008000047877431, 0.0, 0.0, 0.0, 0.0, 0.0, 1.6518358131100397E9, 0.0, 2022-05-06 12:16:53.110
56.0, -184.4256865149364, -38.93983833864331, -71.43208915367723, -103.98791826795787, 0.1600000075995922, 0.11200000531971455, 1.008000047877431, 0.0, 0.0, 0.0, 0.0, 0.0, 1.6518358131109936E9, 0.0, 2022-05-06 12:16:53.110
56.0, -217.10867222771049, -130.29437455628067, -145.19787587970495, -159.21502091363072, 0.1600000075995922, 0.11200000531971455, 1.008000047877431, 0.0, 0.0, 0.0, 0.0, 0.0, 1.6518358131109936E9, 0.0, 2022-05-06 12:16:53.110
57.0, -251.6017695190385, -169.5633240910247, -177.26003819983453, -180.65212745964527, 0.1600000075995922, 0.11200000531971455, 1.008000047877431, 0.0, 0.0, 0.0, 0.0, 0.0, 1.651835813111986E9, 0.0, 2022-05-06 12:16:53.111
57.0, -211.83167339023203, -81.9636474289, -117.57123490702361, -149.56607902795076, 0.1600000075995922, 0.11200000531971455, 1.008000047877431, 0.0, 0.0, 0.0, 0.0, 0.0, 1.651835813111986E9, 0.0, 2022-05-06 12:16:53.111
60.0, -177.51809129677713, -38.60324734263122, -80.95387444086373, -132.52335492987186, 0.1600000075995922, 0.11200000531971455, 1.0240000486373901, 0.0, 0.0, 0.0, 0.0, 0.0, 1.6518358131129947E9, 0.0, 2022-05-06 12:16:53.112
60.0, -203.25234289187938, -112.51115026697516, -135.23104249779135, -154.19607517309487, 0.1600000075995922, 0.11200000531971455, 1.0240000486373901, 0.0, 0.0, 0.0, 0.0, 0.0, 1.6518358131129947E9, 0.0, 2022-05-06 12:16:53.112
61.0, -219.90611739456654, -153.16012288536876, -163.13443606719375, -165.55041143856943, 0.1600000075995922, 0.11200000531971455, 1.0240000486373901, 0.0, 0.0, 0.0, 0.0, 0.0, 1.6518358131410475E9, 0.0, 2022-05-06 12:16:53.141
61.0, -196.69629826955497, -69.87629077211022, -103.72238537110388, -132.9871025243774, 0.1600000075995922, 0.11200000531971455, 1.0240000486373901, 0.0, 0.0, 0.0, 0.0, 0.0, 1.6518358131410475E9, 0.0, 2022-05-06 12:16:53.141
62.0, -176.76637140568346, -36.73703726474196, -86.88161587063223, -132.9123045252636, 0.1600000075995922, 0.11200000531971455, 1.0240000486373901, 0.0, 0.0, 0.0, 0.0, 0.0, 1.651835813142053E9, 0.0, 2022-05-06 12:16:53.142
62.0, -206.1732047572732, -121.58040765952319, -145.48210827633739, -163.4074487639591, 0.1600000075995922, 0.11200000531971455, 1.0240000486373901, 0.0, 0.0, 0.0, 0.0, 0.0, 1.651835813142053E9, 0.0, 2022-05-06 12:16:53.142
63.0, -226.5481797158718, -154.78323946613818, -166.14505553152412, -171.3360366700217, 0.1600000075995922, 0.11200000531971455, 1.0240000486373901, 0.0, 0.0, 0.0, 0.0, 0.0, 1.6518358131429956E9, 0.0, 2022-05-06 12:16:53.142
63.0, -202.85965339653194, -84.49929959885776, -120.65665237046778, -141.5514734229073, 0.1600000075995922, 0.11200000531971455, 1.0240000486373901, 0.0, 0.0, 0.0, 0.0, 0.0, 1.6518358131429956E9, 0.0, 2022-05-06 12:16:53.142
64.0, -187.6046014772728, -45.55198146030307, -83.59798370953649, -125.55592131242156, 0.1600000075995922, 0.11200000531971455, 1.0240000486373901, 0.0, 0.0, 0.0, 0.0, 0.0, 1.6518358131530883E9, 0.0, 2022-05-06 12:16:53.153
64.0, -213.36877227202058, -130.08120025880635, -156.84392434172332, -180.46887236181647, 0.1600000075995922, 0.11200000531971455, 1.0240000486373901, 0.0, 0.0, 0.0, 0.0, 0.0, 1.6518358131530883E9, 0.0, 2022-05-06 12:16:53.153
65.0, -239.1479026665911, -176.10814901348203, -187.9785914728418, -189.93081924971193, 0.1600000075995922, 0.11200000531971455, 1.0240000486373901, 0.0, 0.0, 0.0, 0.0, 0.0, 1.651835813168094E9, 0.0, 2022-05-06 12:16:53.168
65.0, -208.62657912820578, -89.77629843633622, -119.86005367990583, -150.94984201155603, 0.1600000075995922, 0.11200000531971455, 1.0240000486373901, 0.0, 0.0, 0.0, 0.0, 0.0, 1.651835813168094E9, 0.0, 2022-05-06 12:16:53.168
66.0, -168.90510169882327, -37.87770675122738, -79.76458625495434, -122.67245844658464, 0.1600000075995922, 0.11200000531971455, 1.0240000486373901, 0.0, 0.0, 0.0, 0.0, 0.0, 1.651835813168991E9, 0.0, 2022-05-06 12:16:53.168
66.0, -183.73006512317806, -106.59836843702942, -125.66437841113657, -138.4772756593302, 0.1600000075995922, 0.11200000531971455, 1.0240000486373901, 0.0, 0.0, 0.0, 0.0, 0.0, 1.651835813168991E9, 0.0, 2022-05-06 12:16:53.168
67.0, -205.60473996400833, -133.90337801352143, -150.42625601775944, -155.2582067605108, 0.1600000075995922, 0.11200000531971455, 1.0240000486373901, 0.0, 0.0, 0.0, 0.0, 0.0, 1.6518358132010443E9, 0.0, 2022-05-06 12:16:53.201
67.0, -206.36767955496907, -77.27381288446486, -112.66448616515845, -148.851758136414, 0.1600000075995922, 0.11200000531971455, 1.0240000486373901, 0.0, 0.0, 0.0, 0.0, 0.0, 1.6518358132010443E9, 0.0, 2022-05-06 12:16:53.201
68.0, -163.10825676750392, -26.09702189080417, -75.05231231078506, -117.2757828105241, 0.1600000075995922, 0.11200000531971455, 1.0240000486373901, 0.0, 0.0, 0.0, 0.0, 0.0, 1.6518358132020023E9, 0.0, 2022-05-06 12:16:53.202
68.0, -211.52126169390976, -120.99698326643556, -146.64895706251264, -166.3731894288212, 0.1600000075995922, 0.11200000531971455, 1.0240000486373901, 0.0, 0.0, 0.0, 0.0, 0.0, 1.6518358132020023E9, 0.0, 2022-05-06 12:16:53.202
69.0, -238.31016507651657, -159.2187608135864, -172.81703705247492, -177.6452478952706, 0.1600000075995922, 0.11200000531971455, 1.0240000486373901, 0.0, 0.0, 0.0, 0.0, 0.0, 1.6518358132030263E9, 0.0, 2022-05-06 12:16:53.203
69.0, -201.41605201363564, -78.47806067019701, -116.88309331517667, -141.03910712897778, 0.1600000075995922, 0.11200000531971455, 1.0240000486373901, 0.0, 0.0, 0.0, 0.0, 0.0, 1.6518358132030263E9, 0.0, 2022-05-06 12:16:53.203
70.0, -172.24483235925436, -37.47753745596856, -82.54707182198763, -124.21703712828457, 0.1600000075995922, 0.11200000531971455, 1.0240000486373901, 0.0, 0.0, 0.0, 0.0, 0.0, 1.6518358132130668E9, 0.0, 2022-05-06 12:16:53.213
70.0, -189.10430135950446, -105.24078475311399, -123.427918237634, -136.5474872821942, 0.1600000075995922, 0.11200000531971455, 1.0240000486373901, 0.0, 0.0, 0.0, 0.0, 0.0, 1.6518358132130668E9, 0.0, 2022-05-06 12:16:53.213
71.0, -228.38447059411556, -154.21477467287332, -171.90824136324227, -174.61592893116176, 0.1600000075995922, 0.12800000607967377, 1.0240000486373901, 0.0, 0.0, 0.0, 0.0, 0.0, 1.6518358132280445E9, 0.0, 2022-05-06 12:16:53.228
71.0, -206.58833365235478, -82.0384454280138, -112.19325877074152, -149.34542493056506, 0.1600000075995922, 0.12800000607967377, 1.0240000486373901, 0.0, 0.0, 0.0, 0.0, 0.0, 1.6518358132280445E9, 0.0, 2022-05-06 12:16:53.228
72.0, -171.2649785708636, -33.644140001386404, -74.22579442057759, -112.51115026697516, 0.1600000075995922, 0.12800000607967377, 1.0240000486373901, 0.0, 0.0, 0.0, 0.0, 0.0, 1.651835813229002E9, 0.0, 2022-05-06 12:16:53.229
72.0, -178.65128098335117, -103.74856467079371, -127.33985359128565, -133.97817601263523, 0.1600000075995922, 0.12800000607967377, 1.0240000486373901, 0.0, 0.0, 0.0, 0.0, 0.0, 1.651835813229002E9, 0.0, 2022-05-06 12:16:53.229
73.0, -217.45274302363396, -151.76140030194074, -164.05445145629346, -175.95107321534306, 0.1600000075995922, 0.12800000607967377, 1.0240000486373901, 0.0, 0.0, 0.0, 0.0, 0.0, 1.651835813260042E9, 0.0, 2022-05-06 12:16:53.260
73.0, -208.2451093327254, -80.407849047333, -120.69405137002468, -146.49936106428504, 0.1600000075995922, 0.12800000607967377, 1.0240000486373901, 0.0, 0.0, 0.0, 0.0, 0.0, 1.651835813260042E9, 0.0, 2022-05-06 12:16:53.260
74.0, -177.8995610922575, -41.56524810753763, -85.14630229119211, -133.75752191524953, 0.1600000075995922, 0.12800000607967377, 1.0240000486373901, 0.0, 0.0, 0.0, 0.0, 0.0, 1.6518358132609863E9, 0.0, 2022-05-06 12:16:53.260
74.0, -190.5366830425337, -109.44443230330944, -127.04440149478614, -148.93403593543917, 0.1600000075995922, 0.12800000607967377, 1.0240000486373901, 0.0, 0.0, 0.0, 0.0, 0.0, 1.6518358132609863E9, 0.0, 2022-05-06 12:16:53.260
75.0, -212.33655988425016, -144.44989588856697, -156.17074234969914, -150.67682931479067, 0.1600000075995922, 0.12800000607967377, 1.0240000486373901, 0.0, 0.0, 0.0, 0.0, 0.0, 1.651835813273066E9, 0.0, 2022-05-06 12:16:53.273
75.0, -202.10419360548258, -79.18864166177809, -112.6083876658231, -134.56534030567855, 0.1600000075995922, 0.12800000607967377, 1.0240000486373901, 0.0, 0.0, 0.0, 0.0, 0.0, 1.651835813273066E9, 0.0, 2022-05-06 12:16:53.273
76.0, -170.95830677449703, -33.54690260253847, -85.98403988126665, -132.3625392317772, 0.1600000075995922, 0.12800000607967377, 1.0240000486373901, 0.0, 0.0, 0.0, 0.0, 0.0, 1.6518358132740855E9, 0.0, 2022-05-06 12:16:53.274
76.0, -198.8691801438108, -111.30316258128732, -132.22042303346097, -154.5887646684423, 0.1600000075995922, 0.12800000607967377, 1.0240000486373901, 0.0, 0.0, 0.0, 0.0, 0.0, 1.6518358132740855E9, 0.0, 2022-05-06 12:16:53.274
77.0, -221.42077687662095, -153.35833758302033, -167.27824521809816, -178.48672538530082, 0.1600000075995922, 0.12800000607967377, 1.0240000486373901, 0.0, 0.0, 0.0, 0.0, 0.0, 1.6518358132880452E9, 0.0, 2022-05-06 12:16:53.288
77.0, -210.70596350356936, -91.1937205195427, -121.70382435806096, -160.79325869493186, 0.1600000075995922, 0.12800000607967377, 1.0240000486373901, 0.0, 0.0, 0.0, 0.0, 0.0, 1.6518358132880452E9, 0.0, 2022-05-06 12:16:53.288
78.0, -172.35702935792506, -38.038522449322045, -78.25366667285562, -119.74037688132375, 0.1600000075995922, 0.12800000607967377, 1.0240000486373901, 0.0, 0.0, 0.0, 0.0, 0.0, 1.6518358133190818E9, 0.0, 2022-05-06 12:16:53.319
78.0, -188.40867996774614, -102.33488248754293, -130.59730645269156, -137.96864926535636, 0.1600000075995922, 0.12800000607967377, 1.0240000486373901, 0.0, 0.0, 0.0, 0.0, 0.0, 1.6518358133190818E9, 0.0, 2022-05-06 12:16:53.319
79.0, -221.9929815698415, -148.35435144230723, -168.61338950227946, -178.90559418033808, 0.1600000075995922, 0.12800000607967377, 1.0240000486373901, 0.0, 0.0, 0.0, 0.0, 0.0, 1.651835813333039E9, 0.0, 2022-05-06 12:16:53.333
79.0, -203.63755258731544, -91.54901101533324, -124.91639841999859, -155.89772965293378, 0.1600000075995922, 0.12800000607967377, 1.0240000486373901, 0.0, 0.0, 0.0, 0.0, 0.0, 1.651835813333039E9, 0.0, 2022-05-06 12:16:53.333
80.0, -184.3845476154238, -44.55716807208955, -92.62236230261624, -139.87599824275821, 0.1600000075995922, 0.12800000607967377, 1.008000047877431, 0.0, 0.0, 0.0, 0.0, 0.0, 1.6518358133510494E9, 0.0, 2022-05-06 12:16:53.351
80.0, -200.88872611988336, -116.87935341522098, -137.3665253724903, -156.66066924389452, 0.1600000075995922, 0.12800000607967377, 1.008000047877431, 0.0, 0.0, 0.0, 0.0, 0.0, 1.6518358133510494E9, 0.0, 2022-05-06 12:16:53.351
81.0, -228.10023819748312, -159.4506346108392, -171.29489777050912, -166.55644452665, 0.1600000075995922, 0.11200000531971455, 1.008000047877431, 0.0, 0.0, 0.0, 0.0, 0.0, 1.6518358133520126E9, 0.0, 2022-05-06 12:16:53.352
81.0, -207.48590964172035, -81.8514504302293, -120.63795287068933, -151.93343569990247, 0.1600000075995922, 0.11200000531971455, 1.008000047877431, 0.0, 0.0, 0.0, 0.0, 0.0, 1.6518358133520126E9, 0.0, 2022-05-06 12:16:53.352
82.0, -175.55090392008424, -40.420838721096516, -80.2245939495042, -128.0279951831326, 0.1600000075995922, 0.11200000531971455, 1.008000047877431, 0.0, 0.0, 0.0, 0.0, 0.0, 1.651835813353012E9, 0.0, 2022-05-06 12:16:53.353
82.0, -168.2281798068434, -97.83952274080366, -115.51802983134985, -126.84618679713458, 0.1600000075995922, 0.11200000531971455, 1.008000047877431, 0.0, 0.0, 0.0, 0.0, 0.0, 1.651835813353012E9, 0.0, 2022-05-06 12:16:53.353
83.0, -230.34791807085276, -144.21054229140282, -163.14191586710513, -166.30961112957448, 0.1600000075995922, 0.11200000531971455, 1.008000047877431, 0.0, 0.0, 0.0, 0.0, 0.0, 1.6518358133540328E9, 0.0, 2022-05-06 12:16:53.354
83.0, -207.48590964172035, -74.0350595228374, -114.62793364189565, -142.74824140872806, 0.1600000075995922, 0.11200000531971455, 1.008000047877431, 0.0, 0.0, 0.0, 0.0, 0.0, 1.6518358133540328E9, 0.0, 2022-05-06 12:16:53.354
84.0, -181.2318119527772, -38.37511344533414, -87.1508886674419, -133.40971121937037, 0.1600000075995922, 0.11200000531971455, 1.008000047877431, 0.0, 0.0, 0.0, 0.0, 0.0, 1.6518358134110785E9, 0.0, 2022-05-06 12:16:53.411
84.0, -202.32858760282397, -108.48327801469713, -140.37714483682066, -168.8228238997981, 0.1600000075995922, 0.11200000531971455, 1.008000047877431, 0.0, 0.0, 0.0, 0.0, 0.0, 1.6518358134110785E9, 0.0, 2022-05-06 12:16:53.411
85.0, -215.6201920453459, -149.49876082874835, -165.40455534029752, -165.81220443546772, 0.1600000075995922, 0.11200000531971455, 1.008000047877431, 0.0, 0.0, 0.0, 0.0, 0.0, 1.6518358134120054E9, 0.0, 2022-05-06 12:16:53.412
85.0, -210.37311240751296, -92.62984210252762, -123.17734494060278, -132.19050383381546, 0.1600000075995922, 0.11200000531971455, 1.008000047877431, 0.0, 0.0, 0.0, 0.0, 0.0, 1.6518358134120054E9, 0.0, 2022-05-06 12:16:53.412
86.0, -202.12289310526103, -59.93563668988645, -102.70513258315623, -156.9598612403497, 0.1600000075995922, 0.11200000531971455, 1.008000047877431, 0.0, 0.0, 0.0, 0.0, 0.0, 1.6518358134130733E9, 0.0, 2022-05-06 12:16:53.413
86.0, -211.7306960914284, -125.46990361344069, -145.93837607093155, -170.55439757928252, 0.1600000075995922, 0.11200000531971455, 1.008000047877431, 0.0, 0.0, 0.0, 0.0, 0.0, 1.6518358134130733E9, 0.0, 2022-05-06 12:16:53.413
87.0, -237.95861448068172, -168.75550570059568, -180.55489006079733, -181.415067050606, 0.1600000075995922, 0.11200000531971455, 1.008000047877431, 0.0, 0.0, 0.0, 0.0, 0.0, 1.6518358134140544E9, 0.0, 2022-05-06 12:16:53.414
87.0, -215.27612124942243, -95.21411297190934, -125.68307791091502, -153.8482644772157, 0.1600000075995922, 0.11200000531971455, 1.008000047877431, 0.0, 0.0, 0.0, 0.0, 0.0, 1.6518358134140544E9, 0.0, 2022-05-06 12:16:53.414
88.0, -183.58420902490616, -47.05542124249041, -87.61837616190314, -132.57197362929583, 0.1600000075995922, 0.11200000531971455, 1.008000047877431, 0.0, 0.0, 0.0, 0.0, 0.0, 1.6518358134430583E9, 0.0, 2022-05-06 12:16:53.443
88.0, -200.04724862985313, -109.642647000961, -130.27193515654653, -131.88757193740457, 0.1600000075995922, 0.11200000531971455, 1.008000047877431, 0.0, 0.0, 0.0, 0.0, 0.0, 1.6518358134430583E9, 0.0, 2022-05-06 12:16:53.443
89.0, -223.46650215238333, -157.12815673835576, -172.36076925788075, -177.16654070094228, 0.1600000075995922, 0.11200000531971455, 1.008000047877431, 0.0, 0.0, 0.0, 0.0, 0.0, 1.651835813444068E9, 0.0, 2022-05-06 12:16:53.444
89.0, -209.90188501309603, -86.54128497466445, -116.01543652545661, -153.24988048430532, 0.1600000075995922, 0.11200000531971455, 1.008000047877431, 0.0, 0.0, 0.0, 0.0, 0.0, 1.651835813444068E9, 0.0, 2022-05-06 12:16:53.444
90.0, -182.70907243527472, -48.79073482193053, -94.61198907904327, -143.75053459685296, 0.1600000075995922, 0.11200000531971455, 1.0240000486373901, 0.0, 0.0, 0.0, 0.0, 0.0, 1.6518358134449909E9, 0.0, 2022-05-06 12:16:53.444
90.0, -195.1292801881209, -109.63142730109394, -133.4695496186614, -151.7015619026497, 0.1600000075995922, 0.11200000531971455, 1.0240000486373901, 0.0, 0.0, 0.0, 0.0, 0.0, 1.6518358134449909E9, 0.0, 2022-05-06 12:16:53.444
91.0, -229.16610968485475, -148.39549034181982, -160.9690339928493, -156.43627524655312, 0.1600000075995922, 0.11200000531971455, 1.0240000486373901, 0.0, 0.0, 0.0, 0.0, 0.0, 1.6518358134459915E9, 0.0, 2022-05-06 12:16:53.445
91.0, -209.96172341238707, -79.73092715535313, -110.00167739670724, -140.04429374076426, 0.1600000075995922, 0.11200000531971455, 1.0240000486373901, 0.0, 0.0, 0.0, 0.0, 0.0, 1.6518358134459915E9, 0.0, 2022-05-06 12:16:53.445
92.0, -181.40010745078325, -39.56066173128784, -90.1914273314178, -123.07262774184346, 0.1600000075995922, 0.11200000531971455, 1.0240000486373901, 0.0, 0.0, 0.0, 0.0, 0.0, 1.6518358134700563E9, 0.0, 2022-05-06 12:16:53.470
92.0, -197.34704086184502, -108.61791441310197, -134.38208520784974, -155.42276235856116, 0.1600000075995922, 0.11200000531971455, 1.0240000486373901, 0.0, 0.0, 0.0, 0.0, 0.0, 1.6518358134700563E9, 0.0, 2022-05-06 12:16:53.470
93.0, -222.8494186596945, -149.2594072315842, -166.21237373072654, -159.9256019052118, 0.1600000075995922, 0.11200000531971455, 1.0240000486373901, 0.0, 0.0, 0.0, 0.0, 0.0, 1.6518358134710288E9, 0.0, 2022-05-06 12:16:53.471
93.0, -220.9196302825585, -92.58122340310365, -127.40343189053237, -162.16206207871437, 0.1600000075995922, 0.11200000531971455, 1.0240000486373901, 0.0, 0.0, 0.0, 0.0, 0.0, 1.6518358134710288E9, 0.0, 2022-05-06 12:16:53.471
94.0, -177.31613669916987, -36.89411306288093, -75.3702038070187, -124.19833762850612, 0.1600000075995922, 0.11200000531971455, 1.0240000486373901, 0.0, 0.0, 0.0, 0.0, 0.0, 1.6518358134719975E9, 0.0, 2022-05-06 12:16:53.471
94.0, -195.50701008364558, -95.11313567310572, -121.09796056523919, -130.20461695734411, 0.1600000075995922, 0.11200000531971455, 1.0240000486373901, 0.0, 0.0, 0.0, 0.0, 0.0, 1.6518358134719975E9, 0.0, 2022-05-06 12:16:53.471
95.0, -235.22848751302809, -156.97482084017247, -173.5313579440117, -182.85118863359094, 0.1600000075995922, 0.11200000531971455, 1.0240000486373901, 0.0, 0.0, 0.0, 0.0, 0.0, 1.651835813501074E9, 0.0, 2022-05-06 12:16:53.501
95.0, -221.4394763763994, -93.80043078865856, -127.74002288654447, -161.5561982858926, 0.1600000075995922, 0.11200000531971455, 1.0240000486373901, 0.0, 0.0, 0.0, 0.0, 0.0, 1.651835813501074E9, 0.0, 2022-05-06 12:16:53.501
96.0, -192.24581732228398, -45.282708663493395, -89.68654083739966, -138.62687165755779, 0.1600000075995922, 0.11200000531971455, 1.0240000486373901, 0.0, 0.0, 0.0, 0.0, 0.0, 1.651835813501995E9, 0.0, 2022-05-06 12:16:53.501
96.0, -201.0607615178451, -114.43719874415547, -139.71518254466355, -160.35569040011615, 0.1600000075995922, 0.11200000531971455, 1.0240000486373901, 0.0, 0.0, 0.0, 0.0, 0.0, 1.651835813501995E9, 0.0, 2022-05-06 12:16:53.501
97.0, -237.95487458072603, -157.95467462856323, -171.32855687011033, -177.00198510289192, 0.1600000075995922, 0.11200000531971455, 1.0240000486373901, 0.0, 0.0, 0.0, 0.0, 0.0, 1.651835813502992E9, 0.0, 2022-05-06 12:16:53.502
97.0, -206.27418205607682, -82.25535962544382, -114.22776434663683, -146.0692725693807, 0.1600000075995922, 0.11200000531971455, 1.0240000486373901, 0.0, 0.0, 0.0, 0.0, 0.0, 1.651835813502992E9, 0.0, 2022-05-06 12:16:53.502
98.0, -185.865547997877, -34.73245088849217, -85.27345888968557, -132.82628682628274, 0.1600000075995922, 0.11200000531971455, 1.0240000486373901, 0.0, 0.0, 0.0, 0.0, 0.0, 1.65183581350399E9, 0.0, 2022-05-06 12:16:53.503
98.0, -201.9097188077867, -107.88115412183106, -134.00809521228075, -153.8856634767726, 0.1600000075995922, 0.11200000531971455, 1.0240000486373901, 0.0, 0.0, 0.0, 0.0, 0.0, 1.65183581350399E9, 0.0, 2022-05-06 12:16:53.503
99.0, -233.23138093668967, -158.2576065249741, -175.99595201481134, -180.31927636358887, 0.1600000075995922, 0.11200000531971455, 1.0240000486373901, 0.0, 0.0, 0.0, 0.0, 0.0, 1.6518358135300505E9, 0.0, 2022-05-06 12:16:53.530
99.0, -210.11505931057036, -88.17936115525663, -116.84943421557546, -143.32792590186, 0.1600000075995922, 0.11200000531971455, 1.0240000486373901, 0.0, 0.0, 0.0, 0.0, 0.0, 1.6518358135300505E9, 0.0, 2022-05-06 12:16:53.530
100.0, -179.85552876908332, -34.870827186852694, -82.53211222216487, -121.2774757631123, 0.1600000075995922, 0.11200000531971455, 1.008000047877431, 0.0, 0.0, 0.0, 0.0, 0.0, 1.6518358135310004E9, 0.0, 2022-05-06 12:16:53.531
100.0, -212.0598072875291, -113.66303945332766, -136.8055403791368, -162.00872618053108, 0.1600000075995922, 0.11200000531971455, 1.008000047877431, 0.0, 0.0, 0.0, 0.0, 0.0, 1.6518358135310004E9, 0.0, 2022-05-06 12:16:53.531
0.0, -251.28761792276055, -169.82698703790084, -177.70882619451731, -165.84212363511324, 0.1600000075995922, 0.11200000531971455, 1.008000047877431, 0.0, 0.0, 0.0, 0.0, 0.0, 1.6518358135319977E9, 0.0, 2022-05-06 12:16:53.531
1.0, -232.93218894023448, -97.1008924995549, -131.206910145469, -152.4009231943637, 0.1600000075995922, 0.11200000531971455, 1.008000047877431, 0.0, 0.0, 0.0, 0.0, 0.0, 1.651835813558046E9, 0.0, 2022-05-06 12:16:53.558
1.0, -196.40458607301116, -50.37084255320951, -91.563970615156, -131.60333954077214, 0.1600000075995922, 0.11200000531971455, 1.008000047877431, 0.0, 0.0, 0.0, 0.0, 0.0, 1.651835813558046E9, 0.0, 2022-05-06 12:16:53.558
2.0, -213.20421667397022, -118.73621374322101, -134.1801306102425, -149.1098112333566, 0.1600000075995922, 0.11200000531971455, 1.008000047877431, 0.0, 0.0, 0.0, 0.0, 0.0, 1.6518358135910487E9, 0.0, 2022-05-06 12:16:53.591
2.0, -235.09385111462325, -158.7942821686156, -168.50119250360876, -160.83439759444445, 0.1600000075995922, 0.11200000531971455, 1.008000047877431, 0.0, 0.0, 0.0, 0.0, 0.0, 1.6518358135910487E9, 0.0, 2022-05-06 12:16:53.591
3.0, -227.31859910674393, -94.77467472711578, -119.09711408894509, -131.1358520463109, 0.1600000075995922, 0.11200000531971455, 1.008000047877431, 0.0, 0.0, 0.0, 0.0, 0.0, 1.6518358135920506E9, 0.0, 2022-05-06 12:16:53.592
3.0, -193.43884540814906, -38.676175391767174, -79.98898025229573, -103.40823377482593, 0.1600000075995922, 0.11200000531971455, 1.008000047877431, 0.0, 0.0, 0.0, 0.0, 0.0, 1.6518358135920506E9, 0.0, 2022-05-06 12:16:53.592
4.0, -207.14557874575257, -115.90136957680807, -138.79142725560814, -164.46958035137504, 0.1600000075995922, 0.11200000531971455, 1.008000047877431, 0.0, 0.0, 0.0, 0.0, 0.0, 1.6518358135930154E9, 0.0, 2022-05-06 12:16:53.593
4.0, -251.95332011487335, -168.78729485021904, -170.6778142778203, -165.81220443546772, 0.1600000075995922, 0.11200000531971455, 1.008000047877431, 0.0, 0.0, 0.0, 0.0, 0.0, 1.6518358135930154E9, 0.0, 2022-05-06 12:16:53.593
5.0, -230.71816816646606, -95.12996522290632, -125.57088091224432, -146.2600074671209, 0.1600000075995922, 0.11200000531971455, 1.008000047877431, 0.0, 0.0, 0.0, 0.0, 0.0, 1.6518358135939915E9, 0.0, 2022-05-06 12:16:53.593
5.0, -202.3921659020707, -54.00228541018441, -96.4146208576858, -144.33769888989627, 0.1600000075995922, 0.11200000531971455, 1.008000047877431, 0.0, 0.0, 0.0, 0.0, 0.0, 1.6518358135939915E9, 0.0, 2022-05-06 12:16:53.593
6.0, -217.67339712101966, -120.1124969269149, -137.4749824712053, -147.95044224709272, 0.1600000075995922, 0.11200000531971455, 1.008000047877431, 0.0, 0.0, 0.0, 0.0, 0.0, 1.6518358136050508E9, 0.0, 2022-05-06 12:16:53.605
6.0, -247.8543897634372, -163.3532202146016, -164.08811055589467, -157.49092703405768, 0.1600000075995922, 0.11200000531971455, 1.008000047877431, 0.0, 0.0, 0.0, 0.0, 0.0, 1.6518358136050508E9, 0.0, 2022-05-06 12:16:53.605
7.0, -235.5538588091731, -105.38103100145236, -135.85934569034725, -163.23541336599737, 0.1600000075995922, 0.11200000531971455, 1.008000047877431, 0.0, 0.0, 0.0, 0.0, 0.0, 1.6518358136060083E9, 0.0, 2022-05-06 12:16:53.606
7.0, -194.4224390964955, -50.12026925617829, -93.02253159787506, -139.35615214891732, 0.1600000075995922, 0.11200000531971455, 1.008000047877431, 0.0, 0.0, 0.0, 0.0, 0.0, 1.6518358136060083E9, 0.0, 2022-05-06 12:16:53.606
8.0, -225.30279303062707, -123.04831839213148, -142.04140031710267, -162.54353187419474, 0.1600000075995922, 0.11200000531971455, 1.008000047877431, 0.0, 0.0, 0.0, 0.0, 0.0, 1.6518358136070015E9, 0.0, 2022-05-06 12:16:53.607
8.0, -252.1590146124363, -173.3649323959835, -183.5655095251277, -180.5287107611075, 0.1600000075995922, 0.11200000531971455, 1.008000047877431, 0.0, 0.0, 0.0, 0.0, 0.0, 1.6518358136070015E9, 0.0, 2022-05-06 12:16:53.607
9.0, -233.13788343779743, -102.07121954066679, -134.318506908603, -154.6710424674675, 0.1600000075995922, 0.11200000531971455, 1.008000047877431, 0.0, 0.0, 0.0, 0.0, 0.0, 1.6518358136080189E9, 0.0, 2022-05-06 12:16:53.608
9.0, -200.82888772059232, -50.677514349576086, -89.9670333340764, -125.55218141246587, 0.1600000075995922, 0.11200000531971455, 1.008000047877431, 0.0, 0.0, 0.0, 0.0, 0.0, 1.6518358136080189E9, 0.0, 2022-05-06 12:16:53.608
10.0, -221.56663297489285, -121.80667160684243, -146.97432835865766, -159.35339721199125, 0.1600000075995922, 0.11200000531971455, 1.008000047877431, 0.0, 0.0, 0.0, 0.0, 0.0, 1.65183581364905E9, 0.0, 2022-05-06 12:16:53.649
10.0, -248.0451246611774, -164.70706399856135, -169.8961751870811, -156.83270464185625, 0.1600000075995922, 0.11200000531971455, 1.008000047877431, 0.0, 0.0, 0.0, 0.0, 0.0, 1.65183581364905E9, 0.0, 2022-05-06 12:16:53.649
11.0, -217.04135402850807, -91.71543656336144, -122.07033455371857, -138.86248535476625, 0.1600000075995922, 0.12800000607967377, 1.008000047877431, 0.0, 0.0, 0.0, 0.0, 0.0, 1.651835813649997E9, 0.0, 2022-05-06 12:16:53.649
11.0, -194.2017849991098, -49.559284262824804, -92.8579759998247, -126.36747960280627, 0.1600000075995922, 0.12800000607967377, 1.008000047877431, 0.0, 0.0, 0.0, 0.0, 0.0, 1.651835813649997E9, 0.0, 2022-05-06 12:16:53.649
12.0, -225.75906082522124, -119.67492863209918, -142.41913021262735, -159.02054611593485, 0.1600000075995922, 0.12800000607967377, 1.008000047877431, 0.0, 0.0, 0.0, 0.0, 0.0, 1.651835813665044E9, 0.0, 2022-05-06 12:16:53.665
12.0, -257.6678872471675, -174.22884928574786, -188.83876846265048, -195.0881412886083, 0.1600000075995922, 0.12800000607967377, 1.008000047877431, 0.0, 0.0, 0.0, 0.0, 0.0, 1.651835813665044E9, 0.0, 2022-05-06 12:16:53.665
13.0, -241.97526703309268, -115.36656388314441, -138.18930336274207, -162.73426677193493, 0.1600000075995922, 0.12800000607967377, 1.008000047877431, 0.0, 0.0, 0.0, 0.0, 0.0, 1.6518358136660535E9, 0.0, 2022-05-06 12:16:53.666
13.0, -192.22711782250553, -54.80636390065774, -92.65976130217314, -130.82544034998864, 0.1600000075995922, 0.12800000607967377, 1.008000047877431, 0.0, 0.0, 0.0, 0.0, 0.0, 1.6518358136660535E9, 0.0, 2022-05-06 12:16:53.666
14.0, -213.2864944729954, -118.39214294729754, -137.7330355681479, -146.87709095980972, 0.1600000075995922, 0.12800000607967377, 1.008000047877431, 0.0, 0.0, 0.0, 0.0, 0.0, 1.651835813666995E9, 0.0, 2022-05-06 12:16:53.666
14.0, -249.8552362397313, -164.8005614974536, -173.43038064520806, -164.36486315261573, 0.1600000075995922, 0.12800000607967377, 1.008000047877431, 0.0, 0.0, 0.0, 0.0, 0.0, 1.651835813666995E9, 0.0, 2022-05-06 12:16:53.666
15.0, -222.5913655627519, -92.06698715919629, -119.7590763811022, -140.60527873411775, 0.1600000075995922, 0.12800000607967377, 1.008000047877431, 0.0, 0.0, 0.0, 0.0, 0.0, 1.6518358136680205E9, 0.0, 2022-05-06 12:16:53.668
15.0, -201.74890310969204, -49.75375906052068, -95.18793367221951, -138.40621756017208, 0.1600000075995922, 0.12800000607967377, 1.008000047877431, 0.0, 0.0, 0.0, 0.0, 0.0, 1.6518358136680205E9, 0.0, 2022-05-06 12:16:53.668
16.0, -219.3301728013903, -113.66864930326119, -138.2117427624762, -156.98978043999523, 0.1600000075995922, 0.12800000607967377, 1.008000047877431, 0.0, 0.0, 0.0, 0.0, 0.0, 1.6518358136940458E9, 0.0, 2022-05-06 12:16:53.694
16.0, -243.8900958104059, -164.4639705014415, -173.69591354206204, -170.7152132773772, 0.1600000075995922, 0.12800000607967377, 1.008000047877431, 0.0, 0.0, 0.0, 0.0, 0.0, 1.6518358136940458E9, 0.0, 2022-05-06 12:16:53.694
17.0, -231.5521658565849, -100.48550195945427, -129.19484396930784, -148.37305094208568, 0.1600000075995922, 0.12800000607967377, 1.008000047877431, 0.0, 0.0, 0.0, 0.0, 0.0, 1.6518358136949985E9, 0.0, 2022-05-06 12:16:53.694
17.0, -197.92298545502126, -48.47471327567473, -86.90031537041068, -127.74002288654447, 0.1600000075995922, 0.12800000607967377, 1.008000047877431, 0.0, 0.0, 0.0, 0.0, 0.0, 1.6518358136949985E9, 0.0, 2022-05-06 12:16:53.694
18.0, -207.19793734513223, -109.9212695476599, -134.9542899010703, -143.2157289031893, 0.1600000075995922, 0.12800000607967377, 1.008000047877431, 0.0, 0.0, 0.0, 0.0, 0.0, 1.6518358136959944E9, 0.0, 2022-05-06 12:16:53.695
18.0, -242.5549515262246, -162.6875180224888, -173.88664843980223, -162.17328177858144, 0.1600000075995922, 0.12800000607967377, 1.008000047877431, 0.0, 0.0, 0.0, 0.0, 0.0, 1.6518358136959944E9, 0.0, 2022-05-06 12:16:53.695
19.0, -237.3303112881258, -109.07605215767398, -139.8049401436001, -160.77081929519773, 0.1600000075995922, 0.12800000607967377, 1.008000047877431, 0.0, 0.0, 0.0, 0.0, 0.0, 1.651835813708115E9, 0.0, 2022-05-06 12:16:53.708
19.0, -206.12084615789354, -50.0791303566657, -95.96583286300302, -137.8751517664641, 0.1600000075995922, 0.12800000607967377, 1.008000047877431, 0.0, 0.0, 0.0, 0.0, 0.0, 1.651835813708115E9, 0.0, 2022-05-06 12:16:53.708
20.0, -210.30953410826623, -113.84442460117862, -140.25746803823858, -149.05371273402125, 0.1600000075995922, 0.12800000607967377, 1.008000047877431, 0.0, 0.0, 0.0, 0.0, 0.0, 1.6518358137560515E9, 0.0, 2022-05-06 12:16:53.756
20.0, -235.01905311550945, -157.38059998536482, -174.3092571347952, -164.49949955102056, 0.1600000075995922, 0.12800000607967377, 1.008000047877431, 0.0, 0.0, 0.0, 0.0, 0.0, 1.6518358137560515E9, 0.0, 2022-05-06 12:16:53.756
21.0, -231.2567137600854, -98.8436858789064, -123.3531202385202, -138.94102325383574, 0.1600000075995922, 0.12800000607967377, 1.008000047877431, 0.0, 0.0, 0.0, 0.0, 0.0, 1.6518358137569933E9, 0.0, 2022-05-06 12:16:53.756
21.0, -202.23135020397604, -48.9683800698258, -89.64166203793138, -122.83327414467931, 0.1600000075995922, 0.12800000607967377, 1.008000047877431, 0.0, 0.0, 0.0, 0.0, 0.0, 1.6518358137569933E9, 0.0, 2022-05-06 12:16:53.756
22.0, -209.67001121584326, -101.60747194616124, -130.21583665721118, -154.91039606463164, 0.1600000075995922, 0.12800000607967377, 1.008000047877431, 0.0, 0.0, 0.0, 0.0, 0.0, 1.6518358137579873E9, 0.0, 2022-05-06 12:16:53.757
22.0, -240.64012274891138, -165.36902629071847, -176.37368191033602, -177.8659019926563, 0.1600000075995922, 0.12800000607967377, 1.008000047877431, 0.0, 0.0, 0.0, 0.0, 0.0, 1.6518358137579873E9, 0.0, 2022-05-06 12:16:53.757
23.0, -244.49221970327199, -116.82886476581916, -144.26664079073817, -161.6272563850507, 0.1600000075995922, 0.12800000607967377, 1.008000047877431, 0.0, 0.0, 0.0, 0.0, 0.0, 1.651835813758987E9, 0.0, 2022-05-06 12:16:53.758
23.0, -204.85302007291466, -58.16105416091159, -103.13896097801626, -143.60093859862536, 0.1600000075995922, 0.12800000607967377, 1.008000047877431, 0.0, 0.0, 0.0, 0.0, 0.0, 1.651835813758987E9, 0.0, 2022-05-06 12:16:53.758
24.0, -213.00226207636297, -114.23711409652606, -140.2125892387703, -156.57091164495796, 0.1600000075995922, 0.12800000607967377, 1.008000047877431, 0.0, 0.0, 0.0, 0.0, 0.0, 1.651835813769079E9, 0.0, 2022-05-06 12:16:53.769
24.0, -248.9688799502328, -171.6520582162775, -184.37706781551242, -174.74308552965522, 0.1600000075995922, 0.12800000607967377, 1.008000047877431, 0.0, 0.0, 0.0, 0.0, 0.0, 1.651835813769079E9, 0.0, 2022-05-06 12:16:53.769
25.0, -235.8867099052295, -104.31889941403642, -125.17819141689688, -135.04030760005116, 0.1600000075995922, 0.12800000607967377, 1.008000047877431, 0.0, 0.0, 0.0, 0.0, 0.0, 1.6518358137700243E9, 0.0, 2022-05-06 12:16:53.770
25.0, -186.16847989428788, -40.45262787071988, -81.69063473213464, -120.4995765723288, 0.1600000075995922, 0.12800000607967377, 1.008000047877431, 0.0, 0.0, 0.0, 0.0, 0.0, 1.6518358137700243E9, 0.0, 2022-05-06 12:16:53.770
26.0, -222.7372216610238, -117.30383206019178, -140.96804902981967, -149.80169272515923, 0.1600000075995922, 0.12800000607967377, 1.008000047877431, 0.0, 0.0, 0.0, 0.0, 0.0, 1.651835813784053E9, 0.0, 2022-05-06 12:16:53.784
26.0, -248.31813735794276, -167.23149646865204, -182.89232753310353, -173.58745644334704, 0.1600000075995922, 0.12800000607967377, 1.008000047877431, 0.0, 0.0, 0.0, 0.0, 0.0, 1.651835813784053E9, 0.0, 2022-05-06 12:16:53.784
27.0, -229.49896078091115, -104.13938421616331, -133.46206981875002, -149.98868772294372, 0.1600000075995922, 0.12800000607967377, 1.008000047877431, 0.0, 0.0, 0.0, 0.0, 0.0, 1.651835813785016E9, 0.0, 2022-05-06 12:16:53.785
27.0, -200.2753825271502, -48.680407773237675, -88.6730279494077, -128.92183127254248, 0.1600000075995922, 0.12800000607967377, 1.008000047877431, 0.0, 0.0, 0.0, 0.0, 0.0, 1.651835813785016E9, 0.0, 2022-05-06 12:16:53.785
28.0, -215.2125429501757, -113.57889170432463, -139.81615984346718, -157.6330432323739, 0.1600000075995922, 0.12800000607967377, 1.008000047877431, 0.0, 0.0, 0.0, 0.0, 0.0, 1.6518358138140748E9, 0.0, 2022-05-06 12:16:53.814
28.0, -247.54397806711495, -168.41330485465005, -178.4231470860541, -174.17836063634604, 0.1600000075995922, 0.12800000607967377, 1.008000047877431, 0.0, 0.0, 0.0, 0.0, 0.0, 1.6518358138140748E9, 0.0, 2022-05-06 12:16:53.814
29.0, -234.89563641697168, -107.24350117938593, -135.3208000967279, -151.53326640464365, 0.1600000075995922, 0.12800000607967377, 1.008000047877431, 0.0, 0.0, 0.0, 0.0, 0.0, 1.6518358138149855E9, 0.0, 2022-05-06 12:16:53.814
29.0, -190.29732944536954, -44.671235020738095, -85.64370898529887, -114.39979974459857, 0.1600000075995922, 0.12800000607967377, 1.008000047877431, 0.0, 0.0, 0.0, 0.0, 0.0, 1.6518358138149855E9, 0.0, 2022-05-06 12:16:53.814
30.0, -190.06171574816108, -99.04938037646934, -118.74556349311024, -121.17649846430868, 0.1600000075995922, 0.12800000607967377, 1.0240000486373901, 0.0, 0.0, 0.0, 0.0, 0.0, 1.6518358138160107E9, 0.0, 2022-05-06 12:16:53.816
30.0, -249.35782954562455, -163.41679851384833, -179.40300087444484, -166.95287392195314, 0.1600000075995922, 0.12800000607967377, 1.0240000486373901, 0.0, 0.0, 0.0, 0.0, 0.0, 1.6518358138160107E9, 0.0, 2022-05-06 12:16:53.816
31.0, -233.73252753075212, -109.75671394960955, -141.61131182219833, -172.91427445132285, 0.1600000075995922, 0.11200000531971455, 1.0240000486373901, 0.0, 0.0, 0.0, 0.0, 0.0, 1.6518358138280387E9, 0.0, 2022-05-06 12:16:53.828
31.0, -200.23050372768193, -60.98093872750178, -97.17756044864655, -143.52988049946725, 0.1600000075995922, 0.11200000531971455, 1.0240000486373901, 0.0, 0.0, 0.0, 0.0, 0.0, 1.6518358138280387E9, 0.0, 2022-05-06 12:16:53.828
32.0, -218.05860681645572, -115.53859928110614, -139.1018389519304, -153.67622907925397, 0.1600000075995922, 0.11200000531971455, 1.0240000486373901, 0.0, 0.0, 0.0, 0.0, 0.0, 1.651835813876048E9, 0.0, 2022-05-06 12:16:53.876
32.0, -246.10785648413002, -167.0258019710891, -182.54451683722436, -177.25255839992315, 0.1600000075995922, 0.11200000531971455, 1.0240000486373901, 0.0, 0.0, 0.0, 0.0, 0.0, 1.651835813876048E9, 0.0, 2022-05-06 12:16:53.876
33.0, -232.28892614785582, -109.49118105275556, -133.35361272003502, -154.26713327225298, 0.1600000075995922, 0.11200000531971455, 1.0240000486373901, 0.0, 0.0, 0.0, 0.0, 0.0, 1.651835813876989E9, 0.0, 2022-05-06 12:16:53.876
33.0, -187.3876872798428, -45.34441701276228, -85.34451698884368, -118.59222759492695, 0.1600000075995922, 0.11200000531971455, 1.0240000486373901, 0.0, 0.0, 0.0, 0.0, 0.0, 1.651835813876989E9, 0.0, 2022-05-06 12:16:53.876
34.0, -202.45948410127312, -101.18486325116828, -122.27228915132582, -132.71034992765635, 0.1600000075995922, 0.11200000531971455, 1.0240000486373901, 0.0, 0.0, 0.0, 0.0, 0.0, 1.6518358138780153E9, 0.0, 2022-05-06 12:16:53.878
34.0, -231.49980725720525, -157.81068848026916, -168.6732279015705, -159.28233911283314, 0.1600000075995922, 0.11200000531971455, 1.0240000486373901, 0.0, 0.0, 0.0, 0.0, 0.0, 1.6518358138780153E9, 0.0, 2022-05-06 12:16:53.878
35.0, -226.98200811073184, -100.65005755750462, -125.98226990737021, -142.68092320952564, 0.1600000075995922, 0.11200000531971455, 1.0240000486373901, 0.0, 0.0, 0.0, 0.0, 0.0, 1.6518358138790157E9, 0.0, 2022-05-06 12:16:53.879
35.0, -180.10236216615885, -39.51391298184171, -81.76169283129275, -117.54505560733378, 0.1600000075995922, 0.11200000531971455, 1.0240000486373901, 0.0, 0.0, 0.0, 0.0, 0.0, 1.6518358138790157E9, 0.0, 2022-05-06 12:16:53.879
36.0, -214.38976495992392, -103.98978821793571, -132.5046554300934, -141.2859405260533, 0.1600000075995922, 0.11200000531971455, 1.0240000486373901, 0.0, 0.0, 0.0, 0.0, 0.0, 1.6518358138890467E9, 0.0, 2022-05-06 12:16:53.889
36.0, -252.12909541279078, -167.48580966563895, -180.1622005654499, -182.22288544103503, 0.1600000075995922, 0.11200000531971455, 1.0240000486373901, 0.0, 0.0, 0.0, 0.0, 0.0, 1.6518358138890467E9, 0.0, 2022-05-06 12:16:53.889
37.0, -223.1112116565928, -102.73692173277959, -127.71384358685464, -146.5853787632659, 0.1600000075995922, 0.11200000531971455, 1.0240000486373901, 0.0, 0.0, 0.0, 0.0, 0.0, 1.6518358138900323E9, 0.0, 2022-05-06 12:16:53.890
37.0, -194.04096930101514, -39.095044186804444, -82.7415466196835, -116.6100806184113, 0.1600000075995922, 0.11200000531971455, 1.0240000486373901, 0.0, 0.0, 0.0, 0.0, 0.0, 1.6518358138900323E9, 0.0, 2022-05-06 12:16:53.890
38.0, -204.20227748062462, -107.76708717318252, -134.18387051019818, -145.45966887660325, 0.1600000075995922, 0.11200000531971455, 1.0240000486373901, 0.0, 0.0, 0.0, 0.0, 0.0, 1.651835813904056E9, 0.0, 2022-05-06 12:16:53.904
38.0, -242.01640593260527, -169.909264836926, -178.20249298866838, -174.8590224282816, 0.1600000075995922, 0.11200000531971455, 1.0240000486373901, 0.0, 0.0, 0.0, 0.0, 0.0, 1.651835813904056E9, 0.0, 2022-05-06 12:16:53.904
39.0, -237.68560178391635, -114.2558135963045, -128.52540187723935, -141.4392764242366, 0.1600000075995922, 0.11200000531971455, 1.0240000486373901, 0.0, 0.0, 0.0, 0.0, 0.0, 1.6518358139050522E9, 0.0, 2022-05-06 12:16:53.905
39.0, -188.06086927186698, -37.36721040727571, -74.77929961401969, -93.18334729596972, 0.1600000075995922, 0.11200000531971455, 1.0240000486373901, 0.0, 0.0, 0.0, 0.0, 0.0, 1.6518358139050522E9, 0.0, 2022-05-06 12:16:53.905
40.0, -212.86762567795813, -108.3654711660929, -140.9979682294652, -165.8533433349803, 0.1600000075995922, 0.11200000531971455, 1.0240000486373901, 0.0, 0.0, 0.0, 0.0, 0.0, 1.651835813935052E9, 0.0, 2022-05-06 12:16:53.935
40.0, -255.2369522759691, -175.6574910688214, -185.95530559681356, -186.44149259105325, 0.1600000075995922, 0.11200000531971455, 1.0240000486373901, 0.0, 0.0, 0.0, 0.0, 0.0, 1.651835813935052E9, 0.0, 2022-05-06 12:16:53.935
41.0, -237.90251598134637, -114.78687939001247, -139.7301421444863, -163.68794126063585, 0.1600000075995922, 0.11200000531971455, 1.0240000486373901, 0.0, 0.0, 0.0, 0.0, 0.0, 1.651835813935986E9, 0.0, 2022-05-06 12:16:53.935
41.0, -197.52655605971813, -51.055244245100766, -92.0426778094843, -132.26530183292925, 0.1600000075995922, 0.11200000531971455, 1.0240000486373901, 0.0, 0.0, 0.0, 0.0, 0.0, 1.651835813935986E9, 0.0, 2022-05-06 12:16:53.935
42.0, -205.15595196932554, -100.2162291626446, -128.2112502809614, -143.3316658018157, 0.1600000075995922, 0.11200000531971455, 1.0240000486373901, 0.0, 0.0, 0.0, 0.0, 0.0, 1.651835813936997E9, 0.0, 2022-05-06 12:16:53.936
42.0, -235.8941897051409, -159.02615596586838, -169.1220158962533, -154.4803075697273, 0.1600000075995922, 0.11200000531971455, 1.0240000486373901, 0.0, 0.0, 0.0, 0.0, 0.0, 1.651835813936997E9, 0.0, 2022-05-06 12:16:53.936
43.0, -229.39050368219614, -107.70724877389148, -131.7716350387782, -149.72315482608974, 0.1600000075995922, 0.11200000531971455, 1.0240000486373901, 0.0, 0.0, 0.0, 0.0, 0.0, 1.6518358139480343E9, 0.0, 2022-05-06 12:16:53.948
43.0, -193.52486310712993, -48.702847172971815, -83.99067320488393, -133.81736031454057, 0.1600000075995922, 0.11200000531971455, 1.0240000486373901, 0.0, 0.0, 0.0, 0.0, 0.0, 1.6518358139480343E9, 0.0, 2022-05-06 12:16:53.948
44.0, -210.01408201176673, -113.87808370077983, -136.94017677754164, -151.06203901022673, 0.1600000075995922, 0.11200000531971455, 1.0240000486373901, 0.0, 0.0, 0.0, 0.0, 0.0, 1.6518358139630554E9, 0.0, 2022-05-06 12:16:53.963
44.0, -246.75859907642007, -173.94087698915973, -181.47116554994136, -171.863362563774, 0.1600000075995922, 0.11200000531971455, 1.0240000486373901, 0.0, 0.0, 0.0, 0.0, 0.0, 1.6518358139630554E9, 0.0, 2022-05-06 12:16:53.963
45.0, -231.88127705268562, -112.7374142142944, -140.04429374076426, -150.16446302086115, 0.1600000075995922, 0.11200000531971455, 1.0240000486373901, 0.0, 0.0, 0.0, 0.0, 0.0, 1.6518358139640105E9, 0.0, 2022-05-06 12:16:53.964
45.0, -196.10913397651166, -56.53793758014217, -93.90140808746219, -133.8435396142304, 0.1600000075995922, 0.11200000531971455, 1.0240000486373901, 0.0, 0.0, 0.0, 0.0, 0.0, 1.6518358139640105E9, 0.0, 2022-05-06 12:16:53.964
46.0, -197.4966368600726, -99.23263547429815, -120.46965737268329, -128.69743727520108, 0.1600000075995922, 0.11200000531971455, 1.0240000486373901, 0.0, 0.0, 0.0, 0.0, 0.0, 1.651835814024054E9, 0.0, 2022-05-06 12:16:54.024
46.0, -227.30737940687686, -156.34090779768303, -168.7891648001969, -167.7419928126037, 0.1600000075995922, 0.11200000531971455, 1.0240000486373901, 0.0, 0.0, 0.0, 0.0, 0.0, 1.651835814024054E9, 0.0, 2022-05-06 12:16:54.024
47.0, -233.37723703496158, -107.46789517672732, -128.30474777985364, -146.74245456140488, 0.1600000075995922, 0.11200000531971455, 1.0240000486373901, 0.0, 0.0, 0.0, 0.0, 0.0, 1.6518358140860865E9, 0.0, 2022-05-06 12:16:54.086
47.0, -190.98547103721648, -40.9275951650925, -82.87618301808834, -121.41585206147283, 0.1600000075995922, 0.11200000531971455, 1.0240000486373901, 0.0, 0.0, 0.0, 0.0, 0.0, 1.6518358140860865E9, 0.0, 2022-05-06 12:16:54.086
48.0, -197.69485155772418, -99.53182747075334, -121.14657926466316, -137.22066927421838, 0.1600000075995922, 0.11200000531971455, 1.0240000486373901, 0.0, 0.0, 0.0, 0.0, 0.0, 1.6518358140870304E9, 0.0, 2022-05-06 12:16:54.087
48.0, -234.02797962725163, -158.55118867149577, -176.32880311086774, -164.10307015571743, 0.1600000075995922, 0.11200000531971455, 1.0240000486373901, 0.0, 0.0, 0.0, 0.0, 0.0, 1.6518358140870304E9, 0.0, 2022-05-06 12:16:54.087
49.0, -229.86173107661307, -108.50758736440912, -131.26300864480436, -146.80229296069592, 0.1600000075995922, 0.11200000531971455, 1.0240000486373901, 0.0, 0.0, 0.0, 0.0, 0.0, 1.6518358140880585E9, 0.0, 2022-05-06 12:16:54.088
49.0, -200.49603662453592, -43.889595929998904, -83.87099640630186, -117.55253540724516, 0.1600000075995922, 0.11200000531971455, 1.0240000486373901, 0.0, 0.0, 0.0, 0.0, 0.0, 1.6518358140880585E9, 0.0, 2022-05-06 12:16:54.088
50.0, -214.44960335921496, -106.1439705924131, -131.71179663948715, -155.04503246303648, 0.1600000075995922, 0.11200000531971455, 1.0240000486373901, 0.0, 0.0, 0.0, 0.0, 0.0, 1.6518358140889893E9, 0.0, 2022-05-06 12:16:54.088
50.0, -242.30811812914908, -164.07876080600545, -173.2695649471134, -163.39248916413635, 0.1600000075995922, 0.11200000531971455, 1.0240000486373901, 0.0, 0.0, 0.0, 0.0, 0.0, 1.6518358140889893E9, 0.0, 2022-05-06 12:16:54.088
51.0, -230.9986606631428, -113.94166200002655, -138.3575988607481, -156.20440144930035, 0.1600000075995922, 0.12800000607967377, 1.0240000486373901, 0.0, 0.0, 0.0, 0.0, 0.0, 1.6518358141290681E9, 0.0, 2022-05-06 12:16:54.129
51.0, -190.0916349478066, -40.75929966708645, -85.41557508800179, -123.6859713345766, 0.1600000075995922, 0.12800000607967377, 1.0240000486373901, 0.0, 0.0, 0.0, 0.0, 0.0, 1.6518358141290681E9, 0.0, 2022-05-06 12:16:54.129
52.0, -211.90273148939013, -107.94286247109994, -130.8030009502545, -152.87589048873633, 0.144000006839633, 0.12800000607967377, 1.0240000486373901, 0.0, 0.0, 0.0, 0.0, 0.0, 1.651835814146096E9, 0.0, 2022-05-06 12:16:54.146
52.0, -235.43792191054672, -162.93809131952003, -176.07448991388083, -171.45945336855948, 0.144000006839633, 0.12800000607967377, 1.0240000486373901, 0.0, 0.0, 0.0, 0.0, 0.0, 1.651835814146096E9, 0.0, 2022-05-06 12:16:54.146
53.0, -230.54613276850432, -113.51157350512221, -136.5811463817954, -145.96455537062138, 0.144000006839633, 0.12800000607967377, 1.0240000486373901, 0.0, 0.0, 0.0, 0.0, 0.0, 1.6518358141470268E9, 0.0, 2022-05-06 12:16:54.147
53.0, -193.6520197056234, -43.1864947383292, -83.8560368064791, -119.09711408894509, 0.144000006839633, 0.12800000607967377, 1.0240000486373901, 0.0, 0.0, 0.0, 0.0, 0.0, 1.6518358141470268E9, 0.0, 2022-05-06 12:16:54.147
58.0, -199.11975344084203, -92.69529035175219, -122.58644074760377, -148.23467464372516, 0.144000006839633, 0.12800000607967377, 1.0240000486373901, 0.0, 0.0, 0.0, 0.0, 0.0, 1.651835814147997E9, 0.0, 2022-05-06 12:16:54.147
58.0, -236.43273529876024, -156.44188509648666, -169.84755648765713, -173.419160945341, 0.144000006839633, 0.12800000607967377, 1.0240000486373901, 0.0, 0.0, 0.0, 0.0, 0.0, 1.651835814147997E9, 0.0, 2022-05-06 12:16:54.147
59.0, -226.9221697114408, -105.47078860038891, -131.26300864480436, -156.69058844354004, 0.144000006839633, 0.12800000607967377, 1.0240000486373901, 0.0, 0.0, 0.0, 0.0, 0.0, 1.6518358141490543E9, 0.0, 2022-05-06 12:16:54.149
59.0, -186.1983990939334, -38.51535969367251, -81.18200833816081, -125.71299711056054, 0.144000006839633, 0.12800000607967377, 1.0240000486373901, 0.0, 0.0, 0.0, 0.0, 0.0, 1.6518358141490543E9, 0.0, 2022-05-06 12:16:54.149
60.0, -189.55308935418725, -89.5425546891056, -121.21763736382127, -153.21248148474842, 0.144000006839633, 0.12800000607967377, 1.008000047877431, 0.0, 0.0, 0.0, 0.0, 0.0, 1.6518358141610456E9, 0.0, 2022-05-06 12:16:54.161
60.0, -227.76364720147103, -158.8765599676408, -172.17003436014056, -178.0828161900863, 0.144000006839633, 0.12800000607967377, 1.008000047877431, 0.0, 0.0, 0.0, 0.0, 0.0, 1.6518358141610456E9, 0.0, 2022-05-06 12:16:54.161
61.0, -227.62153100315481, -106.58153888722882, -134.101592711173, -148.00280084647238, 0.144000006839633, 0.12800000607967377, 1.008000047877431, 0.0, 0.0, 0.0, 0.0, 0.0, 1.6518358141620111E9, 0.0, 2022-05-06 12:16:54.162
61.0, -196.07547487691045, -44.45432082330808, -87.39772206451744, -124.01508253067732, 0.144000006839633, 0.12800000607967377, 1.008000047877431, 0.0, 0.0, 0.0, 0.0, 0.0, 1.6518358141620111E9, 0.0, 2022-05-06 12:16:54.162
63.0, -191.7970293276012, 7.556467860471457, -53.97797606047243, -106.43007293902338, 0.144000006839633, 0.12800000607967377, 1.008000047877431, 0.0, 0.0, 0.0, 0.0, 0.0, 1.6518358141629968E9, 0.0, 2022-05-06 12:16:54.162
63.0, -161.19716789014637, 76.4229856445454, -4.543978446163237, -91.98283941019326, 0.144000006839633, 0.12800000607967377, 1.008000047877431, 0.0, 0.0, 0.0, 0.0, 0.0, 1.6518358141629968E9, 0.0, 2022-05-06 12:16:54.162
64.0, -169.42120789270848, 21.697029592934996, -44.822700968943536, -104.88923415727913, 0.144000006839633, 0.12800000607967377, 1.008000047877431, 0.0, 0.0, 0.0, 0.0, 0.0, 1.651835814164E9, 0.0, 2022-05-06 12:16:54.164
64.0, -200.7615695213899, -44.85823001852259, -91.13388212025166, -127.21269699279219, 0.144000006839633, 0.12800000607967377, 1.008000047877431, 0.0, 0.0, 0.0, 0.0, 0.0, 1.651835814164E9, 0.0, 2022-05-06 12:16:54.164
65.0, -200.97100391890854, -0.686271641869098, -61.85794526711106, -124.83412062097341, 0.144000006839633, 0.12800000607967377, 1.008000047877431, 0.0, 0.0, 0.0, 0.0, 0.0, 1.6518358141880755E9, 0.0, 2022-05-06 12:16:54.188
65.0, -158.97566731646657, 61.201592824887484, -15.928233911283314, -95.00093867443502, 0.144000006839633, 0.12800000607967377, 1.008000047877431, 0.0, 0.0, 0.0, 0.0, 0.0, 1.6518358141880755E9, 0.0, 2022-05-06 12:16:54.188
66.0, -169.5633240910247, 14.048934183549136, -50.7654019985348, -102.09552889037877, 0.144000006839633, 0.12800000607967377, 1.008000047877431, 0.0, 0.0, 0.0, 0.0, 0.0, 1.6518358142050853E9, 0.0, 2022-05-06 12:16:54.205
66.0, -209.53537481743842, -45.512712510768324, -97.05040385015309, -126.66293169930577, 0.144000006839633, 0.12800000607967377, 1.008000047877431, 0.0, 0.0, 0.0, 0.0, 0.0, 1.6518358142050853E9, 0.0, 2022-05-06 12:16:54.205
67.0, -208.1740512335673, -4.381292798090726, -62.02624076511711, -119.24671008717269, 0.144000006839633, 0.12800000607967377, 1.008000047877431, 0.0, 0.0, 0.0, 0.0, 0.0, 1.6518358142059896E9, 0.0, 2022-05-06 12:16:54.205
67.0, -180.14350106567144, 62.0842092144303, -19.574636368080974, -106.31787594035268, 0.144000006839633, 0.12800000607967377, 1.008000047877431, 0.0, 0.0, 0.0, 0.0, 0.0, 1.6518358142059896E9, 0.0, 2022-05-06 12:16:54.205
68.0, -177.58540949597955, 8.936490944121033, -50.59710650052875, -113.719137952663, 0.144000006839633, 0.12800000607967377, 1.008000047877431, 0.0, 0.0, 0.0, 0.0, 0.0, 1.6518358142069814E9, 0.0, 2022-05-06 12:16:54.206
68.0, -208.74251602683216, -51.507772139739245, -92.21471320744604, -120.64543267060071, 0.144000006839633, 0.12800000607967377, 1.008000047877431, 0.0, 0.0, 0.0, 0.0, 0.0, 1.6518358142069814E9, 0.0, 2022-05-06 12:16:54.206
69.0, -197.96412435453385, 7.6649249591864645, -45.06953436601907, -82.27779902517796, 0.144000006839633, 0.12800000607967377, 1.008000047877431, 0.0, 0.0, 0.0, 0.0, 0.0, 1.6518358142080166E9, 0.0, 2022-05-06 12:16:54.208
69.0, -165.65512863732874, 69.37327422806993, -20.8611619528383, -113.28904945775867, 0.144000006839633, 0.12800000607967377, 1.008000047877431, 0.0, 0.0, 0.0, 0.0, 0.0, 1.6518358142080166E9, 0.0, 2022-05-06 12:16:54.208
70.0, -167.57743721455336, 16.26295495731756, -45.626779459416866, -121.13909946475178, 0.144000006839633, 0.12800000607967377, 1.008000047877431, 0.0, 0.0, 0.0, 0.0, 0.0, 1.6518358142181072E9, 0.0, 2022-05-06 12:16:54.218
70.0, -217.46396272350103, -60.10206223791465, -100.28541731182486, -144.63689088635147, 0.144000006839633, 0.12800000607967377, 1.008000047877431, 0.0, 0.0, 0.0, 0.0, 0.0, 1.6518358142181072E9, 0.0, 2022-05-06 12:16:54.218
71.0, -209.94302391260862, -0.19634474767372012, -59.49806839507073, -114.44093864411116, 0.144000006839633, 0.12800000607967377, 1.008000047877431, 0.0, 0.0, 0.0, 0.0, 0.0, 1.6518358142660575E9, 0.0, 2022-05-06 12:16:54.266
71.0, -152.2214079964906, 80.69021149398759, -0.5273258937522769, -78.2237474732101, 0.144000006839633, 0.12800000607967377, 1.008000047877431, 0.0, 0.0, 0.0, 0.0, 0.0, 1.6518358142660575E9, 0.0, 2022-05-06 12:16:54.266
72.0, -165.5204922389239, 24.38601766107604, -44.052281578071415, -103.33717567566782, 0.1600000075995922, 0.12800000607967377, 1.008000047877431, 0.0, 0.0, 0.0, 0.0, 0.0, 1.6518358142669957E9, 0.0, 2022-05-06 12:16:54.266
72.0, -217.08997272793204, -51.43671404058114, -101.3438089992851, -140.05925334058702, 0.1600000075995922, 0.12800000607967377, 1.008000047877431, 0.0, 0.0, 0.0, 0.0, 0.0, 1.6518358142669957E9, 0.0, 2022-05-06 12:16:54.266
