%OpenBCI Raw EEG Data
%Number of channels = 4
%Sample Rate = 200 Hz
%Board = OpenBCI_GUI$BoardGanglionBLE
Sample Index, EXG Channel 0, EXG Channel 1, EXG Channel 2, EXG Channel 3, Accel Channel 0, Accel Channel 1, Accel Channel 2, Other, Other, Other, Other, Other, Timestamp, Other, Timestamp (Formatted)
0.0, -261.22079220507294, -146.83595206029713, -160.1668254523538, -177.92948029190302, 0.0, 0.0, 0.0, 0.0, 0.0, 0.0, 0.0, 0.0, 1.6518358774920473E9, 0.0, 2022-05-06 12:17:57.492
1.0, -189.3099958570674, -37.56355515494943, -73.01219688495621, -125.54470161255449, 0.0, 0.12800000607967377, 0.0, 0.0, 0.0, 0.0, 0.0, 0.0, 1.6518358775040717E9, 0.0, 2022-05-06 12:17:57.504
1.0, -183.72632522322237, -69.96230847109109, -108.33555196644738, -127.71384358685464, 0.0, 0.12800000607967377, 0.0, 0.0, 0.0, 0.0, 0.0, 0.0, 1.6518358775040717E9, 0.0, 2022-05-06 12:17:57.504
2.0, -253.87562869209796, -186.39287389162928, -199.45821438683197, -179.10380887798965, 0.1600000075995922, 0.12800000607967377, 0.0, 0.0, 0.0, 0.0, 0.0, 0.0, 1.6518358775208573E9, 0.0, 2022-05-06 12:17:57.520
2.0, -256.54591726046056, -149.6221775272861, -157.63491318235174, -174.0138050382957, 0.1600000075995922, 0.12800000607967377, 0.0, 0.0, 0.0, 0.0, 0.0, 0.0, 1.6518358775208573E9, 0.0, 2022-05-06 12:17:57.520
3.0, -189.41097315587103, -33.46836470346898, -69.99783752067015, -122.90059234388173, 0.1600000075995922, 0.12800000607967377, 0.0, 0.0, 0.0, 0.0, 0.0, 0.0, 1.6518358775218568E9, 0.0, 2022-05-06 12:17:57.521
3.0, -194.32146179769188, -78.41074247099459, -117.01959966355935, -134.51672160625458, 0.1600000075995922, 0.12800000607967377, 0.0, 0.0, 0.0, 0.0, 0.0, 0.0, 1.6518358775218568E9, 0.0, 2022-05-06 12:17:57.521
4.0, -254.66848748270422, -183.11672153044492, -195.28074613632634, -177.9706191914156, 0.1600000075995922, 0.12800000607967377, 0.0, 0.0, 0.0, 0.0, 0.0, 0.0, 1.6518358775338907E9, 0.0, 2022-05-06 12:17:57.533
4.0, -247.34950326941907, -144.03850689344108, -143.8608616455458, -153.75850687827915, 0.1600000075995922, 0.12800000607967377, 0.0, 0.0, 0.0, 0.0, 0.0, 0.0, 1.6518358775338907E9, 0.0, 2022-05-06 12:17:57.533
5.0, -196.6439396701753, -39.04081563744694, -77.45519803231582, -131.03113484755158, 0.1600000075995922, 0.12800000607967377, 0.0, 0.0, 0.0, 0.0, 0.0, 0.0, 1.6518358775499053E9, 0.0, 2022-05-06 12:17:57.549
5.0, -201.82744100876153, -86.94893406983465, -127.06871084449813, -150.04104632232338, 0.1600000075995922, 0.12800000607967377, 0.0, 0.0, 0.0, 0.0, 0.0, 0.0, 1.6518358775499053E9, 0.0, 2022-05-06 12:17:57.549
6.0, -259.47425892576575, -186.69206588808447, -204.29390502953902, -190.73489774018526, 0.1600000075995922, 0.12800000607967377, 0.0, 0.0, 0.0, 0.0, 0.0, 0.0, 1.6518358775509076E9, 0.0, 2022-05-06 12:17:57.550
6.0, -259.47051902581006, -151.39863000623882, -164.63226599944755, -180.14350106567144, 0.1600000075995922, 0.12800000607967377, 0.0, 0.0, 0.0, 0.0, 0.0, 0.0, 1.6518358775509076E9, 0.0, 2022-05-06 12:17:57.550
7.0, -182.92224673274904, -29.73968444764614, -63.04162360308692, -101.09323570225388, 0.1600000075995922, 0.12800000607967377, 0.0, 0.0, 0.0, 0.0, 0.0, 0.0, 1.651835877579918E9, 0.0, 2022-05-06 12:17:57.579
7.0, -187.50362417846918, -71.39843005407602, -115.66949577955529, -133.9893957125023, 0.1600000075995922, 0.12800000607967377, 0.0, 0.0, 0.0, 0.0, 0.0, 0.0, 1.651835877579918E9, 0.0, 2022-05-06 12:17:57.579
8.0, -243.73302001226693, -178.44184658583254, -186.31246604258195, -149.79421292524785, 0.1600000075995922, 0.12800000607967377, 0.0, 0.0, 0.0, 0.0, 0.0, 0.0, 1.6518358775809145E9, 0.0, 2022-05-06 12:17:57.580
8.0, -266.5426698420197, -159.50299321021885, -177.16093085100874, -198.56998814735562, 0.1600000075995922, 0.12800000607967377, 0.0, 0.0, 0.0, 0.0, 0.0, 0.0, 1.6518358775809145E9, 0.0, 2022-05-06 12:17:57.580
9.0, -204.22471688035876, -45.54824156034738, -86.79372822167352, -157.02717943955213, 0.1600000075995922, 0.12800000607967377, 0.0, 0.0, 0.0, 0.0, 0.0, 0.0, 1.65183587758185E9, 0.0, 2022-05-06 12:17:57.581
9.0, -196.056775377132, -86.12241617962718, -126.42170815216377, -150.95358191151172, 0.1600000075995922, 0.12800000607967377, 0.0, 0.0, 0.0, 0.0, 0.0, 0.0, 1.65183587758185E9, 0.0, 2022-05-06 12:17:57.581
10.0, -245.0457248967141, -196.63645987026393, -212.54412433179095, -191.40433983225375, 0.1600000075995922, 0.12800000607967377, 1.008000047877431, 0.0, 0.0, 0.0, 0.0, 0.0, 1.651835877593904E9, 0.0, 2022-05-06 12:17:57.593
10.0, -264.343608668074, -150.83016521297395, -161.82734103268012, -178.5316041847691, 0.1600000075995922, 0.12800000607967377, 1.008000047877431, 0.0, 0.0, 0.0, 0.0, 0.0, 1.651835877593904E9, 0.0, 2022-05-06 12:17:57.593
11.0, -202.01069610659033, -51.40492489095777, -84.01872245455161, -132.86368582583964, 0.1600000075995922, 0.06400000303983688, 1.008000047877431, 0.0, 0.0, 0.0, 0.0, 0.0, 1.6518358776099012E9, 0.0, 2022-05-06 12:17:57.609
11.0, -212.5833932813257, -92.56626380328089, -124.21516717830673, -139.7750209439546, 0.1600000075995922, 0.06400000303983688, 1.008000047877431, 0.0, 0.0, 0.0, 0.0, 0.0, 1.6518358776099012E9, 0.0, 2022-05-06 12:17:57.609
12.0, -241.9640473332256, -171.96059996262193, -191.8175987773575, -170.81245067622513, 0.0800000037997961, 0.06400000303983688, 1.008000047877431, 0.0, 0.0, 0.0, 0.0, 0.0, 1.651835877610845E9, 0.0, 2022-05-06 12:17:57.610
12.0, -252.71999960578978, -146.39090396557003, -163.93290470773354, -173.47899934463203, 0.0800000037997961, 0.06400000303983688, 1.008000047877431, 0.0, 0.0, 0.0, 0.0, 0.0, 1.651835877610845E9, 0.0, 2022-05-06 12:17:57.610
13.0, -204.64732557535172, -62.04494026489556, -94.6923969280906, -145.848618471995, 0.0800000037997961, 0.06400000303983688, 1.008000047877431, 0.0, 0.0, 0.0, 0.0, 0.0, 1.6518358776409235E9, 0.0, 2022-05-06 12:17:57.640
13.0, -202.67639829870313, -86.95267396979034, -120.69592132000253, -136.13235838711262, 0.0800000037997961, 0.06400000303983688, 1.008000047877431, 0.0, 0.0, 0.0, 0.0, 0.0, 1.6518358776409235E9, 0.0, 2022-05-06 12:17:57.640
14.0, -236.27939940057695, -164.08811055589467, -181.37205820111558, -151.16675620898604, 0.0800000037997961, 0.06400000303983688, 1.008000047877431, 0.0, 0.0, 0.0, 0.0, 0.0, 1.6518358776418495E9, 0.0, 2022-05-06 12:17:57.641
14.0, -241.29086534120142, -131.363985943608, -150.09901477163658, -168.5610309028998, 0.0800000037997961, 0.06400000303983688, 1.008000047877431, 0.0, 0.0, 0.0, 0.0, 0.0, 1.6518358776418495E9, 0.0, 2022-05-06 12:17:57.641
15.0, -192.17101932317019, -51.95469018444419, -85.03223534254357, -137.3590455725789, 0.0800000037997961, 0.06400000303983688, 1.008000047877431, 0.0, 0.0, 0.0, 0.0, 0.0, 1.651835877642854E9, 0.0, 2022-05-06 12:17:57.642
15.0, -196.34100777376443, -89.63792213797569, -124.00947268074378, -135.0964060993865, 0.0800000037997961, 0.06400000303983688, 1.008000047877431, 0.0, 0.0, 0.0, 0.0, 0.0, 1.651835877642854E9, 0.0, 2022-05-06 12:17:57.642
16.0, -242.20340093038976, -163.42614826373756, -184.1433240682818, -156.5933510446921, 0.0800000037997961, 0.06400000303983688, 1.008000047877431, 0.0, 0.0, 0.0, 0.0, 0.0, 1.6518358776539137E9, 0.0, 2022-05-06 12:17:57.653
16.0, -236.65712929610163, -126.55447460059077, -141.07837607851252, -146.8097727606073, 0.0800000037997961, 0.06400000303983688, 1.008000047877431, 0.0, 0.0, 0.0, 0.0, 0.0, 1.6518358776539137E9, 0.0, 2022-05-06 12:17:57.653
17.0, -202.02939560636878, -61.06882637646049, -92.90098484931514, -155.53121945727617, 0.0800000037997961, 0.06400000303983688, 1.008000047877431, 0.0, 0.0, 0.0, 0.0, 0.0, 1.6518358776699793E9, 0.0, 2022-05-06 12:17:57.669
17.0, -194.77398969233036, -91.14884172007442, -120.7445400194265, -136.9513964774087, 0.0800000037997961, 0.06400000303983688, 1.008000047877431, 0.0, 0.0, 0.0, 0.0, 0.0, 1.6518358776699793E9, 0.0, 2022-05-06 12:17:57.669
18.0, -230.31425897125155, -154.02029987517744, -174.61405898118392, -160.78951879497617, 0.0800000037997961, 0.06400000303983688, 1.008000047877431, 0.0, 0.0, 0.0, 0.0, 0.0, 1.6518358776709068E9, 0.0, 2022-05-06 12:17:57.670
18.0, -249.69442054163665, -132.59815292898566, -153.1657327353023, -169.7802382884547, 0.0800000037997961, 0.06400000303983688, 1.008000047877431, 0.0, 0.0, 0.0, 0.0, 0.0, 1.6518358776709068E9, 0.0, 2022-05-06 12:17:57.670
19.0, -213.68292386829853, -71.89209684822708, -101.43169664824381, -143.87021139543504, 0.0800000037997961, 0.06400000303983688, 1.008000047877431, 0.0, 0.0, 0.0, 0.0, 0.0, 1.651835877700978E9, 0.0, 2022-05-06 12:17:57.700
19.0, -208.64901852793992, -102.72757198289037, -140.1209616898559, -158.1117504267022, 0.0800000037997961, 0.06400000303983688, 1.008000047877431, 0.0, 0.0, 0.0, 0.0, 0.0, 1.651835877700978E9, 0.0, 2022-05-06 12:17:57.700
20.0, -227.26998040731996, -169.91861458681524, -188.19737562024966, -170.35244298167527, 0.0800000037997961, 0.06400000303983688, 0.5120000243186951, 0.0, 0.0, 0.0, 0.0, 0.0, 1.6518358777018557E9, 0.0, 2022-05-06 12:17:57.701
20.0, -243.98733320925385, -132.94222372490913, -149.70258537633345, -155.95382815226912, 0.0800000037997961, 0.06400000303983688, 0.5120000243186951, 0.0, 0.0, 0.0, 0.0, 0.0, 1.6518358777018557E9, 0.0, 2022-05-06 12:17:57.701
21.0, -217.995028517209, -55.63475174084306, -88.69359739916399, -142.31815291382372, 0.0800000037997961, 0.0800000037997961, 0.5120000243186951, 0.0, 0.0, 0.0, 0.0, 0.0, 1.6518358777030537E9, 0.0, 2022-05-06 12:17:57.703
21.0, -206.36393965501338, -94.37263548187912, -128.41881472850218, -150.6282106153667, 0.0800000037997961, 0.0800000037997961, 0.5120000243186951, 0.0, 0.0, 0.0, 0.0, 0.0, 1.6518358777030537E9, 0.0, 2022-05-06 12:17:57.703
22.0, -234.60392422042787, -163.47102706320584, -181.64133099792525, -166.50782582722604, 0.11200000531971455, 0.0800000037997961, 0.5120000243186951, 0.0, 0.0, 0.0, 0.0, 0.0, 1.6518358777138917E9, 0.0, 2022-05-06 12:17:57.713
22.0, -244.48100000340492, -132.07456693518907, -147.8326353984885, -157.5545053333044, 0.11200000531971455, 0.0800000037997961, 0.5120000243186951, 0.0, 0.0, 0.0, 0.0, 0.0, 1.6518358777138917E9, 0.0, 2022-05-06 12:17:57.713
23.0, -201.55816821195185, -57.82633311487734, -83.73449005791917, -135.07770659960806, 0.11200000531971455, 0.0800000037997961, 0.5120000243186951, 0.0, 0.0, 0.0, 0.0, 0.0, 1.651835877729904E9, 0.0, 2022-05-06 12:17:57.729
23.0, -206.78280845005065, -93.3030240945518, -125.95048075774685, -147.32213905453682, 0.11200000531971455, 0.0800000037997961, 0.5120000243186951, 0.0, 0.0, 0.0, 0.0, 0.0, 1.651835877729904E9, 0.0, 2022-05-06 12:17:57.729
24.0, -242.4502343274653, -161.92270848155022, -184.04982656938955, -166.5938435262069, 0.11200000531971455, 0.0800000037997961, 0.5120000243186951, 0.0, 0.0, 0.0, 0.0, 0.0, 1.651835877730868E9, 0.0, 2022-05-06 12:17:57.730
24.0, -240.9280950454995, -137.78539416752756, -147.82141569862142, -158.60915712080896, 0.11200000531971455, 0.0800000037997961, 0.5120000243186951, 0.0, 0.0, 0.0, 0.0, 0.0, 1.651835877730868E9, 0.0, 2022-05-06 12:17:57.730
25.0, -192.55622901860625, -49.662131511606276, -67.88853394566104, -105.92892634496093, 0.11200000531971455, 0.0800000037997961, 0.5120000243186951, 0.0, 0.0, 0.0, 0.0, 0.0, 1.651835877760914E9, 0.0, 2022-05-06 12:17:57.760
25.0, -195.50701008364558, -82.92480171751231, -120.8529971181415, -137.61335876956582, 0.11200000531971455, 0.0800000037997961, 0.5120000243186951, 0.0, 0.0, 0.0, 0.0, 0.0, 1.651835877760914E9, 0.0, 2022-05-06 12:17:57.760
26.0, -240.08287765551358, -168.10850300826132, -185.19797585578635, -180.58106936048716, 0.11200000531971455, 0.0800000037997961, 0.5120000243186951, 0.0, 0.0, 0.0, 0.0, 0.0, 1.6518358777618604E9, 0.0, 2022-05-06 12:17:57.761
26.0, -246.38460908085108, -145.01088088192046, -156.8383144917898, -170.58057687897235, 0.11200000531971455, 0.0800000037997961, 0.5120000243186951, 0.0, 0.0, 0.0, 0.0, 0.0, 1.6518358777618604E9, 0.0, 2022-05-06 12:17:57.761
27.0, -197.37696006149054, -58.46211610734463, -86.29632152756676, -133.72386281564832, 0.11200000531971455, 0.0800000037997961, 0.5120000243186951, 0.0, 0.0, 0.0, 0.0, 0.0, 1.6518358777749047E9, 0.0, 2022-05-06 12:17:57.774
27.0, -188.1618465706706, -81.10721033904701, -106.15519029228017, -110.55144269019365, 0.11200000531971455, 0.0800000037997961, 0.5120000243186951, 0.0, 0.0, 0.0, 0.0, 0.0, 1.6518358777749047E9, 0.0, 2022-05-06 12:17:57.774
28.0, -254.72458598203957, -169.25665229465812, -192.12053067376837, -174.33543643448502, 0.11200000531971455, 0.0800000037997961, 0.5120000243186951, 0.0, 0.0, 0.0, 0.0, 0.0, 1.651835877775844E9, 0.0, 2022-05-06 12:17:57.775
28.0, -251.6055094189942, -139.30753344949335, -151.89416675036773, -181.17197355348617, 0.11200000531971455, 0.0800000037997961, 0.5120000243186951, 0.0, 0.0, 0.0, 0.0, 0.0, 1.651835877775844E9, 0.0, 2022-05-06 12:17:57.775
29.0, -209.59147331677377, -61.472735571675, -92.87106564966962, -149.9550286233425, 0.11200000531971455, 0.0800000037997961, 0.5120000243186951, 0.0, 0.0, 0.0, 0.0, 0.0, 1.6518358777899294E9, 0.0, 2022-05-06 12:17:57.789
29.0, -216.34199273679405, -101.48592519760132, -133.4489801689051, -153.94550187606364, 0.11200000531971455, 0.0800000037997961, 0.5120000243186951, 0.0, 0.0, 0.0, 0.0, 0.0, 1.6518358777899294E9, 0.0, 2022-05-06 12:17:57.789
30.0, -254.7545051816851, -179.05893007852137, -196.56727172108367, -180.7531047584489, 0.11200000531971455, 0.0800000037997961, 0.7680000364780426, 0.0, 0.0, 0.0, 0.0, 0.0, 1.65183587785193E9, 0.0, 2022-05-06 12:17:57.851
30.0, -247.3008845699951, -140.46690243575722, -151.32196205714718, -153.2984991837293, 0.11200000531971455, 0.0800000037997961, 0.7680000364780426, 0.0, 0.0, 0.0, 0.0, 0.0, 1.65183587785193E9, 0.0, 2022-05-06 12:17:57.851
31.0, -195.12180038820952, -51.10947279445827, -83.06130806589499, -134.83461310248822, 0.11200000531971455, 0.09600000455975533, 0.7680000364780426, 0.0, 0.0, 0.0, 0.0, 0.0, 1.6518358778528502E9, 0.0, 2022-05-06 12:17:57.852
31.0, -208.20023053325713, -85.09020379185677, -122.46115409908816, -146.46944186463952, 0.11200000531971455, 0.09600000455975533, 0.7680000364780426, 0.0, 0.0, 0.0, 0.0, 0.0, 1.6518358778528502E9, 0.0, 2022-05-06 12:17:57.852
32.0, -245.03450519684702, -164.46958035137504, -185.0296803577803, -171.62026906665415, 0.12800000607967377, 0.09600000455975533, 0.7680000364780426, 0.0, 0.0, 0.0, 0.0, 0.0, 1.6518358778539093E9, 0.0, 2022-05-06 12:17:57.853
32.0, -244.02099230885506, -139.42721024807543, -148.74891088763252, -153.09654458612204, 0.12800000607967377, 0.09600000455975533, 0.7680000364780426, 0.0, 0.0, 0.0, 0.0, 0.0, 1.6518358778539093E9, 0.0, 2022-05-06 12:17:57.853
33.0, -212.09346638713032, -61.424116872251034, -94.96914952481166, -148.90037683583796, 0.12800000607967377, 0.09600000455975533, 0.7680000364780426, 0.0, 0.0, 0.0, 0.0, 0.0, 1.6518358778548615E9, 0.0, 2022-05-06 12:17:57.854
33.0, -214.82733325473964, -105.10614835470915, -140.46129258582368, -157.73402053117752, 0.12800000607967377, 0.09600000455975533, 0.7680000364780426, 0.0, 0.0, 0.0, 0.0, 0.0, 1.6518358778548615E9, 0.0, 2022-05-06 12:17:57.854
34.0, -258.87961483281106, -175.98099241498858, -194.79081924213096, -181.0074179554358, 0.12800000607967377, 0.09600000455975533, 0.7680000364780426, 0.0, 0.0, 0.0, 0.0, 0.0, 1.651835877879924E9, 0.0, 2022-05-06 12:17:57.879
34.0, -256.40380106214434, -140.324786237441, -159.97609055461362, -165.54293163865805, 0.12800000607967377, 0.09600000455975533, 0.7680000364780426, 0.0, 0.0, 0.0, 0.0, 0.0, 1.651835877879924E9, 0.0, 2022-05-06 12:17:57.879
35.0, -213.75772186741233, -59.29611379746348, -94.75597522733733, -129.15744496975094, 0.12800000607967377, 0.09600000455975533, 0.7680000364780426, 0.0, 0.0, 0.0, 0.0, 0.0, 1.6518358778809423E9, 0.0, 2022-05-06 12:17:57.880
35.0, -209.23992272093892, -91.35079631768167, -121.8889494058676, -141.78334722016007, 0.12800000607967377, 0.09600000455975533, 0.7680000364780426, 0.0, 0.0, 0.0, 0.0, 0.0, 1.6518358778809423E9, 0.0, 2022-05-06 12:17:57.880
36.0, -248.8230238519609, -171.55669076740742, -192.42720247013494, -182.98582503199577, 0.12800000607967377, 0.09600000455975533, 0.7680000364780426, 0.0, 0.0, 0.0, 0.0, 0.0, 1.6518358779119532E9, 0.0, 2022-05-06 12:17:57.911
36.0, -260.0539434188977, -152.39344339445233, -171.5062021180056, -183.4196534268558, 0.12800000607967377, 0.09600000455975533, 0.7680000364780426, 0.0, 0.0, 0.0, 0.0, 0.0, 1.6518358779119532E9, 0.0, 2022-05-06 12:17:57.911
37.0, -213.05088077578694, -75.14206990972161, -103.7728740205057, -146.7761136610061, 0.12800000607967377, 0.09600000455975533, 0.7680000364780426, 0.0, 0.0, 0.0, 0.0, 0.0, 1.6518358779128647E9, 0.0, 2022-05-06 12:17:57.912
37.0, -205.3579065669328, -90.68883402552456, -122.71546729607508, -142.74824140872806, 0.12800000607967377, 0.09600000455975533, 0.7680000364780426, 0.0, 0.0, 0.0, 0.0, 0.0, 1.6518358779128647E9, 0.0, 2022-05-06 12:17:57.912
38.0, -254.88914158008993, -167.67841451335698, -193.39583655865863, -176.16798741277307, 0.12800000607967377, 0.09600000455975533, 0.7680000364780426, 0.0, 0.0, 0.0, 0.0, 0.0, 1.6518358779138715E9, 0.0, 2022-05-06 12:17:57.913
38.0, -255.77175796963274, -141.6599305216223, -157.91540567902848, -164.86600974667817, 0.12800000607967377, 0.09600000455975533, 0.7680000364780426, 0.0, 0.0, 0.0, 0.0, 0.0, 1.6518358779138715E9, 0.0, 2022-05-06 12:17:57.913
39.0, -202.49314320087433, -61.45029617194086, -101.51771434722468, -147.37449765391648, 0.12800000607967377, 0.09600000455975533, 0.7680000364780426, 0.0, 0.0, 0.0, 0.0, 0.0, 1.651835877914856E9, 0.0, 2022-05-06 12:17:57.914
39.0, -205.29058836773038, -92.2670718068257, -124.37972277635708, -147.30343955475837, 0.12800000607967377, 0.09600000455975533, 0.7680000364780426, 0.0, 0.0, 0.0, 0.0, 0.0, 1.651835877914856E9, 0.0, 2022-05-06 12:17:57.914
40.0, -256.55339706037194, -179.3469023751095, -192.49826056929305, -177.62654839549214, 0.12800000607967377, 0.09600000455975533, 0.8960000425577164, 0.0, 0.0, 0.0, 0.0, 0.0, 1.6518358779399164E9, 0.0, 2022-05-06 12:17:57.939
40.0, -266.89422043785453, -145.87479777168483, -159.33656766219065, -168.02996510919183, 0.12800000607967377, 0.09600000455975533, 0.8960000425577164, 0.0, 0.0, 0.0, 0.0, 0.0, 1.6518358779399164E9, 0.0, 2022-05-06 12:17:57.939
41.0, -222.04160026926547, -55.717029539868236, -90.05866088299081, -143.59345879871398, 0.12800000607967377, 0.11200000531971455, 0.8960000425577164, 0.0, 0.0, 0.0, 0.0, 0.0, 1.6518358779408588E9, 0.0, 2022-05-06 12:17:57.940
41.0, -214.25886846147478, -87.62211606185883, -124.23760657804087, -149.2893264312297, 0.12800000607967377, 0.11200000531971455, 0.8960000425577164, 0.0, 0.0, 0.0, 0.0, 0.0, 1.6518358779408588E9, 0.0, 2022-05-06 12:17:57.940
42.0, -241.78827203530818, -158.82233141828328, -179.18421672703698, -151.13309710938483, 0.144000006839633, 0.11200000531971455, 0.8960000425577164, 0.0, 0.0, 0.0, 0.0, 0.0, 1.6518358779549017E9, 0.0, 2022-05-06 12:17:57.954
42.0, -250.8650092277676, -133.77622141502798, -143.48687164997682, -138.5894726580009, 0.144000006839633, 0.11200000531971455, 0.8960000425577164, 0.0, 0.0, 0.0, 0.0, 0.0, 1.6518358779549017E9, 0.0, 2022-05-06 12:17:57.954
43.0, -217.9202305180952, -70.108164569363, -99.97313566552475, -151.91847610007972, 0.144000006839633, 0.11200000531971455, 0.8960000425577164, 0.0, 0.0, 0.0, 0.0, 0.0, 1.6518358779719067E9, 0.0, 2022-05-06 12:17:57.971
43.0, -219.4760288996622, -97.89562124013901, -130.35982280550525, -161.39538258779794, 0.144000006839633, 0.11200000531971455, 0.8960000425577164, 0.0, 0.0, 0.0, 0.0, 0.0, 1.6518358779719067E9, 0.0, 2022-05-06 12:17:57.971
44.0, -250.95850672665983, -172.33085005823523, -193.74738715449348, -179.0065714791417, 0.144000006839633, 0.11200000531971455, 0.8960000425577164, 0.0, 0.0, 0.0, 0.0, 0.0, 1.6518358779728568E9, 0.0, 2022-05-06 12:17:57.972
44.0, -268.6070946175605, -159.95178120490164, -177.23572885012254, -186.87532098591328, 0.144000006839633, 0.11200000531971455, 0.8960000425577164, 0.0, 0.0, 0.0, 0.0, 0.0, 1.6518358779728568E9, 0.0, 2022-05-06 12:17:57.972
45.0, -218.1072255158797, -65.54548662342131, -97.64691789308563, -143.436383000575, 0.144000006839633, 0.11200000531971455, 0.8960000425577164, 0.0, 0.0, 0.0, 0.0, 0.0, 1.6518358779738543E9, 0.0, 2022-05-06 12:17:57.973
45.0, -210.16367800999433, -89.91841463465244, -123.88605598220602, -145.1455172803253, 0.144000006839633, 0.11200000531971455, 0.8960000425577164, 0.0, 0.0, 0.0, 0.0, 0.0, 1.6518358779738543E9, 0.0, 2022-05-06 12:17:57.973
46.0, -248.0114655615762, -177.30117709934711, -190.56847219215706, -170.4122813809663, 0.144000006839633, 0.11200000531971455, 0.8960000425577164, 0.0, 0.0, 0.0, 0.0, 0.0, 1.6518358779748538E9, 0.0, 2022-05-06 12:17:57.974
46.0, -270.21899149846286, -154.46908786986023, -172.52345490595326, -178.54656378459185, 0.144000006839633, 0.11200000531971455, 0.8960000425577164, 0.0, 0.0, 0.0, 0.0, 0.0, 1.6518358779748538E9, 0.0, 2022-05-06 12:17:57.974
47.0, -206.55841445270926, -62.927556654438376, -90.9861560720019, -136.8092802790925, 0.144000006839633, 0.11200000531971455, 0.8960000425577164, 0.0, 0.0, 0.0, 0.0, 0.0, 1.6518358779859345E9, 0.0, 2022-05-06 12:17:57.985
47.0, -215.1714040506631, -86.70210067275912, -116.42121567064896, -127.93449768424034, 0.144000006839633, 0.11200000531971455, 0.8960000425577164, 0.0, 0.0, 0.0, 0.0, 0.0, 1.6518358779859345E9, 0.0, 2022-05-06 12:17:57.985
48.0, -258.81977643352, -167.91028831060976, -193.9231624524109, -187.94867227319628, 0.144000006839633, 0.11200000531971455, 0.8960000425577164, 0.0, 0.0, 0.0, 0.0, 0.0, 1.6518358779868717E9, 0.0, 2022-05-06 12:17:57.986
48.0, -258.65522083546966, -149.20704863220453, -165.51862228894606, -173.96518633887172, 0.144000006839633, 0.11200000531971455, 0.8960000425577164, 0.0, 0.0, 0.0, 0.0, 0.0, 1.6518358779868717E9, 0.0, 2022-05-06 12:17:57.986
49.0, -206.25548255629838, -62.86771825514734, -93.71254313969985, -134.79347420297563, 0.144000006839633, 0.11200000531971455, 0.8960000425577164, 0.0, 0.0, 0.0, 0.0, 0.0, 1.6518358779999084E9, 0.0, 2022-05-06 12:17:57.999
49.0, -216.83565953094512, -85.45671398751438, -114.19971509696916, -136.0687800878659, 0.144000006839633, 0.11200000531971455, 0.8960000425577164, 0.0, 0.0, 0.0, 0.0, 0.0, 1.6518358779999084E9, 0.0, 2022-05-06 12:17:57.999
50.0, -254.7545051816851, -163.44110786356032, -188.8817773121409, -172.35328945796937, 0.144000006839633, 0.11200000531971455, 0.944000044837594, 0.0, 0.0, 0.0, 0.0, 0.0, 1.6518358780319493E9, 0.0, 2022-05-06 12:17:58.031
50.0, -256.7104728585109, -142.23587511479855, -164.9838165952824, -168.73680620081723, 0.144000006839633, 0.11200000531971455, 0.944000044837594, 0.0, 0.0, 0.0, 0.0, 0.0, 1.6518358780319493E9, 0.0, 2022-05-06 12:17:58.031
51.0, -213.90357796568424, -60.601338881999254, -88.4692034018226, -132.86368582583964, 0.144000006839633, 0.11200000531971455, 0.944000044837594, 0.0, 0.0, 0.0, 0.0, 0.0, 1.651835878032872E9, 0.0, 2022-05-06 12:17:58.032
51.0, -202.6165598994121, -80.80053854268044, -116.20056157326326, -124.22451692819595, 0.144000006839633, 0.11200000531971455, 0.944000044837594, 0.0, 0.0, 0.0, 0.0, 0.0, 1.651835878032872E9, 0.0, 2022-05-06 12:17:58.032
52.0, -251.6429084185511, -174.99365882668644, -202.21078075421974, -192.20841832272708, 0.144000006839633, 0.11200000531971455, 0.944000044837594, 0.0, 0.0, 0.0, 0.0, 0.0, 1.651835878033872E9, 0.0, 2022-05-06 12:17:58.033
52.0, -256.95356635563076, -145.5494264755398, -162.7959751212038, -184.0479566194117, 0.144000006839633, 0.11200000531971455, 0.944000044837594, 0.0, 0.0, 0.0, 0.0, 0.0, 1.651835878033872E9, 0.0, 2022-05-06 12:17:58.033
53.0, -207.69908393919468, -60.44052318390459, -90.60842617647722, -136.70082318037748, 0.144000006839633, 0.11200000531971455, 0.944000044837594, 0.0, 0.0, 0.0, 0.0, 0.0, 1.6518358780348592E9, 0.0, 2022-05-06 12:17:58.034
53.0, -201.66288541071117, -88.63936884980649, -120.68844152009115, -142.26579431444407, 0.144000006839633, 0.11200000531971455, 0.944000044837594, 0.0, 0.0, 0.0, 0.0, 0.0, 1.6518358780348592E9, 0.0, 2022-05-06 12:17:58.034
54.0, -256.99470525514334, -167.09125022031367, -188.06273922184482, -175.02357802633196, 0.144000006839633, 0.11200000531971455, 0.944000044837594, 0.0, 0.0, 0.0, 0.0, 0.0, 1.651835878076906E9, 0.0, 2022-05-06 12:17:58.076
54.0, -253.31464369874448, -150.2542206197977, -161.7226238339208, -163.13443606719375, 0.144000006839633, 0.11200000531971455, 0.944000044837594, 0.0, 0.0, 0.0, 0.0, 0.0, 1.651835878076906E9, 0.0, 2022-05-06 12:17:58.076
55.0, -213.82504006661475, -68.8478182842955, -95.96022301306948, -139.53192744683474, 0.144000006839633, 0.11200000531971455, 0.944000044837594, 0.0, 0.0, 0.0, 0.0, 0.0, 1.6518358780778613E9, 0.0, 2022-05-06 12:17:58.077
55.0, -223.67593654990196, -98.59124263189733, -135.09453614940867, -167.60361651424319, 0.144000006839633, 0.11200000531971455, 0.944000044837594, 0.0, 0.0, 0.0, 0.0, 0.0, 1.6518358780778613E9, 0.0, 2022-05-06 12:17:58.077
56.0, -258.36350863892585, -180.7867638580501, -198.48958029830828, -177.91826059203595, 0.144000006839633, 0.11200000531971455, 0.944000044837594, 0.0, 0.0, 0.0, 0.0, 0.0, 1.6518358780788455E9, 0.0, 2022-05-06 12:17:58.078
56.0, -264.7961365627125, -154.73462076671422, -173.7277026916854, -180.96627905592322, 0.144000006839633, 0.11200000531971455, 0.944000044837594, 0.0, 0.0, 0.0, 0.0, 0.0, 1.6518358780788455E9, 0.0, 2022-05-06 12:17:58.078
57.0, -227.21014200802892, -72.9243092359975, -100.49672165932134, -143.436383000575, 0.144000006839633, 0.11200000531971455, 0.944000044837594, 0.0, 0.0, 0.0, 0.0, 0.0, 1.6518358780798657E9, 0.0, 2022-05-06 12:17:58.079
57.0, -210.66856450401247, -89.53320493921638, -121.5560983098112, -139.83111944328994, 0.144000006839633, 0.11200000531971455, 0.944000044837594, 0.0, 0.0, 0.0, 0.0, 0.0, 1.6518358780798657E9, 0.0, 2022-05-06 12:17:58.079
58.0, -261.0824159067124, -177.2375988001004, -196.54857222130522, -186.41157339140773, 0.144000006839633, 0.11200000531971455, 0.944000044837594, 0.0, 0.0, 0.0, 0.0, 0.0, 1.6518358780909271E9, 0.0, 2022-05-06 12:17:58.090
58.0, -244.8961288984865, -134.19883011002094, -147.96353189693764, -149.04623293410987, 0.144000006839633, 0.11200000531971455, 0.944000044837594, 0.0, 0.0, 0.0, 0.0, 0.0, 1.6518358780909271E9, 0.0, 2022-05-06 12:17:58.090
59.0, -215.94556334149092, -70.16426306869835, -103.93742961855605, -145.23527487926185, 0.144000006839633, 0.11200000531971455, 0.944000044837594, 0.0, 0.0, 0.0, 0.0, 0.0, 1.6518358780918603E9, 0.0, 2022-05-06 12:17:58.091
59.0, -215.6538511449471, -94.13328188471496, -131.01430529775098, -159.83958420623094, 0.144000006839633, 0.11200000531971455, 0.944000044837594, 0.0, 0.0, 0.0, 0.0, 0.0, 1.6518358780918603E9, 0.0, 2022-05-06 12:17:58.091
60.0, -246.7436394765973, -167.21466691885144, -186.98564803460613, -176.40734100993723, 0.144000006839633, 0.11200000531971455, 0.9760000463575125, 0.0, 0.0, 0.0, 0.0, 0.0, 1.6518358780928967E9, 0.0, 2022-05-06 12:17:58.092
60.0, -238.7439934713766, -142.94645610637963, -159.71429755771533, -158.9307885169983, 0.144000006839633, 0.11200000531971455, 0.9760000463575125, 0.0, 0.0, 0.0, 0.0, 0.0, 1.6518358780928967E9, 0.0, 2022-05-06 12:17:58.092
61.0, -227.78234670124948, -69.98474787082523, -100.50420145923272, -138.61565195769072, 0.144000006839633, 0.11200000531971455, 0.9760000463575125, 0.0, 0.0, 0.0, 0.0, 0.0, 1.6518358781039023E9, 0.0, 2022-05-06 12:17:58.103
61.0, -214.11301236320287, -85.69606758467853, -115.42266238247976, -150.16820292081684, 0.144000006839633, 0.11200000531971455, 0.9760000463575125, 0.0, 0.0, 0.0, 0.0, 0.0, 1.6518358781039023E9, 0.0, 2022-05-06 12:17:58.103
62.0, -247.10640977229923, -164.62665614951402, -186.2227084436454, -174.9300805274397, 0.144000006839633, 0.11200000531971455, 0.9760000463575125, 0.0, 0.0, 0.0, 0.0, 0.0, 1.6518358781359136E9, 0.0, 2022-05-06 12:17:58.135
62.0, -245.66280838940293, -152.1840089969337, -167.51572886528447, -169.6381220901385, 0.144000006839633, 0.11200000531971455, 0.9760000463575125, 0.0, 0.0, 0.0, 0.0, 0.0, 1.6518358781359136E9, 0.0, 2022-05-06 12:17:58.135
63.0, -219.176836903207, -56.26305493339896, -93.11789904674515, -137.48994207102805, 0.144000006839633, 0.11200000531971455, 0.9760000463575125, 0.0, 0.0, 0.0, 0.0, 0.0, 1.6518358781368642E9, 0.0, 2022-05-06 12:17:58.136
63.0, -205.81043446157128, -84.01685250457376, -116.94106176448986, -142.68466310948133, 0.144000006839633, 0.11200000531971455, 0.9760000463575125, 0.0, 0.0, 0.0, 0.0, 0.0, 1.6518358781368642E9, 0.0, 2022-05-06 12:17:58.136
64.0, -241.90046903397888, -171.21261997148395, -187.9617619230412, -168.7891648001969, 0.144000006839633, 0.11200000531971455, 0.9760000463575125, 0.0, 0.0, 0.0, 0.0, 0.0, 1.6518358781378553E9, 0.0, 2022-05-06 12:17:58.137
64.0, -237.45746788661927, -130.8740590494126, -143.68508634762838, -142.7332818089053, 0.144000006839633, 0.11200000531971455, 0.9760000463575125, 0.0, 0.0, 0.0, 0.0, 0.0, 1.6518358781378553E9, 0.0, 2022-05-06 12:17:58.137
65.0, -210.63490540441126, -58.05446701217443, -87.99797600740567, -127.18651769310236, 0.144000006839633, 0.11200000531971455, 0.9760000463575125, 0.0, 0.0, 0.0, 0.0, 0.0, 1.6518358781499252E9, 0.0, 2022-05-06 12:17:58.149
65.0, -212.12338558677584, -84.71247389633209, -121.24194671353325, -157.84247762989253, 0.144000006839633, 0.11200000531971455, 0.9760000463575125, 0.0, 0.0, 0.0, 0.0, 0.0, 1.6518358781499252E9, 0.0, 2022-05-06 12:17:58.149
66.0, -253.33334319852293, -175.47610592097044, -193.42575575830415, -184.29105011653155, 0.144000006839633, 0.11200000531971455, 0.9760000463575125, 0.0, 0.0, 0.0, 0.0, 0.0, 1.651835878150902E9, 0.0, 2022-05-06 12:17:58.150
66.0, -258.96189263183624, -159.01680621597916, -172.13076541060582, -176.14554801303893, 0.144000006839633, 0.11200000531971455, 0.9760000463575125, 0.0, 0.0, 0.0, 0.0, 0.0, 1.651835878150902E9, 0.0, 2022-05-06 12:17:58.150
67.0, -219.8051400957629, -70.93468245957047, -96.4351903074421, -145.63544417452067, 0.144000006839633, 0.11200000531971455, 0.9760000463575125, 0.0, 0.0, 0.0, 0.0, 0.0, 1.651835878180962E9, 0.0, 2022-05-06 12:17:58.180
67.0, -204.5089492769912, -75.44874170608819, -106.26738729095086, -134.41948420740664, 0.144000006839633, 0.11200000531971455, 0.9760000463575125, 0.0, 0.0, 0.0, 0.0, 0.0, 1.651835878180962E9, 0.0, 2022-05-06 12:17:58.180
68.0, -247.31210426986217, -169.9298342866823, -192.82363186543807, -179.12998817767948, 0.144000006839633, 0.11200000531971455, 0.9760000463575125, 0.0, 0.0, 0.0, 0.0, 0.0, 1.651835878195926E9, 0.0, 2022-05-06 12:17:58.195
68.0, -250.3077641343698, -152.38596359454095, -165.80659458553419, -171.60904936678708, 0.144000006839633, 0.11200000531971455, 0.9760000463575125, 0.0, 0.0, 0.0, 0.0, 0.0, 1.651835878195926E9, 0.0, 2022-05-06 12:17:58.195
69.0, -215.60897234547883, -69.71547507401556, -100.13021146366373, -143.55979969911277, 0.144000006839633, 0.11200000531971455, 0.9760000463575125, 0.0, 0.0, 0.0, 0.0, 0.0, 1.651835878196859E9, 0.0, 2022-05-06 12:17:58.196
69.0, -208.48446292988956, -91.9342207107693, -123.92345498176292, -152.5916580921039, 0.144000006839633, 0.11200000531971455, 0.9760000463575125, 0.0, 0.0, 0.0, 0.0, 0.0, 1.651835878196859E9, 0.0, 2022-05-06 12:17:58.196
70.0, -258.1166752418503, -174.600969331339, -191.76898007793352, -175.70049991831183, 0.144000006839633, 0.11200000531971455, 1.008000047877431, 0.0, 0.0, 0.0, 0.0, 0.0, 1.6518358781978655E9, 0.0, 2022-05-06 12:17:58.197
70.0, -244.55205810256302, -143.57475929893553, -152.70198514079675, -155.4040628587827, 0.144000006839633, 0.11200000531971455, 1.008000047877431, 0.0, 0.0, 0.0, 0.0, 0.0, 1.6518358781978655E9, 0.0, 2022-05-06 12:17:58.197
71.0, -213.57446676958352, -62.90885715465993, -94.04913413571194, -131.4313041428104, 0.144000006839633, 0.11200000531971455, 1.008000047877431, 0.0, 0.0, 0.0, 0.0, 0.0, 1.6518358782099044E9, 0.0, 2022-05-06 12:17:58.209
71.0, -216.0988992396742, -88.55709105078131, -121.46634071087465, -152.49816059321165, 0.144000006839633, 0.11200000531971455, 1.008000047877431, 0.0, 0.0, 0.0, 0.0, 0.0, 1.6518358782099044E9, 0.0, 2022-05-06 12:17:58.209
72.0, -246.3060711817816, -158.77371271885931, -184.1395841683261, -174.60844913125038, 0.144000006839633, 0.11200000531971455, 1.008000047877431, 0.0, 0.0, 0.0, 0.0, 0.0, 1.6518358782108507E9, 0.0, 2022-05-06 12:17:58.210
72.0, -253.29220429901034, -147.33709865435958, -167.85605976125225, -173.2695649471134, 0.144000006839633, 0.11200000531971455, 1.008000047877431, 0.0, 0.0, 0.0, 0.0, 0.0, 1.6518358782108507E9, 0.0, 2022-05-06 12:17:58.210
73.0, -208.04315473511815, -67.50145430024713, -94.41190443141386, -140.1415311396122, 0.144000006839633, 0.11200000531971455, 1.008000047877431, 0.0, 0.0, 0.0, 0.0, 0.0, 1.6518358782569113E9, 0.0, 2022-05-06 12:17:58.256
73.0, -189.82236215099692, -72.6251172395423, -106.38332418957725, -124.41525182593614, 0.144000006839633, 0.11200000531971455, 1.008000047877431, 0.0, 0.0, 0.0, 0.0, 0.0, 1.6518358782569113E9, 0.0, 2022-05-06 12:17:58.256
74.0, -224.93628283496946, -155.94260845240206, -182.00036139367148, -164.27884545363486, 0.144000006839633, 0.11200000531971455, 1.008000047877431, 0.0, 0.0, 0.0, 0.0, 0.0, 1.6518358782578776E9, 0.0, 2022-05-06 12:17:58.257
74.0, -248.62854905426502, -149.70819522626698, -166.18058458110318, -170.54691777937114, 0.144000006839633, 0.11200000531971455, 1.008000047877431, 0.0, 0.0, 0.0, 0.0, 0.0, 1.6518358782578776E9, 0.0, 2022-05-06 12:17:58.257
75.0, -224.09480534493923, -70.01466707047075, -96.74560200376436, -143.88891089521348, 0.144000006839633, 0.11200000531971455, 1.008000047877431, 0.0, 0.0, 0.0, 0.0, 0.0, 1.6518358782588701E9, 0.0, 2022-05-06 12:17:58.258
75.0, -221.71248907316476, -91.21615991927683, -123.25027298973873, -153.8482644772157, 0.144000006839633, 0.11200000531971455, 1.008000047877431, 0.0, 0.0, 0.0, 0.0, 0.0, 1.6518358782588701E9, 0.0, 2022-05-06 12:17:58.258
76.0, -253.1987068001181, -177.33483619894832, -194.12885694997385, -180.32301626354456, 0.144000006839633, 0.11200000531971455, 1.008000047877431, 0.0, 0.0, 0.0, 0.0, 0.0, 1.6518358782598743E9, 0.0, 2022-05-06 12:17:58.259
76.0, -256.0746898660436, -150.17568272072822, -165.64203898748383, -172.24483235925436, 0.144000006839633, 0.11200000531971455, 1.008000047877431, 0.0, 0.0, 0.0, 0.0, 0.0, 1.6518358782598743E9, 0.0, 2022-05-06 12:17:58.259
77.0, -208.68267762754112, -57.67299721669406, -94.07157353544608, -136.031381088309, 0.144000006839633, 0.11200000531971455, 1.008000047877431, 0.0, 0.0, 0.0, 0.0, 0.0, 1.6518358782699366E9, 0.0, 2022-05-06 12:17:58.269
77.0, -193.9811309017241, -76.81006528995931, -103.33156582573429, -116.30714872200042, 0.144000006839633, 0.11200000531971455, 1.008000047877431, 0.0, 0.0, 0.0, 0.0, 0.0, 1.6518358782699366E9, 0.0, 2022-05-06 12:17:58.269
78.0, -236.67956869583577, -160.8904960937798, -181.13644450390711, -165.1539820432663, 0.144000006839633, 0.11200000531971455, 1.008000047877431, 0.0, 0.0, 0.0, 0.0, 0.0, 1.6518358782708573E9, 0.0, 2022-05-06 12:17:58.270
78.0, -239.4470946630463, -140.45568273589015, -148.02711019618437, -142.63604441005737, 0.144000006839633, 0.11200000531971455, 1.008000047877431, 0.0, 0.0, 0.0, 0.0, 0.0, 1.6518358782708573E9, 0.0, 2022-05-06 12:17:58.270
79.0, -205.49628286529332, -57.710396216250956, -95.32817992055789, -140.46690243575722, 0.144000006839633, 0.11200000531971455, 1.008000047877431, 0.0, 0.0, 0.0, 0.0, 0.0, 1.6518358783159132E9, 0.0, 2022-05-06 12:17:58.315
79.0, -213.00974187627435, -81.19696793798357, -120.01525952806696, -158.24638682510704, 0.144000006839633, 0.11200000531971455, 1.008000047877431, 0.0, 0.0, 0.0, 0.0, 0.0, 1.6518358783159132E9, 0.0, 2022-05-06 12:17:58.315
80.0, -241.98648673295975, -168.75176580064, -189.05007281014696, -181.32530945166945, 0.144000006839633, 0.11200000531971455, 1.008000047877431, 0.0, 0.0, 0.0, 0.0, 0.0, 1.6518358783168979E9, 0.0, 2022-05-06 12:17:58.316
80.0, -254.94897997938097, -162.9287415696308, -173.7351824915968, -182.70907243527472, 0.144000006839633, 0.11200000531971455, 1.008000047877431, 0.0, 0.0, 0.0, 0.0, 0.0, 1.6518358783168979E9, 0.0, 2022-05-06 12:17:58.316
81.0, -214.90587115380913, -67.00778750609607, -98.03960738843307, -143.28304710239172, 0.144000006839633, 0.11200000531971455, 1.008000047877431, 0.0, 0.0, 0.0, 0.0, 0.0, 1.651835878331931E9, 0.0, 2022-05-06 12:17:58.331
81.0, -216.24475533794612, -84.36466320045292, -113.57889170432463, -138.05840686429292, 0.144000006839633, 0.11200000531971455, 1.008000047877431, 0.0, 0.0, 0.0, 0.0, 0.0, 1.651835878331931E9, 0.0, 2022-05-06 12:17:58.331
82.0, -250.0085721379146, -166.9678335217759, -193.06672536255792, -185.40554030332714, 0.1600000075995922, 0.11200000531971455, 1.008000047877431, 0.0, 0.0, 0.0, 0.0, 0.0, 1.6518358783328607E9, 0.0, 2022-05-06 12:17:58.332
82.0, -266.29583644494414, -149.24818753171712, -167.71394356293604, -178.40444758627564, 0.1600000075995922, 0.11200000531971455, 1.008000047877431, 0.0, 0.0, 0.0, 0.0, 0.0, 1.6518358783328607E9, 0.0, 2022-05-06 12:17:58.332
83.0, -214.00829516444355, -63.2903269501403, -93.07302024727687, -141.60383202228695, 0.1600000075995922, 0.11200000531971455, 1.008000047877431, 0.0, 0.0, 0.0, 0.0, 0.0, 1.6518358783338716E9, 0.0, 2022-05-06 12:17:58.333
83.0, -209.2436626208946, -85.56891098618507, -115.20948808500543, -146.17398976814002, 0.1600000075995922, 0.11200000531971455, 1.008000047877431, 0.0, 0.0, 0.0, 0.0, 0.0, 1.6518358783338716E9, 0.0, 2022-05-06 12:17:58.333
84.0, -226.65663681458682, -150.41129641793668, -174.24006898561493, -160.54642529785633, 0.1600000075995922, 0.11200000531971455, 1.008000047877431, 0.0, 0.0, 0.0, 0.0, 0.0, 1.6518358783348937E9, 0.0, 2022-05-06 12:17:58.334
84.0, -248.5649707550183, -146.43204286508262, -160.5782144474797, -164.05071155633777, 0.1600000075995922, 0.11200000531971455, 1.008000047877431, 0.0, 0.0, 0.0, 0.0, 0.0, 1.6518358783348937E9, 0.0, 2022-05-06 12:17:58.334
85.0, -222.78584036044776, -72.53161974065006, -102.64716413384303, -144.9622621824965, 0.1600000075995922, 0.11200000531971455, 1.008000047877431, 0.0, 0.0, 0.0, 0.0, 0.0, 1.6518358783439736E9, 0.0, 2022-05-06 12:17:58.343
85.0, -205.15221206936985, -75.23182750865817, -109.16206985665485, -140.31356653757393, 0.1600000075995922, 0.11200000531971455, 1.008000047877431, 0.0, 0.0, 0.0, 0.0, 0.0, 1.6518358783439736E9, 0.0, 2022-05-06 12:17:58.343
86.0, -240.50548635050654, -158.3698035236448, -177.57231984613463, -158.6278566205874, 0.1600000075995922, 0.11200000531971455, 1.008000047877431, 0.0, 0.0, 0.0, 0.0, 0.0, 1.651835878375911E9, 0.0, 2022-05-06 12:17:58.375
86.0, -248.38545555714518, -150.08966502174735, -163.64493241114542, -166.1899343309924, 0.1600000075995922, 0.11200000531971455, 1.008000047877431, 0.0, 0.0, 0.0, 0.0, 0.0, 1.651835878375911E9, 0.0, 2022-05-06 12:17:58.375
87.0, -211.6184990927577, -57.751535115763545, -94.27726803300902, -136.77936107944697, 0.1600000075995922, 0.11200000531971455, 1.008000047877431, 0.0, 0.0, 0.0, 0.0, 0.0, 1.651835878376855E9, 0.0, 2022-05-06 12:17:58.376
87.0, -193.37152720894665, -74.7381607145071, -111.89593672426417, -137.55352037027478, 0.1600000075995922, 0.11200000531971455, 1.008000047877431, 0.0, 0.0, 0.0, 0.0, 0.0, 1.651835878376855E9, 0.0, 2022-05-06 12:17:58.376
88.0, -242.56991112604737, -157.49466693401337, -179.07575962832198, -169.28283159434795, 0.1600000075995922, 0.11200000531971455, 1.008000047877431, 0.0, 0.0, 0.0, 0.0, 0.0, 1.6518358783778555E9, 0.0, 2022-05-06 12:17:58.377
88.0, -239.32367796450853, -141.55895322281867, -159.18697166396305, -155.80423215404153, 0.1600000075995922, 0.11200000531971455, 1.008000047877431, 0.0, 0.0, 0.0, 0.0, 0.0, 1.6518358783778555E9, 0.0, 2022-05-06 12:17:58.377
89.0, -212.8751054778695, -68.45886868890375, -102.26569433836266, -139.42347034811974, 0.1600000075995922, 0.11200000531971455, 1.008000047877431, 0.0, 0.0, 0.0, 0.0, 0.0, 1.651835878404914E9, 0.0, 2022-05-06 12:17:58.404
89.0, -211.37540559563786, -87.74927266035229, -121.82911100657657, -153.10402438603342, 0.1600000075995922, 0.11200000531971455, 1.008000047877431, 0.0, 0.0, 0.0, 0.0, 0.0, 1.651835878404914E9, 0.0, 2022-05-06 12:17:58.404
90.0, -240.32597115263343, -159.5179528100416, -180.88961110683158, -170.2290262831375, 0.1600000075995922, 0.11200000531971455, 1.008000047877431, 0.0, 0.0, 0.0, 0.0, 0.0, 1.6518358784058487E9, 0.0, 2022-05-06 12:17:58.405
90.0, -243.65822201315314, -152.79735258966684, -169.209903545212, -169.87373578734696, 0.1600000075995922, 0.11200000531971455, 1.008000047877431, 0.0, 0.0, 0.0, 0.0, 0.0, 1.6518358784058487E9, 0.0, 2022-05-06 12:17:58.405
91.0, -196.81223516818136, -64.37863783724606, -95.01402832427993, -141.1064253281802, 0.1600000075995922, 0.11200000531971455, 1.008000047877431, 0.0, 0.0, 0.0, 0.0, 0.0, 1.6518358784068625E9, 0.0, 2022-05-06 12:17:58.406
91.0, -193.45006510801613, -72.72609453834593, -107.45667547686026, -137.96864926535636, 0.1600000075995922, 0.11200000531971455, 1.008000047877431, 0.0, 0.0, 0.0, 0.0, 0.0, 1.6518358784068625E9, 0.0, 2022-05-06 12:17:58.406
92.0, -258.40090763848275, -179.29454377572984, -200.9279950694181, -181.66190044768155, 0.144000006839633, 0.11200000531971455, 1.008000047877431, 0.0, 0.0, 0.0, 0.0, 0.0, 1.6518358784359088E9, 0.0, 2022-05-06 12:17:58.435
92.0, -250.55833743140101, -157.24035373702645, -178.50355493510142, -175.92115401569754, 0.144000006839633, 0.11200000531971455, 1.008000047877431, 0.0, 0.0, 0.0, 0.0, 0.0, 1.6518358784359088E9, 0.0, 2022-05-06 12:17:58.435
93.0, -210.9939358001575, -58.8809849023819, -94.40068473154679, -133.85101941414177, 0.144000006839633, 0.11200000531971455, 1.008000047877431, 0.0, 0.0, 0.0, 0.0, 0.0, 1.6518358784368525E9, 0.0, 2022-05-06 12:17:58.436
93.0, -209.86074611358345, -74.82791831344366, -102.22455543885008, -133.4732895186171, 0.144000006839633, 0.11200000531971455, 1.008000047877431, 0.0, 0.0, 0.0, 0.0, 0.0, 1.6518358784368525E9, 0.0, 2022-05-06 12:17:58.436
94.0, -237.67812198400497, -162.80532487109303, -178.11834523966536, -146.09171196911484, 0.144000006839633, 0.11200000531971455, 1.008000047877431, 0.0, 0.0, 0.0, 0.0, 0.0, 1.651835878437879E9, 0.0, 2022-05-06 12:17:58.437
94.0, -230.13848367333412, -126.93594439607114, -145.48771812627092, -140.9194303303957, 0.144000006839633, 0.11200000531971455, 1.008000047877431, 0.0, 0.0, 0.0, 0.0, 0.0, 1.651835878437879E9, 0.0, 2022-05-06 12:17:58.437
95.0, -202.48940330091864, -55.93768363725394, -92.396098355297, -137.97238916531205, 0.144000006839633, 0.11200000531971455, 1.008000047877431, 0.0, 0.0, 0.0, 0.0, 0.0, 1.6518358784499009E9, 0.0, 2022-05-06 12:17:58.449
95.0, -195.2751362863928, -69.21058857999742, -103.0323738292791, -145.5531663754955, 0.144000006839633, 0.11200000531971455, 1.008000047877431, 0.0, 0.0, 0.0, 0.0, 0.0, 1.6518358784499009E9, 0.0, 2022-05-06 12:17:58.449
96.0, -225.55710622761399, -146.2936665667221, -166.09082698216662, -156.05106555111706, 0.144000006839633, 0.11200000531971455, 1.008000047877431, 0.0, 0.0, 0.0, 0.0, 0.0, 1.6518358784508743E9, 0.0, 2022-05-06 12:17:58.450
96.0, -233.94570182822645, -144.71168888546526, -166.37879927875474, -153.53785278089345, 0.144000006839633, 0.11200000531971455, 1.008000047877431, 0.0, 0.0, 0.0, 0.0, 0.0, 1.6518358784508743E9, 0.0, 2022-05-06 12:17:58.450
97.0, -201.07198121771216, -54.123832158744335, -86.65909182326868, -128.55906097684056, 0.144000006839633, 0.11200000531971455, 1.008000047877431, 0.0, 0.0, 0.0, 0.0, 0.0, 1.651835878463996E9, 0.0, 2022-05-06 12:17:58.463
97.0, -179.87796816881746, -58.64911110512912, -96.82040000287816, -131.34902634378523, 0.144000006839633, 0.11200000531971455, 1.008000047877431, 0.0, 0.0, 0.0, 0.0, 0.0, 1.651835878463996E9, 0.0, 2022-05-06 12:17:58.463
98.0, -243.62830281350762, -159.86576350592077, -180.52310091117397, -175.91367421578616, 0.144000006839633, 0.11200000531971455, 1.008000047877431, 0.0, 0.0, 0.0, 0.0, 0.0, 1.6518358784809303E9, 0.0, 2022-05-06 12:17:58.480
98.0, -236.01386650372297, -149.74559422582388, -168.2113502570428, -172.20743335969746, 0.144000006839633, 0.11200000531971455, 1.008000047877431, 0.0, 0.0, 0.0, 0.0, 0.0, 1.6518358784809303E9, 0.0, 2022-05-06 12:17:58.480
99.0, -204.62862607557327, -55.2121430458501, -88.2822084040381, -131.0610540471971, 0.144000006839633, 0.11200000531971455, 1.008000047877431, 0.0, 0.0, 0.0, 0.0, 0.0, 1.6518358785269191E9, 0.0, 2022-05-06 12:17:58.526
99.0, -208.19275073334575, -75.68061550334096, -108.61978436307982, -129.40427836682647, 0.144000006839633, 0.11200000531971455, 1.008000047877431, 0.0, 0.0, 0.0, 0.0, 0.0, 1.6518358785269191E9, 0.0, 2022-05-06 12:17:58.526
100.0, -238.41862217523158, -159.28607901278883, -180.45578271197155, -172.36450915783644, 0.144000006839633, 0.11200000531971455, 1.008000047877431, 0.0, 0.0, 0.0, 0.0, 0.0, 1.6518358785278857E9, 0.0, 2022-05-06 12:17:58.527
100.0, -243.78911851160228, -151.27147340774536, -167.77378196222708, -174.29055763501674, 0.144000006839633, 0.11200000531971455, 1.008000047877431, 0.0, 0.0, 0.0, 0.0, 0.0, 1.6518358785278857E9, 0.0, 2022-05-06 12:17:58.527
0.0, -205.07741407025605, -61.790627067908645, -92.39048850536346, -132.62620217865333, 0.144000006839633, 0.11200000531971455, 1.008000047877431, 0.0, 0.0, 0.0, 0.0, 0.0, 1.6518358785288594E9, 0.0, 2022-05-06 12:17:58.528
1.0, -208.34608663152903, -87.62211606185883, -114.13426684774458, -143.74118484696373, 0.144000006839633, 0.11200000531971455, 1.008000047877431, 0.0, 0.0, 0.0, 0.0, 0.0, 1.65183587852986E9, 0.0, 2022-05-06 12:17:58.529
1.0, -248.31813735794276, -165.5578912384808, -188.33014206867665, -182.34817208955064, 0.144000006839633, 0.11200000531971455, 1.008000047877431, 0.0, 0.0, 0.0, 0.0, 0.0, 1.65183587852986E9, 0.0, 2022-05-06 12:17:58.529
2.0, -245.70394728891551, -151.01716021075845, -166.24977273028344, -162.10409362940118, 0.144000006839633, 0.11200000531971455, 1.008000047877431, 0.0, 0.0, 0.0, 0.0, 0.0, 1.6518358785398972E9, 0.0, 2022-05-06 12:17:58.539
2.0, -218.44755641184747, -71.0693188579753, -103.35213527549058, -152.6122275418602, 0.144000006839633, 0.11200000531971455, 1.008000047877431, 0.0, 0.0, 0.0, 0.0, 0.0, 1.6518358785398972E9, 0.0, 2022-05-06 12:17:58.539
3.0, -205.96377035975456, -71.66770285088569, -112.18577897083014, -147.47360500274226, 0.144000006839633, 0.11200000531971455, 1.008000047877431, 0.0, 0.0, 0.0, 0.0, 0.0, 1.6518358785869093E9, 0.0, 2022-05-06 12:17:58.586
3.0, -236.0063867038116, -154.0689185746014, -168.81160419993103, -164.64348569931462, 0.144000006839633, 0.11200000531971455, 1.008000047877431, 0.0, 0.0, 0.0, 0.0, 0.0, 1.6518358785869093E9, 0.0, 2022-05-06 12:17:58.586
4.0, -243.04487842042, -151.90725640021265, -170.2327661830932, -167.3212540675886, 0.144000006839633, 0.11200000531971455, 1.008000047877431, 0.0, 0.0, 0.0, 0.0, 0.0, 1.6518358785878596E9, 0.0, 2022-05-06 12:17:58.587
4.0, -206.56963415257633, -66.36826461367309, -96.78113105334342, -128.76662542438135, 0.144000006839633, 0.11200000531971455, 1.008000047877431, 0.0, 0.0, 0.0, 0.0, 0.0, 1.6518358785878596E9, 0.0, 2022-05-06 12:17:58.587
5.0, -205.77303546201438, -71.37225075438619, -110.43176589161158, -136.29504403518513, 0.144000006839633, 0.11200000531971455, 1.008000047877431, 0.0, 0.0, 0.0, 0.0, 0.0, 1.6518358785888662E9, 0.0, 2022-05-06 12:17:58.588
5.0, -248.32561715785414, -179.69097317103297, -198.22217745147645, -193.95308165205643, 0.144000006839633, 0.11200000531971455, 1.008000047877431, 0.0, 0.0, 0.0, 0.0, 0.0, 1.6518358785888662E9, 0.0, 2022-05-06 12:17:58.588
6.0, -251.9009615154937, -164.08437065593898, -179.79569036979228, -180.71009590895846, 0.144000006839633, 0.11200000531971455, 1.008000047877431, 0.0, 0.0, 0.0, 0.0, 0.0, 1.6518358785898728E9, 0.0, 2022-05-06 12:17:58.589
6.0, -207.1717580454424, -72.42316264193505, -105.12858775444329, -147.6045015011914, 0.144000006839633, 0.11200000531971455, 1.008000047877431, 0.0, 0.0, 0.0, 0.0, 0.0, 1.6518358785898728E9, 0.0, 2022-05-06 12:17:58.589
7.0, -197.07028826512396, -72.45682174153626, -101.28023070003837, -136.32496323483065, 0.144000006839633, 0.11200000531971455, 1.008000047877431, 0.0, 0.0, 0.0, 0.0, 0.0, 1.6518358786319036E9, 0.0, 2022-05-06 12:17:58.631
7.0, -227.95064219925553, -145.94585587084293, -159.15518251433969, -143.06052305502817, 0.144000006839633, 0.11200000531971455, 1.008000047877431, 0.0, 0.0, 0.0, 0.0, 0.0, 1.6518358786319036E9, 0.0, 2022-05-06 12:17:58.631
8.0, -226.9932278105989, -133.89963811356574, -152.4383221939206, -130.05315100913867, 0.144000006839633, 0.11200000531971455, 1.008000047877431, 0.0, 0.0, 0.0, 0.0, 0.0, 1.6518358786328635E9, 0.0, 2022-05-06 12:17:58.632
8.0, -212.08598658721894, -66.36078481376171, -102.4209001865238, -147.70547879999503, 0.144000006839633, 0.11200000531971455, 1.008000047877431, 0.0, 0.0, 0.0, 0.0, 0.0, 1.6518358786328635E9, 0.0, 2022-05-06 12:17:58.632
9.0, -196.21011127531528, -67.35933810193092, -98.4192072339356, -144.41436683898792, 0.144000006839633, 0.11200000531971455, 1.008000047877431, 0.0, 0.0, 0.0, 0.0, 0.0, 1.6518358786338468E9, 0.0, 2022-05-06 12:17:58.633
9.0, -232.54697924479842, -150.99846071098, -173.7071332419291, -155.67520560557023, 0.144000006839633, 0.11200000531971455, 1.008000047877431, 0.0, 0.0, 0.0, 0.0, 0.0, 1.6518358786338468E9, 0.0, 2022-05-06 12:17:58.633
10.0, -236.3018388003111, -151.6230240035802, -175.62944181915373, -181.76100779650733, 0.144000006839633, 0.11200000531971455, 1.0240000486373901, 0.0, 0.0, 0.0, 0.0, 0.0, 1.6518358786348765E9, 0.0, 2022-05-06 12:17:58.634
10.0, -203.77592888567597, -69.17692948039621, -99.50751812104136, -147.6045015011914, 0.144000006839633, 0.11200000531971455, 1.0240000486373901, 0.0, 0.0, 0.0, 0.0, 0.0, 1.6518358786348765E9, 0.0, 2022-05-06 12:17:58.634
11.0, -208.0618542348966, -75.75167360249907, -99.6421545194462, -141.84131566947326, 0.144000006839633, 0.12800000607967377, 1.0240000486373901, 0.0, 0.0, 0.0, 0.0, 0.0, 1.6518358786459925E9, 0.0, 2022-05-06 12:17:58.645
11.0, -243.94245440978557, -165.49431293923408, -183.31493622809649, -174.9132509776391, 0.144000006839633, 0.12800000607967377, 1.0240000486373901, 0.0, 0.0, 0.0, 0.0, 0.0, 1.6518358786459925E9, 0.0, 2022-05-06 12:17:58.645
12.0, -241.006632944569, -147.56897245161235, -171.09294317290187, -164.96511709550396, 0.144000006839633, 0.12800000607967377, 1.0240000486373901, 0.0, 0.0, 0.0, 0.0, 0.0, 1.6518358786468737E9, 0.0, 2022-05-06 12:17:58.646
12.0, -203.66747178696096, -62.69942275714129, -91.2311195190996, -124.02817218052223, 0.144000006839633, 0.12800000607967377, 1.0240000486373901, 0.0, 0.0, 0.0, 0.0, 0.0, 1.6518358786468737E9, 0.0, 2022-05-06 12:17:58.646
13.0, -203.30096159130335, -72.81585213728249, -103.03424377925694, -145.5363368256949, 0.144000006839633, 0.12800000607967377, 1.0240000486373901, 0.0, 0.0, 0.0, 0.0, 0.0, 1.6518358786478617E9, 0.0, 2022-05-06 12:17:58.647
13.0, -228.43308929353952, -148.12995744496584, -166.45546722784638, -163.36443991446868, 0.144000006839633, 0.12800000607967377, 1.0240000486373901, 0.0, 0.0, 0.0, 0.0, 0.0, 1.6518358786478617E9, 0.0, 2022-05-06 12:17:58.647
15.0, -206.64443215169013, -135.59007289353758, -152.0344129987061, -128.9685800219886, 0.144000006839633, 0.12800000607967377, 1.0240000486373901, 0.0, 0.0, 0.0, 0.0, 0.0, 1.6518358786488888E9, 0.0, 2022-05-06 12:17:58.648
15.0, -239.06188496761024, -230.7406075662002, -249.73555944114923, -199.39089618762955, 0.144000006839633, 0.12800000607967377, 1.0240000486373901, 0.0, 0.0, 0.0, 0.0, 0.0, 1.6518358786488888E9, 0.0, 2022-05-06 12:17:58.648
16.0, -281.0310422703624, -252.3422697102651, -261.03005730733275, -222.0098111196421, 0.144000006839633, 0.12800000607967377, 1.0240000486373901, 0.0, 0.0, 0.0, 0.0, 0.0, 1.6518358786919088E9, 0.0, 2022-05-06 12:17:58.691
16.0, -237.8538972819224, -159.67502860818058, -180.79798355791718, -179.53576732287183, 0.144000006839633, 0.12800000607967377, 1.0240000486373901, 0.0, 0.0, 0.0, 0.0, 0.0, 1.6518358786919088E9, 0.0, 2022-05-06 12:17:58.691
17.0, -222.87185805942863, -166.82945722341537, -186.83792198635638, -182.08637909265235, 0.144000006839633, 0.12800000607967377, 1.0240000486373901, 0.0, 0.0, 0.0, 0.0, 0.0, 1.6518358786928487E9, 0.0, 2022-05-06 12:17:58.692
17.0, -254.03270449023694, -242.09120393171906, -248.5948899546638, -197.2928123124875, 0.144000006839633, 0.12800000607967377, 1.0240000486373901, 0.0, 0.0, 0.0, 0.0, 0.0, 1.6518358786928487E9, 0.0, 2022-05-06 12:17:58.692
18.0, -269.14564021117985, -246.68006117735058, -250.94354712683707, -203.01859914464876, 0.144000006839633, 0.12800000607967377, 1.0240000486373901, 0.0, 0.0, 0.0, 0.0, 0.0, 1.6518358786938603E9, 0.0, 2022-05-06 12:17:58.693
18.0, -224.30423974245787, -153.06662538647652, -171.9680797625333, -166.77522867405787, 0.144000006839633, 0.12800000607967377, 1.0240000486373901, 0.0, 0.0, 0.0, 0.0, 0.0, 1.6518358786938603E9, 0.0, 2022-05-06 12:17:58.693
19.0, -215.2836010493338, -147.78588664904237, -164.29006515350193, -151.7183914524503, 0.144000006839633, 0.12800000607967377, 1.0240000486373901, 0.0, 0.0, 0.0, 0.0, 0.0, 1.6518358786948564E9, 0.0, 2022-05-06 12:17:58.694
19.0, -242.3380373287946, -225.7328815255314, -232.64047674369067, -175.15260457480326, 0.144000006839633, 0.12800000607967377, 1.0240000486373901, 0.0, 0.0, 0.0, 0.0, 0.0, 1.6518358786948564E9, 0.0, 2022-05-06 12:17:58.694
20.0, -247.12510927207768, -228.2236548960209, -241.86307003442198, -203.10461684362963, 0.144000006839633, 0.12800000607967377, 1.008000047877431, 0.0, 0.0, 0.0, 0.0, 0.0, 1.6518358787049048E9, 0.0, 2022-05-06 12:17:58.704
20.0, -228.22739479597658, -157.4049093350768, -173.44160034507513, -173.1367984986864, 0.144000006839633, 0.12800000607967377, 1.008000047877431, 0.0, 0.0, 0.0, 0.0, 0.0, 1.6518358787049048E9, 0.0, 2022-05-06 12:17:58.704
21.0, -220.0706729926169, -145.583085575141, -172.06531716138124, -170.1785376337357, 0.144000006839633, 0.11200000531971455, 1.008000047877431, 0.0, 0.0, 0.0, 0.0, 0.0, 1.6518358787058551E9, 0.0, 2022-05-06 12:17:58.705
21.0, -251.95332011487335, -233.20520163699985, -244.3014848055318, -194.7048015431501, 0.144000006839633, 0.11200000531971455, 1.008000047877431, 0.0, 0.0, 0.0, 0.0, 0.0, 1.6518358787058551E9, 0.0, 2022-05-06 12:17:58.705
22.0, -251.7812847169116, -234.45432822220027, -239.4470946630463, -184.07974576903507, 0.1600000075995922, 0.11200000531971455, 1.008000047877431, 0.0, 0.0, 0.0, 0.0, 0.0, 1.6518358787189212E9, 0.0, 2022-05-06 12:17:58.718
22.0, -224.435136240907, -151.96709479950368, -163.4859866630286, -159.0598150654696, 0.1600000075995922, 0.11200000531971455, 1.008000047877431, 0.0, 0.0, 0.0, 0.0, 0.0, 1.6518358787189212E9, 0.0, 2022-05-06 12:17:58.718
23.0, -199.26186963915825, -151.39489010628313, -170.74139257706702, -163.77582890959457, 0.1600000075995922, 0.11200000531971455, 1.008000047877431, 0.0, 0.0, 0.0, 0.0, 0.0, 1.651835878750948E9, 0.0, 2022-05-06 12:17:58.750
23.0, -262.36894149146974, -241.1188299432397, -251.17168102413416, -202.68948794854805, 0.1600000075995922, 0.11200000531971455, 1.008000047877431, 0.0, 0.0, 0.0, 0.0, 0.0, 1.651835878750948E9, 0.0, 2022-05-06 12:17:58.750
24.0, -272.1300803758204, -236.61599039658904, -245.58053059037775, -183.8104729722254, 0.1600000075995922, 0.11200000531971455, 1.008000047877431, 0.0, 0.0, 0.0, 0.0, 0.0, 1.6518358787518733E9, 0.0, 2022-05-06 12:17:58.751
24.0, -241.32078454084694, -159.66006900835782, -180.11732176598161, -179.292673825752, 0.1600000075995922, 0.11200000531971455, 1.008000047877431, 0.0, 0.0, 0.0, 0.0, 0.0, 1.6518358787518733E9, 0.0, 2022-05-06 12:17:58.751
25.0, -220.5830392865464, -155.13105016201735, -177.89208129234612, -175.41813747165725, 0.1600000075995922, 0.11200000531971455, 1.008000047877431, 0.0, 0.0, 0.0, 0.0, 0.0, 1.65183587876491E9, 0.0, 2022-05-06 12:17:58.764
25.0, -265.52167715411633, -239.57051136158407, -257.43975334987044, -213.194866924081, 0.1600000075995922, 0.11200000531971455, 1.008000047877431, 0.0, 0.0, 0.0, 0.0, 0.0, 1.65183587876491E9, 0.0, 2022-05-06 12:17:58.764
26.0, -272.2721965741366, -247.22234667092562, -256.40006116218865, -220.8280027336441, 0.1600000075995922, 0.11200000531971455, 1.008000047877431, 0.0, 0.0, 0.0, 0.0, 0.0, 1.651835878765859E9, 0.0, 2022-05-06 12:17:58.765
26.0, -244.90360869839787, -174.07364343758672, -193.51738330721855, -195.75945333065465, 0.1600000075995922, 0.11200000531971455, 1.008000047877431, 0.0, 0.0, 0.0, 0.0, 0.0, 1.651835878765859E9, 0.0, 2022-05-06 12:17:58.765
27.0, -217.4714425234124, -152.49442069325596, -173.0115118501708, -167.7251632628031, 0.1600000075995922, 0.11200000531971455, 1.008000047877431, 0.0, 0.0, 0.0, 0.0, 0.0, 1.6518358787799218E9, 0.0, 2022-05-06 12:17:58.779
27.0, -255.72687917016447, -244.36880300473422, -253.1239088010043, -207.09135019639507, 0.1600000075995922, 0.11200000531971455, 1.008000047877431, 0.0, 0.0, 0.0, 0.0, 0.0, 1.6518358787799218E9, 0.0, 2022-05-06 12:17:58.779
28.0, -275.33891453780234, -251.4559134207666, -261.21705230511725, -212.79843752877787, 0.1600000075995922, 0.11200000531971455, 1.008000047877431, 0.0, 0.0, 0.0, 0.0, 0.0, 1.6518358787808523E9, 0.0, 2022-05-06 12:17:58.780
28.0, -238.53455907385796, -160.49406669847667, -182.08076924271882, -176.82433985499665, 0.1600000075995922, 0.11200000531971455, 1.008000047877431, 0.0, 0.0, 0.0, 0.0, 0.0, 1.6518358787808523E9, 0.0, 2022-05-06 12:17:58.780
29.0, -224.09480534493923, -162.77166577149183, -182.35378193948418, -179.79756031977013, 0.1600000075995922, 0.11200000531971455, 1.008000047877431, 0.0, 0.0, 0.0, 0.0, 0.0, 1.651835878810952E9, 0.0, 2022-05-06 12:17:58.810
29.0, -254.85174258053303, -243.83399731107056, -253.94668679125607, -204.67911472497508, 0.1600000075995922, 0.11200000531971455, 1.008000047877431, 0.0, 0.0, 0.0, 0.0, 0.0, 1.651835878810952E9, 0.0, 2022-05-06 12:17:58.810
30.0, -269.0072639128193, -254.63108848314732, -256.6319349594414, -209.06975727295503, 0.1600000075995922, 0.11200000531971455, 1.008000047877431, 0.0, 0.0, 0.0, 0.0, 0.0, 1.6518358788118787E9, 0.0, 2022-05-06 12:17:58.811
30.0, -229.05017278622836, -166.68360112514347, -183.4159135269001, -180.28000741405413, 0.1600000075995922, 0.11200000531971455, 1.008000047877431, 0.0, 0.0, 0.0, 0.0, 0.0, 1.6518358788118787E9, 0.0, 2022-05-06 12:17:58.811
31.0, -220.4409230882302, -157.02717943955213, -177.33109629899263, -170.30943413218483, 0.1600000075995922, 0.11200000531971455, 1.008000047877431, 0.0, 0.0, 0.0, 0.0, 0.0, 1.65183587881288E9, 0.0, 2022-05-06 12:17:58.812
31.0, -257.5743897482753, -230.76304696593434, -240.32223125267774, -190.52733329264447, 0.1600000075995922, 0.11200000531971455, 1.008000047877431, 0.0, 0.0, 0.0, 0.0, 0.0, 1.65183587881288E9, 0.0, 2022-05-06 12:17:58.812
32.0, -264.47450516652316, -241.4105421397835, -248.36301615741104, -193.78478615405038, 0.1600000075995922, 0.11200000531971455, 1.008000047877431, 0.0, 0.0, 0.0, 0.0, 0.0, 1.6518358788249445E9, 0.0, 2022-05-06 12:17:58.824
32.0, -222.83445905987173, -157.83499782998115, -177.52183119673282, -166.7303498745896, 0.1600000075995922, 0.11200000531971455, 1.008000047877431, 0.0, 0.0, 0.0, 0.0, 0.0, 1.6518358788249445E9, 0.0, 2022-05-06 12:17:58.824
33.0, -223.4777218522504, -143.29800670221448, -166.35075002908707, -174.6215387810953, 0.1600000075995922, 0.11200000531971455, 1.008000047877431, 0.0, 0.0, 0.0, 0.0, 0.0, 1.6518358788258624E9, 0.0, 2022-05-06 12:17:58.825
33.0, -248.96140015032142, -233.2949592359364, -244.12570950761437, -202.35663685249165, 0.1600000075995922, 0.11200000531971455, 1.008000047877431, 0.0, 0.0, 0.0, 0.0, 0.0, 1.6518358788258624E9, 0.0, 2022-05-06 12:17:58.825
34.0, -265.8620080500841, -240.21377415396273, -248.6397687541321, -198.94958799285814, 0.1600000075995922, 0.11200000531971455, 1.008000047877431, 0.0, 0.0, 0.0, 0.0, 0.0, 1.65183587887291E9, 0.0, 2022-05-06 12:17:58.872
34.0, -253.36326239816844, -174.32795663457364, -191.24726403411478, -185.95343564683571, 0.1600000075995922, 0.11200000531971455, 1.008000047877431, 0.0, 0.0, 0.0, 0.0, 0.0, 1.65183587887291E9, 0.0, 2022-05-06 12:17:58.872
35.0, -233.9232624284923, -157.94345492869616, -181.28043065220118, -182.86427828343585, 0.1600000075995922, 0.11200000531971455, 1.008000047877431, 0.0, 0.0, 0.0, 0.0, 0.0, 1.6518358788738694E9, 0.0, 2022-05-06 12:17:58.873
35.0, -257.8174832453951, -236.16346250195056, -243.75919931195676, -198.86731019383296, 0.1600000075995922, 0.11200000531971455, 1.008000047877431, 0.0, 0.0, 0.0, 0.0, 0.0, 1.6518358788738694E9, 0.0, 2022-05-06 12:17:58.873
36.0, -273.5288029592484, -248.16480145975947, -257.73146554641426, -211.54557104362175, 0.1600000075995922, 0.11200000531971455, 1.008000047877431, 0.0, 0.0, 0.0, 0.0, 0.0, 1.651835878874854E9, 0.0, 2022-05-06 12:17:58.874
36.0, -248.5238318555057, -165.32601744122803, -182.37622133921832, -182.65484388591722, 0.1600000075995922, 0.11200000531971455, 1.008000047877431, 0.0, 0.0, 0.0, 0.0, 0.0, 1.651835878874854E9, 0.0, 2022-05-06 12:17:58.874
37.0, -243.21317391842604, -165.44195433985442, -184.32096931617707, -181.01676770532504, 0.1600000075995922, 0.11200000531971455, 1.008000047877431, 0.0, 0.0, 0.0, 0.0, 0.0, 1.6518358788758547E9, 0.0, 2022-05-06 12:17:58.875
37.0, -249.9300342388451, -227.65519010275602, -237.13209659047425, -195.20968803716823, 0.1600000075995922, 0.11200000531971455, 1.008000047877431, 0.0, 0.0, 0.0, 0.0, 0.0, 1.6518358788758547E9, 0.0, 2022-05-06 12:17:58.875
38.0, -250.6406152304262, -235.28458601236343, -242.58487072587013, -193.4070562585257, 0.1600000075995922, 0.11200000531971455, 1.008000047877431, 0.0, 0.0, 0.0, 0.0, 0.0, 1.651835878884928E9, 0.0, 2022-05-06 12:17:58.884
38.0, -247.11014967225492, -160.68106169626117, -180.3043167637661, -170.6198458285071, 0.1600000075995922, 0.11200000531971455, 1.008000047877431, 0.0, 0.0, 0.0, 0.0, 0.0, 1.651835878884928E9, 0.0, 2022-05-06 12:17:58.884
39.0, -224.46131554059684, -145.0295803816989, -167.36800281703472, -170.22341643320397, 0.1600000075995922, 0.11200000531971455, 1.008000047877431, 0.0, 0.0, 0.0, 0.0, 0.0, 1.6518358788858614E9, 0.0, 2022-05-06 12:17:58.885
39.0, -249.11099614854902, -232.12063064984977, -245.97695998568088, -197.60696390876547, 0.1600000075995922, 0.11200000531971455, 1.008000047877431, 0.0, 0.0, 0.0, 0.0, 0.0, 1.6518358788858614E9, 0.0, 2022-05-06 12:17:58.885
40.0, -278.99653669446707, -248.9314809506759, -257.795043845661, -203.23177344212309, 0.1600000075995922, 0.11200000531971455, 1.0240000486373901, 0.0, 0.0, 0.0, 0.0, 0.0, 1.6518358788988876E9, 0.0, 2022-05-06 12:17:58.898
40.0, -255.91761406790465, -158.68769501987845, -179.3057634755969, -170.94147722469643, 0.1600000075995922, 0.11200000531971455, 1.0240000486373901, 0.0, 0.0, 0.0, 0.0, 0.0, 1.6518358788988876E9, 0.0, 2022-05-06 12:17:58.898
41.0, -223.60487845074385, -147.30717945471406, -168.34785660542548, -161.25139643950388, 0.1600000075995922, 0.11200000531971455, 1.0240000486373901, 0.0, 0.0, 0.0, 0.0, 0.0, 1.6518358789309032E9, 0.0, 2022-05-06 12:17:58.930
41.0, -270.37232739664614, -243.75919931195676, -252.91073450352997, -203.35893004061654, 0.1600000075995922, 0.11200000531971455, 1.0240000486373901, 0.0, 0.0, 0.0, 0.0, 0.0, 1.6518358789309032E9, 0.0, 2022-05-06 12:17:58.930
42.0, -258.73001883458346, -225.33645213022828, -230.91264296416193, -166.58823367627338, 0.1600000075995922, 0.11200000531971455, 1.0240000486373901, 0.0, 0.0, 0.0, 0.0, 0.0, 1.6518358789318647E9, 0.0, 2022-05-06 12:17:58.931
42.0, -237.8538972819224, -153.02548648696393, -175.4200074216351, -159.7255172575824, 0.1600000075995922, 0.11200000531971455, 1.0240000486373901, 0.0, 0.0, 0.0, 0.0, 0.0, 1.6518358789318647E9, 0.0, 2022-05-06 12:17:58.931
43.0, -230.24694077204913, -156.12960345018655, -180.87278155703098, -189.86163110053167, 0.1600000075995922, 0.11200000531971455, 1.0240000486373901, 0.0, 0.0, 0.0, 0.0, 0.0, 1.6518358789328551E9, 0.0, 2022-05-06 12:17:58.932
43.0, -255.15093457698822, -228.46674839314073, -244.5969369020313, -201.3356441645883, 0.1600000075995922, 0.11200000531971455, 1.0240000486373901, 0.0, 0.0, 0.0, 0.0, 0.0, 1.6518358789328551E9, 0.0, 2022-05-06 12:17:58.932
44.0, -271.88324697874486, -239.7088876599446, -250.3750823335722, -190.91628288803622, 0.1600000075995922, 0.11200000531971455, 1.0240000486373901, 0.0, 0.0, 0.0, 0.0, 0.0, 1.651835878960904E9, 0.0, 2022-05-06 12:17:58.960
44.0, -245.49451289139688, -169.2641320945695, -179.47031907364726, -166.59945337614045, 0.1600000075995922, 0.11200000531971455, 1.0240000486373901, 0.0, 0.0, 0.0, 0.0, 0.0, 1.651835878960904E9, 0.0, 2022-05-06 12:17:58.960
45.0, -210.75084230303764, -139.19159655086696, -166.9341744221747, -167.25393586838618, 0.1600000075995922, 0.11200000531971455, 1.0240000486373901, 0.0, 0.0, 0.0, 0.0, 0.0, 1.651835878961876E9, 0.0, 2022-05-06 12:17:58.961
45.0, -248.38545555714518, -236.8142050942406, -253.14634820073843, -221.69565952336416, 0.1600000075995922, 0.11200000531971455, 1.0240000486373901, 0.0, 0.0, 0.0, 0.0, 0.0, 1.651835878961876E9, 0.0, 2022-05-06 12:17:58.961
46.0, -295.0294878045097, -266.1612000465393, -275.391273137182, -228.00861064856872, 0.1600000075995922, 0.11200000531971455, 1.0240000486373901, 0.0, 0.0, 0.0, 0.0, 0.0, 1.6518358789919076E9, 0.0, 2022-05-06 12:17:58.991
46.0, -256.5608768602833, -177.37223519850522, -200.19310472812504, -201.02897236822173, 0.1600000075995922, 0.11200000531971455, 1.0240000486373901, 0.0, 0.0, 0.0, 0.0, 0.0, 1.6518358789919076E9, 0.0, 2022-05-06 12:17:58.991
47.0, -230.0337664745748, -158.65777582023293, -174.92260072752833, -177.92761034192517, 0.1600000075995922, 0.11200000531971455, 1.0240000486373901, 0.0, 0.0, 0.0, 0.0, 0.0, 1.6518358789928968E9, 0.0, 2022-05-06 12:17:58.992
47.0, -270.566802194342, -237.73422048334032, -249.43262754473835, -204.17422823095694, 0.1600000075995922, 0.11200000531971455, 1.0240000486373901, 0.0, 0.0, 0.0, 0.0, 0.0, 1.6518358789928968E9, 0.0, 2022-05-06 12:17:58.992
48.0, -275.89241973124444, -253.06407040171325, -258.1952131409198, -204.79879152355716, 0.1600000075995922, 0.11200000531971455, 1.0240000486373901, 0.0, 0.0, 0.0, 0.0, 0.0, 1.6518358789938612E9, 0.0, 2022-05-06 12:17:58.993
48.0, -241.98648673295975, -171.5267715677619, -189.78122325148433, -178.85136563098058, 0.1600000075995922, 0.11200000531971455, 1.0240000486373901, 0.0, 0.0, 0.0, 0.0, 0.0, 1.6518358789938612E9, 0.0, 2022-05-06 12:17:58.993
49.0, -218.59341251011938, -149.4763214290142, -167.14360881969333, -170.77692162664607, 0.1600000075995922, 0.11200000531971455, 1.0240000486373901, 0.0, 0.0, 0.0, 0.0, 0.0, 1.6518358789948633E9, 0.0, 2022-05-06 12:17:58.994
49.0, -245.7114270888269, -222.00420126970857, -233.97562102787197, -194.52902624523267, 0.1600000075995922, 0.11200000531971455, 1.0240000486373901, 0.0, 0.0, 0.0, 0.0, 0.0, 1.6518358789948633E9, 0.0, 2022-05-06 12:17:58.994
50.0, -277.8296879082918, -247.90300846286118, -257.312596751377, -199.60781038505957, 0.1600000075995922, 0.11200000531971455, 1.0240000486373901, 0.0, 0.0, 0.0, 0.0, 0.0, 1.6518358790059745E9, 0.0, 2022-05-06 12:17:59.005
50.0, -237.71552098356187, -163.82631755899638, -185.21106550563127, -177.9163906420581, 0.1600000075995922, 0.11200000531971455, 1.0240000486373901, 0.0, 0.0, 0.0, 0.0, 0.0, 1.6518358790059745E9, 0.0, 2022-05-06 12:17:59.005
51.0, -223.26454755477607, -149.93258922360837, -175.457406421192, -176.9589762534015, 0.1600000075995922, 0.11200000531971455, 1.0240000486373901, 0.0, 0.0, 0.0, 0.0, 0.0, 1.651835879006864E9, 0.0, 2022-05-06 12:17:59.006
51.0, -261.21705230511725, -227.8833240000531, -240.45312775112689, -199.01690619206056, 0.1600000075995922, 0.11200000531971455, 1.0240000486373901, 0.0, 0.0, 0.0, 0.0, 0.0, 1.651835879006864E9, 0.0, 2022-05-06 12:17:59.006
52.0, -279.9389914833009, -249.24937244690955, -252.50308540835977, -186.79117323691025, 0.1600000075995922, 0.11200000531971455, 1.0240000486373901, 0.0, 0.0, 0.0, 0.0, 0.0, 1.6518358790189767E9, 0.0, 2022-05-06 12:17:59.018
52.0, -243.5572447143495, -165.5990301379934, -193.07607511244714, -175.41439757170156, 0.1600000075995922, 0.11200000531971455, 1.0240000486373901, 0.0, 0.0, 0.0, 0.0, 0.0, 1.6518358790189767E9, 0.0, 2022-05-06 12:17:59.018
53.0, -228.70984189026058, -146.1440705684945, -170.3038242822513, -179.92845681821927, 0.1600000075995922, 0.11200000531971455, 1.0240000486373901, 0.0, 0.0, 0.0, 0.0, 0.0, 1.6518358790819082E9, 0.0, 2022-05-06 12:17:59.081
53.0, -260.7196456110105, -234.09155792649835, -246.02931858506054, -204.51081922696903, 0.1600000075995922, 0.11200000531971455, 1.0240000486373901, 0.0, 0.0, 0.0, 0.0, 0.0, 1.6518358790819082E9, 0.0, 2022-05-06 12:17:59.081
54.0, -274.04490915313363, -252.44324700906873, -262.4512192904949, -204.7464329241775, 0.1600000075995922, 0.11200000531971455, 1.0240000486373901, 0.0, 0.0, 0.0, 0.0, 0.0, 1.6518358790828547E9, 0.0, 2022-05-06 12:17:59.082
54.0, -243.2243936182931, -176.47839910909534, -198.9065791433677, -187.6663098265417, 0.1600000075995922, 0.11200000531971455, 1.0240000486373901, 0.0, 0.0, 0.0, 0.0, 0.0, 1.6518358790828547E9, 0.0, 2022-05-06 12:17:59.082
55.0, -223.72455524932593, -152.23636759631336, -175.39756802190095, -175.09650607546791, 0.1600000075995922, 0.11200000531971455, 1.0240000486373901, 0.0, 0.0, 0.0, 0.0, 0.0, 1.651835879083848E9, 0.0, 2022-05-06 12:17:59.083
55.0, -250.87248902767897, -234.62262372020632, -245.94704078603536, -202.49127325089648, 0.1600000075995922, 0.11200000531971455, 1.0240000486373901, 0.0, 0.0, 0.0, 0.0, 0.0, 1.651835879083848E9, 0.0, 2022-05-06 12:17:59.083
56.0, -286.89894530083984, -255.46882607322186, -265.02801035996526, -209.62700236635283, 0.1600000075995922, 0.11200000531971455, 1.0240000486373901, 0.0, 0.0, 0.0, 0.0, 0.0, 1.6518358790848763E9, 0.0, 2022-05-06 12:17:59.084
56.0, -262.0510499952361, -187.62330097705126, -208.14413203392178, -203.27665224159136, 0.1600000075995922, 0.11200000531971455, 1.0240000486373901, 0.0, 0.0, 0.0, 0.0, 0.0, 1.6518358790848763E9, 0.0, 2022-05-06 12:17:59.084
57.0, -229.7794532775879, -150.81894551310688, -175.6780605185777, -180.5530201108195, 0.1600000075995922, 0.11200000531971455, 1.0240000486373901, 0.0, 0.0, 0.0, 0.0, 0.0, 1.651835879094896E9, 0.0, 2022-05-06 12:17:59.094
57.0, -249.4101881450042, -229.05017278622836, -240.78971874713898, -202.61095004947856, 0.1600000075995922, 0.11200000531971455, 1.0240000486373901, 0.0, 0.0, 0.0, 0.0, 0.0, 1.651835879094896E9, 0.0, 2022-05-06 12:17:59.094
58.0, -275.14443974010646, -251.84486301615834, -262.2305651931092, -203.36266994057223, 0.1600000075995922, 0.11200000531971455, 1.0240000486373901, 0.0, 0.0, 0.0, 0.0, 0.0, 1.6518358791119182E9, 0.0, 2022-05-06 12:17:59.111
58.0, -251.22403962351382, -168.10102320834994, -185.92164649721235, -182.96525558223948, 0.1600000075995922, 0.11200000531971455, 1.0240000486373901, 0.0, 0.0, 0.0, 0.0, 0.0, 1.6518358791119182E9, 0.0, 2022-05-06 12:17:59.111
59.0, -229.57001888006926, -148.45532874111086, -168.72558650095016, -174.53926098207012, 0.1600000075995922, 0.11200000531971455, 1.0240000486373901, 0.0, 0.0, 0.0, 0.0, 0.0, 1.6518358791128917E9, 0.0, 2022-05-06 12:17:59.112
59.0, -244.60815660189837, -224.7343282373622, -235.76703310664743, -195.3368446356617, 0.1600000075995922, 0.11200000531971455, 1.0240000486373901, 0.0, 0.0, 0.0, 0.0, 0.0, 1.6518358791128917E9, 0.0, 2022-05-06 12:17:59.112
60.0, -267.37292763218284, -239.4807537626475, -250.12824893649668, -188.23103471985087, 0.1600000075995922, 0.11200000531971455, 1.008000047877431, 0.0, 0.0, 0.0, 0.0, 0.0, 1.6518358791419053E9, 0.0, 2022-05-06 12:17:59.141
60.0, -249.4101881450042, -167.19596741907299, -191.39686003234237, -177.09361265180632, 0.1600000075995922, 0.11200000531971455, 1.008000047877431, 0.0, 0.0, 0.0, 0.0, 0.0, 1.6518358791419053E9, 0.0, 2022-05-06 12:17:59.141
61.0, -221.6264713741839, -147.8494649482891, -172.2635318590328, -173.46216979483142, 0.1600000075995922, 0.11200000531971455, 1.008000047877431, 0.0, 0.0, 0.0, 0.0, 0.0, 1.6518358791428704E9, 0.0, 2022-05-06 12:17:59.142
61.0, -246.77729857619852, -216.91045753005892, -226.24898771941662, -187.82338562468067, 0.1600000075995922, 0.11200000531971455, 1.008000047877431, 0.0, 0.0, 0.0, 0.0, 0.0, 1.6518358791428704E9, 0.0, 2022-05-06 12:17:59.142
62.0, -268.0199303245172, -245.5244320910424, -251.8635625159368, -200.16505547845736, 0.144000006839633, 0.11200000531971455, 1.008000047877431, 0.0, 0.0, 0.0, 0.0, 0.0, 1.6518358791438563E9, 0.0, 2022-05-06 12:17:59.143
62.0, -251.13428202457726, -176.41108090989292, -191.51653683092445, -178.9897419293411, 0.144000006839633, 0.11200000531971455, 1.008000047877431, 0.0, 0.0, 0.0, 0.0, 0.0, 1.6518358791438563E9, 0.0, 2022-05-06 12:17:59.143
63.0, -216.55516703426838, -147.78962654899806, -168.7854249002412, -167.88223906094208, 0.144000006839633, 0.11200000531971455, 1.008000047877431, 0.0, 0.0, 0.0, 0.0, 0.0, 1.651835879144853E9, 0.0, 2022-05-06 12:17:59.144
63.0, -253.51659829635173, -220.4371831882745, -231.90745635237545, -189.90650989999995, 0.144000006839633, 0.11200000531971455, 1.008000047877431, 0.0, 0.0, 0.0, 0.0, 0.0, 1.651835879144853E9, 0.0, 2022-05-06 12:17:59.144
64.0, -275.62688683439046, -258.6739203352481, -263.6741665760055, -221.96867222012952, 0.144000006839633, 0.11200000531971455, 1.008000047877431, 0.0, 0.0, 0.0, 0.0, 0.0, 1.6518358791549072E9, 0.0, 2022-05-06 12:17:59.154
64.0, -258.31862983945757, -180.74188505858183, -202.6165598994121, -189.21088850824162, 0.144000006839633, 0.11200000531971455, 1.008000047877431, 0.0, 0.0, 0.0, 0.0, 0.0, 1.6518358791549072E9, 0.0, 2022-05-06 12:17:59.154
65.0, -224.33789884205908, -149.16216983273625, -161.64969578478485, -160.22292395168915, 0.144000006839633, 0.11200000531971455, 1.008000047877431, 0.0, 0.0, 0.0, 0.0, 0.0, 1.6518358791869116E9, 0.0, 2022-05-06 12:17:59.186
65.0, -250.68549402989447, -235.17238901369274, -243.80781801138073, -204.5631778263487, 0.144000006839633, 0.11200000531971455, 1.008000047877431, 0.0, 0.0, 0.0, 0.0, 0.0, 1.6518358791869116E9, 0.0, 2022-05-06 12:17:59.186
66.0, -269.77768330369145, -250.75655212905258, -259.36580182705075, -208.55365107906982, 0.144000006839633, 0.11200000531971455, 1.008000047877431, 0.0, 0.0, 0.0, 0.0, 0.0, 1.651835879187848E9, 0.0, 2022-05-06 12:17:59.187
66.0, -251.40355482138693, -173.91656763944775, -192.25329712219536, -180.71757570886984, 0.144000006839633, 0.11200000531971455, 1.008000047877431, 0.0, 0.0, 0.0, 0.0, 0.0, 1.651835879187848E9, 0.0, 2022-05-06 12:17:59.187
67.0, -227.43079610541463, -153.05166578665376, -170.13552878424525, -177.1796303507872, 0.144000006839633, 0.11200000531971455, 1.008000047877431, 0.0, 0.0, 0.0, 0.0, 0.0, 1.651835879188872E9, 0.0, 2022-05-06 12:17:59.188
67.0, -234.91433591675013, -216.5140281347558, -223.22714855521917, -179.37121172482148, 0.144000006839633, 0.11200000531971455, 1.008000047877431, 0.0, 0.0, 0.0, 0.0, 0.0, 1.651835879188872E9, 0.0, 2022-05-06 12:17:59.188
68.0, -262.0921888947487, -248.1909807594493, -264.0593762714416, -211.24637904716656, 0.144000006839633, 0.11200000531971455, 1.008000047877431, 0.0, 0.0, 0.0, 0.0, 0.0, 1.6518358791898594E9, 0.0, 2022-05-06 12:17:59.189
68.0, -248.16854135971516, -178.86819518078119, -201.21409741602838, -196.38027672329918, 0.144000006839633, 0.11200000531971455, 1.008000047877431, 0.0, 0.0, 0.0, 0.0, 0.0, 1.6518358791898594E9, 0.0, 2022-05-06 12:17:59.189
69.0, -220.74385498464108, -144.401277189143, -171.65392816625535, -175.8818850661628, 0.144000006839633, 0.11200000531971455, 1.008000047877431, 0.0, 0.0, 0.0, 0.0, 0.0, 1.6518358792169745E9, 0.0, 2022-05-06 12:17:59.216
69.0, -251.1604613242671, -223.38422435335815, -232.41234284639359, -186.43214284116402, 0.144000006839633, 0.11200000531971455, 1.008000047877431, 0.0, 0.0, 0.0, 0.0, 0.0, 1.6518358792169745E9, 0.0, 2022-05-06 12:17:59.216
70.0, -268.66319311689585, -260.17736011743546, -268.73799111600965, -208.36665608128533, 0.144000006839633, 0.11200000531971455, 1.0240000486373901, 0.0, 0.0, 0.0, 0.0, 0.0, 1.6518358792178757E9, 0.0, 2022-05-06 12:17:59.217
70.0, -258.337329339236, -178.09029598999768, -194.8375679915771, -185.71034214971587, 0.144000006839633, 0.11200000531971455, 1.0240000486373901, 0.0, 0.0, 0.0, 0.0, 0.0, 1.6518358792178757E9, 0.0, 2022-05-06 12:17:59.217
71.0, -227.20640210807323, -147.71108864992857, -166.09269693214446, -178.54095393465832, 0.144000006839633, 0.11200000531971455, 1.0240000486373901, 0.0, 0.0, 0.0, 0.0, 0.0, 1.651835879218857E9, 0.0, 2022-05-06 12:17:59.218
71.0, -248.81180415209383, -215.30230054911226, -230.68076916690916, -188.20111552020535, 0.144000006839633, 0.11200000531971455, 1.0240000486373901, 0.0, 0.0, 0.0, 0.0, 0.0, 1.651835879218857E9, 0.0, 2022-05-06 12:17:59.218
72.0, -258.9357133321464, -236.339237799868, -252.96683300286531, -196.15962262591347, 0.144000006839633, 0.11200000531971455, 1.0240000486373901, 0.0, 0.0, 0.0, 0.0, 0.0, 1.6518358792198603E9, 0.0, 2022-05-06 12:17:59.219
72.0, -236.13354330230504, -169.77275848854333, -186.44523249100894, -171.9923891122453, 0.144000006839633, 0.11200000531971455, 1.0240000486373901, 0.0, 0.0, 0.0, 0.0, 0.0, 1.6518358792198603E9, 0.0, 2022-05-06 12:17:59.219
73.0, -229.49148098099977, -149.78673312533647, -174.29429753497243, -178.49607513519004, 0.144000006839633, 0.11200000531971455, 1.0240000486373901, 0.0, 0.0, 0.0, 0.0, 0.0, 1.6518358792458994E9, 0.0, 2022-05-06 12:17:59.245
73.0, -245.65906848944724, -222.75592116080225, -236.7805459946394, -197.84631750592962, 0.144000006839633, 0.11200000531971455, 1.0240000486373901, 0.0, 0.0, 0.0, 0.0, 0.0, 1.6518358792458994E9, 0.0, 2022-05-06 12:17:59.245
74.0, -270.7650168919936, -243.68440131284297, -256.47111926134676, -199.28991888882592, 0.144000006839633, 0.11200000531971455, 1.0240000486373901, 0.0, 0.0, 0.0, 0.0, 0.0, 1.6518358792468734E9, 0.0, 2022-05-06 12:17:59.246
74.0, -252.13283531274647, -185.42797970306128, -196.22133097518235, -185.0708192572929, 0.144000006839633, 0.11200000531971455, 1.0240000486373901, 0.0, 0.0, 0.0, 0.0, 0.0, 1.6518358792468734E9, 0.0, 2022-05-06 12:17:59.246
75.0, -220.63539788592607, -142.37425141315907, -167.99256610963494, -168.36468615522608, 0.144000006839633, 0.11200000531971455, 1.0240000486373901, 0.0, 0.0, 0.0, 0.0, 0.0, 1.651835879247864E9, 0.0, 2022-05-06 12:17:59.247
75.0, -245.67402808927, -221.49931477569044, -235.32572491187602, -195.14236983796582, 0.144000006839633, 0.11200000531971455, 1.0240000486373901, 0.0, 0.0, 0.0, 0.0, 0.0, 1.651835879247864E9, 0.0, 2022-05-06 12:17:59.247
76.0, -268.70433201640844, -253.7896109931171, -263.0122042838484, -202.06118475599214, 0.144000006839633, 0.11200000531971455, 1.0240000486373901, 0.0, 0.0, 0.0, 0.0, 0.0, 1.651835879258911E9, 0.0, 2022-05-06 12:17:59.258
76.0, -240.72614044789225, -183.92453992087394, -198.3867330495268, -168.6563983517699, 0.144000006839633, 0.11200000531971455, 1.0240000486373901, 0.0, 0.0, 0.0, 0.0, 0.0, 1.651835879258911E9, 0.0, 2022-05-06 12:17:59.258
77.0, -207.34753334335983, -136.3978912839666, -162.8502036705613, -176.04270076425746, 0.144000006839633, 0.11200000531971455, 1.0240000486373901, 0.0, 0.0, 0.0, 0.0, 0.0, 1.6518358792758987E9, 0.0, 2022-05-06 12:17:59.275
77.0, -268.1732662227005, -234.86945711728185, -246.46688687987626, -212.7498188293539, 0.144000006839633, 0.11200000531971455, 1.0240000486373901, 0.0, 0.0, 0.0, 0.0, 0.0, 1.6518358792758987E9, 0.0, 2022-05-06 12:17:59.275
78.0, -275.84754093177617, -248.9314809506759, -261.9425928965211, -208.8191839759238, 0.144000006839633, 0.11200000531971455, 1.0240000486373901, 0.0, 0.0, 0.0, 0.0, 0.0, 1.6518358792768507E9, 0.0, 2022-05-06 12:17:59.276
78.0, -244.69043440092355, -183.63656762428582, -196.3484875736758, -181.29726020200178, 0.144000006839633, 0.11200000531971455, 1.0240000486373901, 0.0, 0.0, 0.0, 0.0, 0.0, 1.6518358792768507E9, 0.0, 2022-05-06 12:17:59.276
79.0, -229.5214001806453, -151.31261230725795, -172.61508245486766, -171.6969370157458, 0.144000006839633, 0.11200000531971455, 1.0240000486373901, 0.0, 0.0, 0.0, 0.0, 0.0, 1.6518358793219202E9, 0.0, 2022-05-06 12:17:59.321
79.0, -244.71661370061338, -211.30808739643544, -224.42391654103994, -189.28194660739973, 0.144000006839633, 0.11200000531971455, 1.0240000486373901, 0.0, 0.0, 0.0, 0.0, 0.0, 1.6518358793219202E9, 0.0, 2022-05-06 12:17:59.321
80.0, -267.7917964272201, -246.58282377850264, -261.01509770751, -202.99615974491462, 0.144000006839633, 0.11200000531971455, 1.008000047877431, 0.0, 0.0, 0.0, 0.0, 0.0, 1.6518358793228543E9, 0.0, 2022-05-06 12:17:59.322
80.0, -253.15008810069412, -182.1593071417883, -198.64478614646941, -187.5129739283584, 0.144000006839633, 0.11200000531971455, 1.008000047877431, 0.0, 0.0, 0.0, 0.0, 0.0, 1.6518358793228543E9, 0.0, 2022-05-06 12:17:59.322
81.0, -216.01288154069334, -138.75402825605124, -158.45956112258136, -168.49932255363092, 0.144000006839633, 0.11200000531971455, 1.008000047877431, 0.0, 0.0, 0.0, 0.0, 0.0, 1.6518358793238559E9, 0.0, 2022-05-06 12:17:59.323
81.0, -236.27565950062126, -209.85700621362776, -223.2907268544659, -186.68271613819525, 0.144000006839633, 0.11200000531971455, 1.008000047877431, 0.0, 0.0, 0.0, 0.0, 0.0, 1.6518358793238559E9, 0.0, 2022-05-06 12:17:59.323
82.0, -271.0941280880943, -252.4208076093346, -264.0818156711757, -202.28557875333354, 0.1600000075995922, 0.11200000531971455, 1.008000047877431, 0.0, 0.0, 0.0, 0.0, 0.0, 1.6518358793248508E9, 0.0, 2022-05-06 12:17:59.324
82.0, -239.0805844673887, -169.64934179000556, -188.76771036349237, -169.5801536408253, 0.1600000075995922, 0.11200000531971455, 1.008000047877431, 0.0, 0.0, 0.0, 0.0, 0.0, 1.6518358793248508E9, 0.0, 2022-05-06 12:17:59.324
83.0, -228.42934939358383, -148.59744493942708, -163.55330486223102, -176.59620595769957, 0.1600000075995922, 0.11200000531971455, 1.008000047877431, 0.0, 0.0, 0.0, 0.0, 0.0, 1.6518358793349187E9, 0.0, 2022-05-06 12:17:59.334
83.0, -248.70334705337882, -218.9187838062644, -232.46096154581755, -187.46435522893444, 0.1600000075995922, 0.11200000531971455, 1.008000047877431, 0.0, 0.0, 0.0, 0.0, 0.0, 1.6518358793349187E9, 0.0, 2022-05-06 12:17:59.334
84.0, -274.052388953045, -256.8525890568271, -272.58634817041457, -221.02247753133997, 0.1600000075995922, 0.11200000531971455, 1.008000047877431, 0.0, 0.0, 0.0, 0.0, 0.0, 1.6518358793358533E9, 0.0, 2022-05-06 12:17:59.335
84.0, -247.91796806268394, -188.3899804679677, -206.78654835000634, -191.78767957771197, 0.1600000075995922, 0.11200000531971455, 1.008000047877431, 0.0, 0.0, 0.0, 0.0, 0.0, 1.6518358793358533E9, 0.0, 2022-05-06 12:17:59.335
85.0, -216.86931863054633, -145.366171377711, -167.25580581836402, -171.5436011175625, 0.1600000075995922, 0.11200000531971455, 1.008000047877431, 0.0, 0.0, 0.0, 0.0, 0.0, 1.651835879365916E9, 0.0, 2022-05-06 12:17:59.365
85.0, -229.53635978046805, -200.9859635187313, -214.90587115380913, -176.91035755397752, 0.1600000075995922, 0.11200000531971455, 1.008000047877431, 0.0, 0.0, 0.0, 0.0, 0.0, 1.651835879365916E9, 0.0, 2022-05-06 12:17:59.365
86.0, -260.28581721615046, -247.58511696662754, -257.3537356508896, -198.60551719693467, 0.1600000075995922, 0.11200000531971455, 1.008000047877431, 0.0, 0.0, 0.0, 0.0, 0.0, 1.6518358793668776E9, 0.0, 2022-05-06 12:17:59.366
86.0, -256.80397035740316, -186.85662148613483, -202.97559029515833, -190.71806819038466, 0.1600000075995922, 0.11200000531971455, 1.008000047877431, 0.0, 0.0, 0.0, 0.0, 0.0, 1.6518358793668776E9, 0.0, 2022-05-06 12:17:59.366
87.0, -222.7746206605807, -145.1791763799265, -164.95202744565904, -170.55252762930468, 0.1600000075995922, 0.11200000531971455, 1.008000047877431, 0.0, 0.0, 0.0, 0.0, 0.0, 1.6518358793678944E9, 0.0, 2022-05-06 12:17:59.367
87.0, -241.27964564133435, -212.59461298119277, -227.2886799070984, -187.24744103150442, 0.1600000075995922, 0.11200000531971455, 1.008000047877431, 0.0, 0.0, 0.0, 0.0, 0.0, 1.6518358793678944E9, 0.0, 2022-05-06 12:17:59.367
88.0, -264.500684466213, -245.72264678869396, -258.011958043091, -201.80313165904954, 0.1600000075995922, 0.11200000531971455, 1.008000047877431, 0.0, 0.0, 0.0, 0.0, 0.0, 1.6518358793959143E9, 0.0, 2022-05-06 12:17:59.395
88.0, -255.1995532764122, -186.02636369597167, -197.33208126202226, -191.65304317930713, 0.1600000075995922, 0.11200000531971455, 1.008000047877431, 0.0, 0.0, 0.0, 0.0, 0.0, 1.6518358793959143E9, 0.0, 2022-05-06 12:17:59.395
89.0, -223.05885305721313, -140.45194283593446, -160.98773349262774, -167.74760266253725, 0.1600000075995922, 0.11200000531971455, 1.008000047877431, 0.0, 0.0, 0.0, 0.0, 0.0, 1.6518358793968863E9, 0.0, 2022-05-06 12:17:59.396
89.0, -231.63444365561008, -204.8717195726931, -215.53417434636503, -178.89998433040455, 0.1600000075995922, 0.11200000531971455, 1.008000047877431, 0.0, 0.0, 0.0, 0.0, 0.0, 1.6518358793968863E9, 0.0, 2022-05-06 12:17:59.396
90.0, -267.3878872320056, -250.232966135256, -257.8361827451736, -208.0786837846972, 0.1600000075995922, 0.11200000531971455, 1.008000047877431, 0.0, 0.0, 0.0, 0.0, 0.0, 1.6518358793978653E9, 0.0, 2022-05-06 12:17:59.397
90.0, -244.68669450096786, -187.78037677519023, -196.98801046609879, -180.9606692059897, 0.1600000075995922, 0.11200000531971455, 1.008000047877431, 0.0, 0.0, 0.0, 0.0, 0.0, 1.6518358793978653E9, 0.0, 2022-05-06 12:17:59.397
91.0, -215.97922244109213, -139.359892048873, -157.487187134102, -157.88922637933865, 0.1600000075995922, 0.11200000531971455, 1.008000047877431, 0.0, 0.0, 0.0, 0.0, 0.0, 1.651835879425927E9, 0.0, 2022-05-06 12:17:59.425
91.0, -241.8593301344663, -214.28130786120892, -225.5533663276583, -197.5920043089427, 0.1600000075995922, 0.11200000531971455, 1.008000047877431, 0.0, 0.0, 0.0, 0.0, 0.0, 1.651835879425927E9, 0.0, 2022-05-06 12:17:59.425
92.0, -285.5862404163927, -269.29149630945176, -273.1697725635022, -219.526517549064, 0.1600000075995922, 0.11200000531971455, 1.008000047877431, 0.0, 0.0, 0.0, 0.0, 0.0, 1.6518358794268608E9, 0.0, 2022-05-06 12:17:59.426
92.0, -257.1256017535925, -201.88727940805256, -213.57072686962783, -193.05924556264654, 0.1600000075995922, 0.11200000531971455, 1.008000047877431, 0.0, 0.0, 0.0, 0.0, 0.0, 1.6518358794268608E9, 0.0, 2022-05-06 12:17:59.426
93.0, -221.15898387972265, -157.23661383707076, -173.02647144999355, -173.27143489709124, 0.1600000075995922, 0.11200000531971455, 1.008000047877431, 0.0, 0.0, 0.0, 0.0, 0.0, 1.6518358794278626E9, 0.0, 2022-05-06 12:17:59.427
93.0, -238.32512467633933, -204.66228517517447, -216.4317503357306, -167.38483236683533, 0.1600000075995922, 0.11200000531971455, 1.008000047877431, 0.0, 0.0, 0.0, 0.0, 0.0, 1.6518358794278626E9, 0.0, 2022-05-06 12:17:59.427
94.0, -255.3790684742853, -247.0839703725651, -255.6034624716267, -185.00724095804617, 0.1600000075995922, 0.11200000531971455, 1.008000047877431, 0.0, 0.0, 0.0, 0.0, 0.0, 1.65183587945592E9, 0.0, 2022-05-06 12:17:59.455
94.0, -234.9255556166172, -178.2735510878265, -189.7550439517945, -178.2155826385133, 0.1600000075995922, 0.11200000531971455, 1.008000047877431, 0.0, 0.0, 0.0, 0.0, 0.0, 1.65183587945592E9, 0.0, 2022-05-06 12:17:59.455
95.0, -224.94750253483653, -133.30125412065536, -155.9987069517374, -155.06934181274846, 0.1600000075995922, 0.11200000531971455, 1.008000047877431, 0.0, 0.0, 0.0, 0.0, 0.0, 1.6518358794568615E9, 0.0, 2022-05-06 12:17:59.456
95.0, -236.86656369362026, -205.16343176923692, -221.24500157870352, -186.33490544231609, 0.1600000075995922, 0.11200000531971455, 1.008000047877431, 0.0, 0.0, 0.0, 0.0, 0.0, 1.6518358794568615E9, 0.0, 2022-05-06 12:17:59.456
96.0, -266.8231623386964, -245.90590188652277, -265.091588659212, -214.24577881162986, 0.1600000075995922, 0.11200000531971455, 1.008000047877431, 0.0, 0.0, 0.0, 0.0, 0.0, 1.6518358794579175E9, 0.0, 2022-05-06 12:17:59.457
96.0, -242.58487072587013, -181.8675949452445, -198.14737945236266, -192.56931866845116, 0.1600000075995922, 0.11200000531971455, 1.008000047877431, 0.0, 0.0, 0.0, 0.0, 0.0, 1.6518358794579175E9, 0.0, 2022-05-06 12:17:59.457
97.0, -224.8502651359886, -149.16590973269194, -163.47476696316153, -163.70477081043646, 0.1600000075995922, 0.11200000531971455, 1.008000047877431, 0.0, 0.0, 0.0, 0.0, 0.0, 1.651835879485951E9, 0.0, 2022-05-06 12:17:59.485
97.0, -235.04897231515497, -200.23424362763762, -221.08792578056455, -194.97033444000408, 0.1600000075995922, 0.11200000531971455, 1.008000047877431, 0.0, 0.0, 0.0, 0.0, 0.0, 1.651835879485951E9, 0.0, 2022-05-06 12:17:59.485
98.0, -275.33517463784665, -252.4170677093789, -262.6756132878363, -211.47077304450795, 0.1600000075995922, 0.11200000531971455, 1.008000047877431, 0.0, 0.0, 0.0, 0.0, 0.0, 1.6518358794868538E9, 0.0, 2022-05-06 12:17:59.486
98.0, -250.5658172313124, -192.04012282472104, -198.78690234478563, -184.72300856141374, 0.1600000075995922, 0.11200000531971455, 1.008000047877431, 0.0, 0.0, 0.0, 0.0, 0.0, 1.6518358794868538E9, 0.0, 2022-05-06 12:17:59.486
99.0, -207.58688694052398, -125.71673701051623, -144.9211232829839, -152.65336644137278, 0.1600000075995922, 0.11200000531971455, 1.008000047877431, 0.0, 0.0, 0.0, 0.0, 0.0, 1.6518358795469773E9, 0.0, 2022-05-06 12:17:59.546
99.0, -226.64915701467544, -198.22591735143214, -213.6904036682099, -183.2943667783402, 0.1600000075995922, 0.11200000531971455, 1.008000047877431, 0.0, 0.0, 0.0, 0.0, 0.0, 1.6518358795469773E9, 0.0, 2022-05-06 12:17:59.546
100.0, -264.7961365627125, -249.76173874083906, -262.2791838925332, -203.87503623450175, 0.1600000075995922, 0.11200000531971455, 1.008000047877431, 0.0, 0.0, 0.0, 0.0, 0.0, 1.651835879547865E9, 0.0, 2022-05-06 12:17:59.547
100.0, -242.23332013003528, -182.09572884254158, -192.45525171980262, -178.15948413917795, 0.1600000075995922, 0.11200000531971455, 1.008000047877431, 0.0, 0.0, 0.0, 0.0, 0.0, 1.651835879547865E9, 0.0, 2022-05-06 12:17:59.547
0.0, -195.42099238466471, -47.74917268427089, -76.3855866449885, -126.88545574666932, 0.1600000075995922, 0.11200000531971455, 1.008000047877431, 0.0, 0.0, 0.0, 0.0, 0.0, 1.6518358795488586E9, 0.0, 2022-05-06 12:17:59.548
1.0, -218.83650600723922, -117.76383975474164, -145.0127508318983, -156.03423600131646, 0.1600000075995922, 0.11200000531971455, 1.008000047877431, 0.0, 0.0, 0.0, 0.0, 0.0, 1.6518358795498765E9, 0.0, 2022-05-06 12:17:59.549
1.0, -241.09639054350555, -156.32594819786027, -179.64048452163115, -163.45419751340523, 0.1600000075995922, 0.11200000531971455, 1.008000047877431, 0.0, 0.0, 0.0, 0.0, 0.0, 1.6518358795498765E9, 0.0, 2022-05-06 12:17:59.549
2.0, -221.3310192776844, -100.86697175493464, -122.37887630006298, -140.43885318608955, 0.144000006839633, 0.11200000531971455, 1.008000047877431, 0.0, 0.0, 0.0, 0.0, 0.0, 1.6518358795769062E9, 0.0, 2022-05-06 12:17:59.576
2.0, -205.2793686678633, -60.10206223791465, -85.86997293261811, -120.32567122438923, 0.144000006839633, 0.11200000531971455, 1.008000047877431, 0.0, 0.0, 0.0, 0.0, 0.0, 1.6518358795769062E9, 0.0, 2022-05-06 12:17:59.576
3.0, -217.57241982221603, -123.32881088880822, -153.65565962949768, -160.89984584366903, 0.144000006839633, 0.11200000531971455, 1.008000047877431, 0.0, 0.0, 0.0, 0.0, 0.0, 1.651835879577862E9, 0.0, 2022-05-06 12:17:59.577
3.0, -254.1224620891735, -183.49258147599176, -208.8191839759238, -208.80048447614536, 0.144000006839633, 0.11200000531971455, 1.008000047877431, 0.0, 0.0, 0.0, 0.0, 0.0, 1.651835879577862E9, 0.0, 2022-05-06 12:17:59.577
4.0, -249.42514774482697, -123.64296248508617, -146.6470871125348, -176.2109962622635, 0.144000006839633, 0.11200000531971455, 1.008000047877431, 0.0, 0.0, 0.0, 0.0, 0.0, 1.6518358795788853E9, 0.0, 2022-05-06 12:17:59.578
4.0, -190.45440524350852, -53.33658321807161, -89.81556738587096, -136.18284703651443, 0.144000006839633, 0.11200000531971455, 1.008000047877431, 0.0, 0.0, 0.0, 0.0, 0.0, 1.6518358795788853E9, 0.0, 2022-05-06 12:17:59.578
6.0, -173.5650170436129, 11.210350117180496, -33.95268174773082, -117.71896095527336, 0.144000006839633, 0.11200000531971455, 1.008000047877431, 0.0, 0.0, 0.0, 0.0, 0.0, 1.6518358795798745E9, 0.0, 2022-05-06 12:17:59.579
6.0, -136.52130798250437, 63.632527796085924, 10.170657929498702, -99.35605217283592, 0.144000006839633, 0.11200000531971455, 1.008000047877431, 0.0, 0.0, 0.0, 0.0, 0.0, 1.6518358795798745E9, 0.0, 2022-05-06 12:17:59.579
7.0, -150.5945515157655, 7.403131962288171, -35.815151925664395, -112.2175681204535, 0.144000006839633, 0.11200000531971455, 1.008000047877431, 0.0, 0.0, 0.0, 0.0, 0.0, 1.6518358795919058E9, 0.0, 2022-05-06 12:17:59.591
7.0, -173.81559034064412, -34.229434344451874, -81.20257778791711, -128.54597132699564, 0.144000006839633, 0.11200000531971455, 1.008000047877431, 0.0, 0.0, 0.0, 0.0, 0.0, 1.6518358795919058E9, 0.0, 2022-05-06 12:17:59.591
8.0, -170.51699857972562, 20.137491311412305, -26.71971523342654, -125.02298556873575, 0.144000006839633, 0.11200000531971455, 1.008000047877431, 0.0, 0.0, 0.0, 0.0, 0.0, 1.6518358795928519E9, 0.0, 2022-05-06 12:17:59.592
8.0, -138.04718716442585, 63.51285099750385, 11.333766815718263, -107.47163507668301, 0.144000006839633, 0.11200000531971455, 1.008000047877431, 0.0, 0.0, 0.0, 0.0, 0.0, 1.6518358795928519E9, 0.0, 2022-05-06 12:17:59.592
9.0, -161.63847608491778, 2.2420700234360993, -48.60186987416819, -126.67602134915069, 0.144000006839633, 0.11200000531971455, 1.008000047877431, 0.0, 0.0, 0.0, 0.0, 0.0, 1.6518358796049557E9, 0.0, 2022-05-06 12:17:59.604
9.0, -185.9814848965034, -45.26961901364848, -88.9516504961066, -138.32206981116906, 0.144000006839633, 0.11200000531971455, 1.008000047877431, 0.0, 0.0, 0.0, 0.0, 0.0, 1.6518358796049557E9, 0.0, 2022-05-06 12:17:59.604
10.0, -169.5633240910247, 1.5501885316334665, -33.90406304830685, -120.26583282509819, 0.144000006839633, 0.11200000531971455, 1.0240000486373901, 0.0, 0.0, 0.0, 0.0, 0.0, 1.6518358796369133E9, 0.0, 2022-05-06 12:17:59.636
10.0, -126.95464389584959, 68.75993063533679, 20.67977680498734, -86.30006142752245, 0.144000006839633, 0.11200000531971455, 1.0240000486373901, 0.0, 0.0, 0.0, 0.0, 0.0, 1.6518358796369133E9, 0.0, 2022-05-06 12:17:59.636
11.0, -150.71422831434757, 5.6565986829809844, -48.02966518094763, -118.45572124654427, 0.144000006839633, 0.11200000531971455, 1.0240000486373901, 0.0, 0.0, 0.0, 0.0, 0.0, 1.6518358796378732E9, 0.0, 2022-05-06 12:17:59.637
11.0, -188.40120016783476, -52.07623693300411, -94.97288942476735, -144.5303037376143, 0.144000006839633, 0.11200000531971455, 1.0240000486373901, 0.0, 0.0, 0.0, 0.0, 0.0, 1.6518358796378732E9, 0.0, 2022-05-06 12:17:59.637
12.0, -171.8932817634195, 6.23254327615723, -34.80537893762812, -115.69941497920081, 0.1600000075995922, 0.11200000531971455, 1.0240000486373901, 0.0, 0.0, 0.0, 0.0, 0.0, 1.6518358796388693E9, 0.0, 2022-05-06 12:17:59.638
12.0, -131.33032684400678, 60.43117343401536, 11.89101190911606, -96.70446310425177, 0.1600000075995922, 0.11200000531971455, 1.0240000486373901, 0.0, 0.0, 0.0, 0.0, 0.0, 1.6518358796388693E9, 0.0, 2022-05-06 12:17:59.638
13.0, -162.0349054802209, -7.881839156616479, -58.9352134517394, -140.88764118077233, 0.1600000075995922, 0.11200000531971455, 1.0240000486373901, 0.0, 0.0, 0.0, 0.0, 0.0, 1.6518358796398797E9, 0.0, 2022-05-06 12:17:59.639
13.0, -183.52063072565943, -53.878868711646646, -90.26809528050944, -143.4980913498439, 0.1600000075995922, 0.11200000531971455, 1.0240000486373901, 0.0, 0.0, 0.0, 0.0, 0.0, 1.6518358796398797E9, 0.0, 2022-05-06 12:17:59.639
14.0, -175.3414695225656, 0.32350134616717696, -42.5581915457733, -131.1900805956684, 0.1600000075995922, 0.11200000531971455, 1.0240000486373901, 0.0, 0.0, 0.0, 0.0, 0.0, 1.6518358796499016E9, 0.0, 2022-05-06 12:17:59.649
14.0, -144.05720639321953, 54.9335204991512, 8.158591753337532, -110.11574434535578, 0.1600000075995922, 0.11200000531971455, 1.0240000486373901, 0.0, 0.0, 0.0, 0.0, 0.0, 1.6518358796499016E9, 0.0, 2022-05-06 12:17:59.649
15.0, -141.18496322724968, 10.866279321257025, -38.15632929792628, -112.03057312266901, 0.1600000075995922, 0.11200000531971455, 1.0240000486373901, 0.0, 0.0, 0.0, 0.0, 0.0, 1.6518358796508856E9, 0.0, 2022-05-06 12:17:59.650
15.0, -186.66588658839464, -53.8227702123113, -95.45907641900703, -137.7124661183916, 0.1600000075995922, 0.11200000531971455, 1.0240000486373901, 0.0, 0.0, 0.0, 0.0, 0.0, 1.6518358796508856E9, 0.0, 2022-05-06 12:17:59.650
16.0, -148.5899651395157, 4.23543669981882, -35.4785609296523, -124.47322027524933, 0.1600000075995922, 0.11200000531971455, 1.0240000486373901, 0.0, 0.0, 0.0, 0.0, 0.0, 1.6518358796969988E9, 0.0, 2022-05-06 12:17:59.696
16.0, -147.38945725373924, 65.1210079784505, 21.723208892624825, -78.76790291676298, 0.1600000075995922, 0.11200000531971455, 1.0240000486373901, 0.0, 0.0, 0.0, 0.0, 0.0, 1.6518358796969988E9, 0.0, 2022-05-06 12:17:59.696
17.0, -168.36281620524824, 0.6114736427552998, -50.23246625484899, -123.14181589102373, 0.1600000075995922, 0.11200000531971455, 1.0240000486373901, 0.0, 0.0, 0.0, 0.0, 0.0, 1.6518358796978717E9, 0.0, 2022-05-06 12:17:59.697
17.0, -197.3208615621552, -55.113035697024316, -99.96565586561337, -148.58809518953785, 0.1600000075995922, 0.11200000531971455, 1.0240000486373901, 0.0, 0.0, 0.0, 0.0, 0.0, 1.6518358796978717E9, 0.0, 2022-05-06 12:17:59.697
18.0, -180.70074615906924, 9.493736037518829, -31.278653279412538, -116.83260466577485, 0.1600000075995922, 0.11200000531971455, 1.0240000486373901, 0.0, 0.0, 0.0, 0.0, 0.0, 1.6518358796988585E9, 0.0, 2022-05-06 12:17:59.698
18.0, -144.79770658444613, 60.04970363853499, 3.345340510364622, -104.16182361589745, 0.1600000075995922, 0.11200000531971455, 1.0240000486373901, 0.0, 0.0, 0.0, 0.0, 0.0, 1.6518358796988585E9, 0.0, 2022-05-06 12:17:59.698
19.0, -159.0355057157576, -0.8957060393877327, -50.49425925174728, -128.42255462845787, 0.1600000075995922, 0.11200000531971455, 1.0240000486373901, 0.0, 0.0, 0.0, 0.0, 0.0, 1.6518358796998734E9, 0.0, 2022-05-06 12:17:59.699
19.0, -187.62704087700695, -50.49799915170297, -90.48874937789515, -149.63152727717534, 0.1600000075995922, 0.11200000531971455, 1.0240000486373901, 0.0, 0.0, 0.0, 0.0, 0.0, 1.6518358796998734E9, 0.0, 2022-05-06 12:17:59.699
20.0, -180.5997688602656, -0.6413928424008191, -40.95377446478233, -133.99874546239153, 0.1600000075995922, 0.11200000531971455, 1.0240000486373901, 0.0, 0.0, 0.0, 0.0, 0.0, 1.6518358797099009E9, 0.0, 2022-05-06 12:17:59.709
20.0, -136.14731798693538, 64.49644468585029, 12.728749499190599, -96.74560200376436, 0.1600000075995922, 0.11200000531971455, 1.0240000486373901, 0.0, 0.0, 0.0, 0.0, 0.0, 1.6518358797099009E9, 0.0, 2022-05-06 12:17:59.709
21.0, -147.58019215147942, 11.943370508495718, -33.63105035154149, -114.81679858965799, 0.1600000075995922, 0.11200000531971455, 1.0240000486373901, 0.0, 0.0, 0.0, 0.0, 0.0, 1.6518358797108507E9, 0.0, 2022-05-06 12:17:59.710
21.0, -186.41531329136342, -52.18843393167481, -88.1326124058105, -133.10116947302595, 0.1600000075995922, 0.11200000531971455, 1.0240000486373901, 0.0, 0.0, 0.0, 0.0, 0.0, 1.6518358797108507E9, 0.0, 2022-05-06 12:17:59.710
22.0, -178.6363213835284, -1.5165294320322573, -37.69632160337642, -119.54029223369434, 0.144000006839633, 0.11200000531971455, 1.0240000486373901, 0.0, 0.0, 0.0, 0.0, 0.0, 1.6518358797409089E9, 0.0, 2022-05-06 12:17:59.740
22.0, -133.5406077178195, 71.44143890356645, 18.174043834675103, -93.25627534510568, 0.144000006839633, 0.11200000531971455, 1.0240000486373901, 0.0, 0.0, 0.0, 0.0, 0.0, 1.6518358797409089E9, 0.0, 2022-05-06 12:17:59.740
23.0, -145.70650227367878, 15.245702169369906, -37.89453630102798, -116.92984206462279, 0.144000006839633, 0.11200000531971455, 1.0240000486373901, 0.0, 0.0, 0.0, 0.0, 0.0, 1.651835879741868E9, 0.0, 2022-05-06 12:17:59.741
23.0, -187.56346257776022, -56.60899567930028, -95.94900331320241, -151.10130795976147, 0.144000006839633, 0.11200000531971455, 1.0240000486373901, 0.0, 0.0, 0.0, 0.0, 0.0, 1.651835879741868E9, 0.0, 2022-05-06 12:17:59.741
24.0, -176.26148491166532, -0.14398614829406142, -36.87354361312464, -121.05121181579307, 0.144000006839633, 0.11200000531971455, 1.0240000486373901, 0.0, 0.0, 0.0, 0.0, 0.0, 1.6518358797428548E9, 0.0, 2022-05-06 12:17:59.742
24.0, -145.01088088192046, 57.966579363215715, 6.127826077397913, -109.07605215767398, 0.144000006839633, 0.11200000531971455, 1.0240000486373901, 0.0, 0.0, 0.0, 0.0, 0.0, 1.6518358797428548E9, 0.0, 2022-05-06 12:17:59.742
25.0, -148.41044994164258, 1.2322970353998244, -47.506079187151045, -130.56925720302388, 0.144000006839633, 0.11200000531971455, 1.0240000486373901, 0.0, 0.0, 0.0, 0.0, 0.0, 1.6518358797540162E9, 0.0, 2022-05-06 12:17:59.754
25.0, -192.2345976224169, -51.36565594142303, -93.69758353987709, -145.46901862649247, 0.144000006839633, 0.11200000531971455, 1.0240000486373901, 0.0, 0.0, 0.0, 0.0, 0.0, 1.6518358797540162E9, 0.0, 2022-05-06 12:17:59.754
26.0, -175.59578271955252, 0.17764524789527059, -37.3335513076745, -118.48938034614548, 0.144000006839633, 0.11200000531971455, 1.0240000486373901, 0.0, 0.0, 0.0, 0.0, 0.0, 1.6518358798019524E9, 0.0, 2022-05-06 12:17:59.801
26.0, -150.52349341660738, 61.10809532599524, 7.534028460737318, -101.42795674828812, 0.144000006839633, 0.11200000531971455, 1.0240000486373901, 0.0, 0.0, 0.0, 0.0, 0.0, 1.6518358798019524E9, 0.0, 2022-05-06 12:17:59.801
27.0, -156.7055480433628, 23.428603272419423, -25.2162754512392, -107.54643307579681, 0.144000006839633, 0.11200000531971455, 1.0240000486373901, 0.0, 0.0, 0.0, 0.0, 0.0, 1.651835879802883E9, 0.0, 2022-05-06 12:17:59.802
27.0, -180.4950516615063, -44.633836021181196, -84.03742195433006, -122.98100019292906, 0.144000006839633, 0.11200000531971455, 1.0240000486373901, 0.0, 0.0, 0.0, 0.0, 0.0, 1.651835879802883E9, 0.0, 2022-05-06 12:17:59.802
28.0, -187.98981117270887, -6.202624076511711, -50.91686794674024, -148.70403208816424, 0.144000006839633, 0.11200000531971455, 1.0240000486373901, 0.0, 0.0, 0.0, 0.0, 0.0, 1.6518358798038619E9, 0.0, 2022-05-06 12:17:59.803
28.0, -140.90073083061725, 68.4607386388816, 17.261508245486766, -98.92222377797589, 0.144000006839633, 0.11200000531971455, 1.0240000486373901, 0.0, 0.0, 0.0, 0.0, 0.0, 1.6518358798038619E9, 0.0, 2022-05-06 12:17:59.803
29.0, -157.8948362292722, 10.963516720104963, -37.58786450466141, -123.34377048863098, 0.144000006839633, 0.11200000531971455, 1.0240000486373901, 0.0, 0.0, 0.0, 0.0, 0.0, 1.651835879804911E9, 0.0, 2022-05-06 12:17:59.804
29.0, -200.1370062287897, -59.982385439332575, -95.16362432250753, -146.28805671678856, 0.144000006839633, 0.11200000531971455, 1.0240000486373901, 0.0, 0.0, 0.0, 0.0, 0.0, 1.651835879804911E9, 0.0, 2022-05-06 12:17:59.804
30.0, -181.40758725069463, -1.0976606369949877, -43.3734897361137, -130.03445150936022, 0.144000006839633, 0.11200000531971455, 1.008000047877431, 0.0, 0.0, 0.0, 0.0, 0.0, 1.6518358798149009E9, 0.0, 2022-05-06 12:17:59.814
30.0, -139.35241224896163, 69.01798373227939, 16.25173525745049, -101.29706024983898, 0.144000006839633, 0.11200000531971455, 1.008000047877431, 0.0, 0.0, 0.0, 0.0, 0.0, 1.6518358798149009E9, 0.0, 2022-05-06 12:17:59.814
31.0, -142.74076160881668, 24.247641362715513, -25.055459753144532, -101.94780284212902, 0.144000006839633, 0.11200000531971455, 1.008000047877431, 0.0, 0.0, 0.0, 0.0, 0.0, 1.6518358798159096E9, 0.0, 2022-05-06 12:17:59.815
31.0, -172.83199665229768, -44.79465171927586, -83.56993445986882, -131.4518735925667, 0.144000006839633, 0.11200000531971455, 1.008000047877431, 0.0, 0.0, 0.0, 0.0, 0.0, 1.6518358798159096E9, 0.0, 2022-05-06 12:17:59.815
32.0, -202.12663300521672, -13.229896093253046, -51.65736813796684, -137.69750651856884, 0.1600000075995922, 0.11200000531971455, 1.008000047877431, 0.0, 0.0, 0.0, 0.0, 0.0, 1.6518358798299124E9, 0.0, 2022-05-06 12:17:59.829
32.0, -145.0707192812115, 58.22837236011401, 6.22132357629016, -97.25796829769388, 0.1600000075995922, 0.11200000531971455, 1.008000047877431, 0.0, 0.0, 0.0, 0.0, 0.0, 1.6518358798299124E9, 0.0, 2022-05-06 12:17:59.829
33.0, -144.13574429228902, 27.673389722127467, -20.100092311855406, -90.01752198347822, 0.1600000075995922, 0.11200000531971455, 1.008000047877431, 0.0, 0.0, 0.0, 0.0, 0.0, 1.6518358798308637E9, 0.0, 2022-05-06 12:17:59.830
33.0, -193.1658327113837, -61.46712572174147, -109.19946885621175, -160.7577296453528, 0.1600000075995922, 0.11200000531971455, 1.008000047877431, 0.0, 0.0, 0.0, 0.0, 0.0, 1.6518358798308637E9, 0.0, 2022-05-06 12:17:59.830
34.0, -192.0139435250312, -18.551773730199784, -57.499091868754476, -148.9022467858158, 0.1600000075995922, 0.11200000531971455, 1.008000047877431, 0.0, 0.0, 0.0, 0.0, 0.0, 1.651835879860899E9, 0.0, 2022-05-06 12:17:59.860
34.0, -146.1403306685388, 65.46881867432967, 3.577214307617396, -113.74718720233068, 0.1600000075995922, 0.11200000531971455, 1.008000047877431, 0.0, 0.0, 0.0, 0.0, 0.0, 1.651835879860899E9, 0.0, 2022-05-06 12:17:59.860
35.0, -140.14901093952358, 18.200223134364933, -34.233174244407564, -116.21552117308602, 0.1600000075995922, 0.11200000531971455, 1.008000047877431, 0.0, 0.0, 0.0, 0.0, 0.0, 1.6518358798618977E9, 0.0, 2022-05-06 12:17:59.861
35.0, -180.45017286203802, -50.666294649709016, -92.30634075636044, -143.62524794833735, 0.1600000075995922, 0.11200000531971455, 1.008000047877431, 0.0, 0.0, 0.0, 0.0, 0.0, 1.6518358798618977E9, 0.0, 2022-05-06 12:17:59.861
36.0, -190.08041524793953, -3.943724503275007, -45.57255091005936, -132.54392437962815, 0.1600000075995922, 0.11200000531971455, 1.008000047877431, 0.0, 0.0, 0.0, 0.0, 0.0, 1.6518358798628442E9, 0.0, 2022-05-06 12:17:59.862
36.0, -137.77791436761618, 70.88045391021296, 17.14557134686038, -103.5110810236074, 0.1600000075995922, 0.11200000531971455, 1.008000047877431, 0.0, 0.0, 0.0, 0.0, 0.0, 1.6518358798628442E9, 0.0, 2022-05-06 12:17:59.862
37.0, -141.8095265198499, 31.394590178038925, -22.40761058451608, -99.27751427376643, 0.1600000075995922, 0.11200000531971455, 1.008000047877431, 0.0, 0.0, 0.0, 0.0, 0.0, 1.6518358798739913E9, 0.0, 2022-05-06 12:17:59.873
37.0, -191.84938792698085, -54.11448240885511, -95.45159661909565, -143.35971505148336, 0.1600000075995922, 0.11200000531971455, 1.008000047877431, 0.0, 0.0, 0.0, 0.0, 0.0, 1.6518358798739913E9, 0.0, 2022-05-06 12:17:59.873
38.0, -195.02830288931727, -19.51666791876778, -57.63372826715931, -135.07583664963022, 0.1600000075995922, 0.11200000531971455, 1.008000047877431, 0.0, 0.0, 0.0, 0.0, 0.0, 1.651835879889934E9, 0.0, 2022-05-06 12:17:59.889
38.0, -145.86731797177345, 59.32042314717546, 4.61690649529919, -110.88242383627221, 0.1600000075995922, 0.11200000531971455, 1.008000047877431, 0.0, 0.0, 0.0, 0.0, 0.0, 1.651835879889934E9, 0.0, 2022-05-06 12:17:59.889
39.0, -142.29945341404527, 31.402069977950305, -28.941215807106346, -105.4745285003446, 0.1600000075995922, 0.11200000531971455, 1.008000047877431, 0.0, 0.0, 0.0, 0.0, 0.0, 1.6518358798908403E9, 0.0, 2022-05-06 12:17:59.890
39.0, -183.53933022543788, -59.23814534815028, -98.87360507855192, -138.07149651413783, 0.1600000075995922, 0.11200000531971455, 1.008000047877431, 0.0, 0.0, 0.0, 0.0, 0.0, 1.6518358798908403E9, 0.0, 2022-05-06 12:17:59.890
40.0, -212.4337972830981, -36.31255861977115, -70.49150431482121, -150.7946361633949, 0.1600000075995922, 0.11200000531971455, 1.008000047877431, 0.0, 0.0, 0.0, 0.0, 0.0, 1.6518358799209175E9, 0.0, 2022-05-06 12:17:59.920
40.0, -134.6176989050582, 82.54894177196547, 29.12073100497946, -88.17749120527878, 0.1600000075995922, 0.11200000531971455, 1.008000047877431, 0.0, 0.0, 0.0, 0.0, 0.0, 1.6518358799209175E9, 0.0, 2022-05-06 12:17:59.920
41.0, -134.86827220208943, 31.024340082425624, -23.52584067126736, -109.0311733582057, 0.1600000075995922, 0.11200000531971455, 1.008000047877431, 0.0, 0.0, 0.0, 0.0, 0.0, 1.6518358799218633E9, 0.0, 2022-05-06 12:17:59.921
41.0, -160.93911479320377, -45.40051551209763, -78.03488252544776, -112.70749501464888, 0.1600000075995922, 0.11200000531971455, 1.008000047877431, 0.0, 0.0, 0.0, 0.0, 0.0, 1.6518358799218633E9, 0.0, 2022-05-06 12:17:59.921
42.0, -204.56130787637085, -28.38023081375286, -63.46049239812419, -134.9673795509152, 0.1600000075995922, 0.11200000531971455, 1.008000047877431, 0.0, 0.0, 0.0, 0.0, 0.0, 1.6518358799228787E9, 0.0, 2022-05-06 12:17:59.922
42.0, -141.1363445278257, 72.06974209612235, 13.158837994094938, -107.72594827366993, 0.1600000075995922, 0.11200000531971455, 1.008000047877431, 0.0, 0.0, 0.0, 0.0, 0.0, 1.6518358799228787E9, 0.0, 2022-05-06 12:17:59.922
43.0, -150.86756421253085, 19.90187761420384, -37.19517500931397, -127.28936494188383, 0.1600000075995922, 0.11200000531971455, 1.008000047877431, 0.0, 0.0, 0.0, 0.0, 0.0, 1.6518358799339263E9, 0.0, 2022-05-06 12:17:59.933
43.0, -197.84070765599608, -66.80022305855528, -102.32927263760939, -164.7257634983398, 0.1600000075995922, 0.11200000531971455, 1.008000047877431, 0.0, 0.0, 0.0, 0.0, 0.0, 1.6518358799339263E9, 0.0, 2022-05-06 12:17:59.933
44.0, -192.32061532139778, -30.152943392749876, -60.02726423880085, -144.69859923562035, 0.1600000075995922, 0.11200000531971455, 1.008000047877431, 0.0, 0.0, 0.0, 0.0, 0.0, 1.6518358799499316E9, 0.0, 2022-05-06 12:17:59.949
44.0, -133.09181972313672, 69.00676403241232, 18.099245835561305, -99.98809526534751, 0.1600000075995922, 0.11200000531971455, 1.008000047877431, 0.0, 0.0, 0.0, 0.0, 0.0, 1.6518358799499316E9, 0.0, 2022-05-06 12:17:59.949
45.0, -121.11666006501764, 46.335490501020104, -8.382985750678927, -92.59431305294856, 0.1600000075995922, 0.11200000531971455, 1.008000047877431, 0.0, 0.0, 0.0, 0.0, 0.0, 1.651835879950879E9, 0.0, 2022-05-06 12:17:59.950
45.0, -194.07088850066066, -52.14355513220653, -94.78589442698285, -142.4920582617633, 0.1600000075995922, 0.11200000531971455, 1.008000047877431, 0.0, 0.0, 0.0, 0.0, 0.0, 1.651835879950879E9, 0.0, 2022-05-06 12:17:59.950
46.0, -196.48312397208065, -29.259107303339988, -63.176260001491755, -142.58929566061124, 0.1600000075995922, 0.11200000531971455, 1.008000047877431, 0.0, 0.0, 0.0, 0.0, 0.0, 1.651835879980904E9, 0.0, 2022-05-06 12:17:59.980
46.0, -139.44590974785388, 71.69575210055336, 21.58109269430861, -97.7329355920665, 0.1600000075995922, 0.11200000531971455, 1.008000047877431, 0.0, 0.0, 0.0, 0.0, 0.0, 1.651835879980904E9, 0.0, 2022-05-06 12:17:59.980
47.0, -145.12307788059115, 30.938322383444756, -24.31869946187362, -108.51132726436481, 0.1600000075995922, 0.11200000531971455, 1.008000047877431, 0.0, 0.0, 0.0, 0.0, 0.0, 1.651835879981851E9, 0.0, 2022-05-06 12:17:59.981
47.0, -169.21551339514554, -42.94340124120936, -75.43191215628758, -123.7065407843329, 0.1600000075995922, 0.11200000531971455, 1.008000047877431, 0.0, 0.0, 0.0, 0.0, 0.0, 1.651835879981851E9, 0.0, 2022-05-06 12:17:59.981
48.0, -183.87218132149428, -14.781954574864358, -51.69476713752374, -127.35294324113056, 0.1600000075995922, 0.11200000531971455, 1.008000047877431, 0.0, 0.0, 0.0, 0.0, 0.0, 1.6518358799828613E9, 0.0, 2022-05-06 12:17:59.982
48.0, -123.74580973386765, 78.35651392163709, 23.469742171932012, -86.92836462007836, 0.1600000075995922, 0.11200000531971455, 1.008000047877431, 0.0, 0.0, 0.0, 0.0, 0.0, 1.6518358799828613E9, 0.0, 2022-05-06 12:17:59.982
49.0, -139.5506269466132, 36.90720271272585, -17.224109245929867, -108.33555196644738, 0.1600000075995922, 0.11200000531971455, 1.008000047877431, 0.0, 0.0, 0.0, 0.0, 0.0, 1.6518358800109055E9, 0.0, 2022-05-06 12:18:00.010
49.0, -199.3516272380948, -65.44263937463984, -104.12816451629624, -154.1642860234715, 0.1600000075995922, 0.11200000531971455, 1.008000047877431, 0.0, 0.0, 0.0, 0.0, 0.0, 1.6518358800109055E9, 0.0, 2022-05-06 12:18:00.010
50.0, -184.18633291777223, -21.233281998429447, -51.881762135308236, -130.03445150936022, 0.1600000075995922, 0.11200000531971455, 1.0240000486373901, 0.0, 0.0, 0.0, 0.0, 0.0, 1.6518358800118725E9, 0.0, 2022-05-06 12:18:00.011
50.0, -119.92737187910825, 74.7587301642634, 22.30663328571245, -86.82364742131904, 0.1600000075995922, 0.11200000531971455, 1.0240000486373901, 0.0, 0.0, 0.0, 0.0, 0.0, 1.6518358800118725E9, 0.0, 2022-05-06 12:18:00.011
51.0, -130.93389744870365, 39.54009228153154, -17.306387044955045, -106.20006909174845, 0.1600000075995922, 0.11200000531971455, 1.0240000486373901, 0.0, 0.0, 0.0, 0.0, 0.0, 1.651835880012844E9, 0.0, 2022-05-06 12:18:00.012
51.0, -199.78171573299915, -59.35034234682098, -99.21019607456401, -133.73695246549323, 0.1600000075995922, 0.11200000531971455, 1.0240000486373901, 0.0, 0.0, 0.0, 0.0, 0.0, 1.651835880012844E9, 0.0, 2022-05-06 12:18:00.012
52.0, -189.2351978579536, -29.56203919975087, -60.66678713122383, -141.0895957783796, 0.144000006839633, 0.11200000531971455, 1.0240000486373901, 0.0, 0.0, 0.0, 0.0, 0.0, 1.6518358800409675E9, 0.0, 2022-05-06 12:18:00.040
52.0, -146.39464386552572, 64.80311648221686, 10.110819530207664, -116.5932510686107, 0.144000006839633, 0.11200000531971455, 1.0240000486373901, 0.0, 0.0, 0.0, 0.0, 0.0, 1.6518358800409675E9, 0.0, 2022-05-06 12:18:00.040
53.0, -133.76126181520522, 38.93048858875409, -18.892104626167566, -109.22564815590158, 0.144000006839633, 0.11200000531971455, 1.0240000486373901, 0.0, 0.0, 0.0, 0.0, 0.0, 1.6518358800419123E9, 0.0, 2022-05-06 12:18:00.041
53.0, -182.8324891338125, -57.947879863437265, -90.44761047838256, -140.74552498245612, 0.144000006839633, 0.11200000531971455, 1.0240000486373901, 0.0, 0.0, 0.0, 0.0, 0.0, 1.6518358800419123E9, 0.0, 2022-05-06 12:18:00.041
54.0, -191.35946103278548, -30.964501683134586, -63.52781059732661, -136.13048843713477, 0.144000006839633, 0.11200000531971455, 1.0240000486373901, 0.0, 0.0, 0.0, 0.0, 0.0, 1.6518358800428607E9, 0.0, 2022-05-06 12:18:00.042
54.0, -125.46242381352931, 71.25070400582626, 16.6930434522219, -101.5102345473133, 0.144000006839633, 0.11200000531971455, 1.0240000486373901, 0.0, 0.0, 0.0, 0.0, 0.0, 1.6518358800428607E9, 0.0, 2022-05-06 12:18:00.042
55.0, -133.78744111489505, 36.91094261268154, -18.77616772754118, -108.85165816033259, 0.144000006839633, 0.11200000531971455, 1.0240000486373901, 0.0, 0.0, 0.0, 0.0, 0.0, 1.6518358800539112E9, 0.0, 2022-05-06 12:18:00.053
55.0, -185.46911860257387, -49.26757206628099, -93.73872243938968, -141.07089627860114, 0.144000006839633, 0.11200000531971455, 1.0240000486373901, 0.0, 0.0, 0.0, 0.0, 0.0, 1.6518358800539112E9, 0.0, 2022-05-06 12:18:00.053
56.0, -190.424486043863, -26.068972641136497, -55.599222691264, -130.02323180949315, 0.144000006839633, 0.11200000531971455, 1.0240000486373901, 0.0, 0.0, 0.0, 0.0, 0.0, 1.6518358800699291E9, 0.0, 2022-05-06 12:18:00.069
56.0, -138.44361655972898, 64.65352048398927, 16.412550955545157, -97.56090019410476, 0.144000006839633, 0.11200000531971455, 1.0240000486373901, 0.0, 0.0, 0.0, 0.0, 0.0, 1.6518358800699291E9, 0.0, 2022-05-06 12:18:00.069
57.0, -121.15031916461885, 54.18180060805753, -8.173551353160292, -90.26809528050944, 0.144000006839633, 0.11200000531971455, 1.0240000486373901, 0.0, 0.0, 0.0, 0.0, 0.0, 1.6518358800708919E9, 0.0, 2022-05-06 12:18:00.070
57.0, -184.50048451405019, -50.281084954272956, -85.40248543815687, -138.6399613074027, 0.144000006839633, 0.11200000531971455, 1.0240000486373901, 0.0, 0.0, 0.0, 0.0, 0.0, 1.6518358800708919E9, 0.0, 2022-05-06 12:18:00.070
58.0, -185.31952260434628, -24.68894955748692, -56.54541738005355, -134.62704865494743, 0.144000006839633, 0.11200000531971455, 1.0240000486373901, 0.0, 0.0, 0.0, 0.0, 0.0, 1.651835880100936E9, 0.0, 2022-05-06 12:18:00.100
58.0, -130.00640225969255, 76.23599064676091, 17.646717940922827, -96.93633690150455, 0.144000006839633, 0.11200000531971455, 1.0240000486373901, 0.0, 0.0, 0.0, 0.0, 0.0, 1.651835880100936E9, 0.0, 2022-05-06 12:18:00.100
59.0, -120.48835687246174, 52.79429772449657, -1.927918427158147, -86.48331652535126, 0.144000006839633, 0.11200000531971455, 1.0240000486373901, 0.0, 0.0, 0.0, 0.0, 0.0, 1.6518358801019328E9, 0.0, 2022-05-06 12:18:00.101
59.0, -181.44124635029584, -51.97899953415617, -88.52904180111364, -138.8643553047441, 0.144000006839633, 0.11200000531971455, 1.0240000486373901, 0.0, 0.0, 0.0, 0.0, 0.0, 1.6518358801019328E9, 0.0, 2022-05-06 12:18:00.101
60.0, -184.82211591023952, -22.168256987351924, -58.751958353910595, -130.31120410608128, 0.144000006839633, 0.11200000531971455, 1.0240000486373901, 0.0, 0.0, 0.0, 0.0, 0.0, 1.651835880102862E9, 0.0, 2022-05-06 12:18:00.102
60.0, -117.00651001371443, 84.5385685483925, 30.35863789031282, -78.610827118624, 0.144000006839633, 0.11200000531971455, 1.0240000486373901, 0.0, 0.0, 0.0, 0.0, 0.0, 1.651835880102862E9, 0.0, 2022-05-06 12:18:00.102
61.0, -132.97588282451034, 39.457814482506365, -15.784247762989253, -108.12611756892875, 0.144000006839633, 0.11200000531971455, 1.0240000486373901, 0.0, 0.0, 0.0, 0.0, 0.0, 1.651835880130925E9, 0.0, 2022-05-06 12:18:00.130
61.0, -172.70484005380422, -51.533951439429075, -89.34060009149835, -136.05195053806528, 0.144000006839633, 0.11200000531971455, 1.0240000486373901, 0.0, 0.0, 0.0, 0.0, 0.0, 1.651835880130925E9, 0.0, 2022-05-06 12:18:00.130
62.0, -179.73211207054555, -17.631758341100067, -45.048964916262776, -108.06627916963771, 0.144000006839633, 0.11200000531971455, 1.0240000486373901, 0.0, 0.0, 0.0, 0.0, 0.0, 1.6518358801318643E9, 0.0, 2022-05-06 12:18:00.131
62.0, -139.26639454998076, 71.96128499740735, 16.797760650981218, -99.64028456946835, 0.144000006839633, 0.11200000531971455, 1.0240000486373901, 0.0, 0.0, 0.0, 0.0, 0.0, 1.6518358801318643E9, 0.0, 2022-05-06 12:18:00.131
63.0, -132.68043072801083, 51.35069634160027, -8.67095804726705, -106.73113488545641, 0.144000006839633, 0.11200000531971455, 1.0240000486373901, 0.0, 0.0, 0.0, 0.0, 0.0, 1.6518358801328616E9, 0.0, 2022-05-06 12:18:00.132
63.0, -177.01694470271468, -52.771858324762434, -88.77961509814486, -146.4226931151934, 0.144000006839633, 0.11200000531971455, 1.0240000486373901, 0.0, 0.0, 0.0, 0.0, 0.0, 1.6518358801328616E9, 0.0, 2022-05-06 12:18:00.132
64.0, -185.95904549676925, -33.60113115189597, -67.60056164907292, -135.13941494887695, 0.144000006839633, 0.11200000531971455, 1.0240000486373901, 0.0, 0.0, 0.0, 0.0, 0.0, 1.6518358801609132E9, 0.0, 2022-05-06 12:18:00.160
64.0, -135.5788531936705, 76.20981134707108, 21.427756796125323, -95.3618390201591, 0.144000006839633, 0.11200000531971455, 1.0240000486373901, 0.0, 0.0, 0.0, 0.0, 0.0, 1.6518358801609132E9, 0.0, 2022-05-06 12:18:00.160
65.0, -125.97479010745883, 36.53321271715686, -15.50375526631251, -104.06458621704951, 0.144000006839633, 0.11200000531971455, 1.0240000486373901, 0.0, 0.0, 0.0, 0.0, 0.0, 1.6518358801919296E9, 0.0, 2022-05-06 12:18:00.191
65.0, -171.9007615633309, -53.482439316343516, -84.8714196444489, -126.06641765637323, 0.144000006839633, 0.11200000531971455, 1.0240000486373901, 0.0, 0.0, 0.0, 0.0, 0.0, 1.6518358801919296E9, 0.0, 2022-05-06 12:18:00.191
66.0, -197.50785655993968, -25.50050784787163, -61.175413525197655, -131.35089629376307, 0.144000006839633, 0.11200000531971455, 1.0240000486373901, 0.0, 0.0, 0.0, 0.0, 0.0, 1.6518358801928625E9, 0.0, 2022-05-06 12:18:00.192
66.0, -141.55895322281867, 64.00277789169922, 13.158837994094938, -111.80617912532762, 0.144000006839633, 0.11200000531971455, 1.0240000486373901, 0.0, 0.0, 0.0, 0.0, 0.0, 1.6518358801928625E9, 0.0, 2022-05-06 12:18:00.192
67.0, -128.22994978073984, 44.92180831776932, -16.24051555758342, -107.38561737770215, 0.144000006839633, 0.11200000531971455, 1.0240000486373901, 0.0, 0.0, 0.0, 0.0, 0.0, 1.651835880193864E9, 0.0, 2022-05-06 12:18:00.193
67.0, -179.88918786868453, -47.74169288435951, -84.89759894413874, -140.8988608806394, 0.144000006839633, 0.11200000531971455, 1.0240000486373901, 0.0, 0.0, 0.0, 0.0, 0.0, 1.651835880193864E9, 0.0, 2022-05-06 12:18:00.193
68.0, -189.35113475658, -34.68570213904604, -63.74098489480093, -139.80681009357795, 0.144000006839633, 0.11200000531971455, 1.0240000486373901, 0.0, 0.0, 0.0, 0.0, 0.0, 1.6518358801948524E9, 0.0, 2022-05-06 12:18:00.194
68.0, -129.7259097630158, 69.42937272740528, 13.211196593474597, -96.28933420917019, 0.144000006839633, 0.11200000531971455, 1.0240000486373901, 0.0, 0.0, 0.0, 0.0, 0.0, 1.6518358801948524E9, 0.0, 2022-05-06 12:18:00.194
69.0, -117.70587130542845, 53.957406610716134, -7.470450161490589, -97.46366279525682, 0.144000006839633, 0.11200000531971455, 1.0240000486373901, 0.0, 0.0, 0.0, 0.0, 0.0, 1.651835880219934E9, 0.0, 2022-05-06 12:18:00.219
