%OpenBCI Raw EEG Data
%Number of channels = 4
%Sample Rate = 200 Hz
%Board = OpenBCI_GUI$BoardGanglionBLE
Sample Index, EXG Channel 0, EXG Channel 1, EXG Channel 2, EXG Channel 3, Accel Channel 0, Accel Channel 1, Accel Channel 2, Other, Other, Other, Other, Other, Timestamp, Other, Timestamp (Formatted)
65.0, 55.305640544742346, 107.32016912847757, 73.02528653480113, 22.17760673724115, 0.0, 0.0, 0.0, 0.0, 0.0, 0.0, 0.0, 0.0, 1.651835907351816E9, 0.0, 2022-05-06 12:18:27.351
65.0, 69.10961128119379, 81.76917263120413, 53.12901877053082, 36.075074972584844, 0.0, 0.0, 0.0, 0.0, 0.0, 0.0, 0.0, 0.0, 1.651835907351816E9, 0.0, 2022-05-06 12:18:27.351
0.0, -231.09776801196858, -91.45738346641883, -126.62366274977103, -161.02139259222895, 0.0, 0.0, 0.0, 0.0, 0.0, 0.0, 0.0, 0.0, 1.651835907387816E9, 0.0, 2022-05-06 12:18:27.387
1.0, -193.99048065161332, -45.875482806470245, -83.15106566483155, -134.30728720873594, 0.0, 0.12800000607967377, 0.0, 0.0, 0.0, 0.0, 0.0, 0.0, 1.6518359073878355E9, 0.0, 2022-05-06 12:18:27.387
1.0, -226.10126167116687, -136.05569043802097, -156.48302399599925, -146.81725256051868, 0.0, 0.12800000607967377, 0.0, 0.0, 0.0, 0.0, 0.0, 0.0, 1.6518359073878355E9, 0.0, 2022-05-06 12:18:27.387
2.0, -270.0787452501245, -191.43238908192143, -202.21826055413112, -191.2435241341591, 0.1600000075995922, 0.12800000607967377, 0.0, 0.0, 0.0, 0.0, 0.0, 0.0, 1.6518359074008026E9, 0.0, 2022-05-06 12:18:27.400
2.0, -239.89027280779555, -90.38029227918014, -118.97930724034086, -153.68744877912104, 0.1600000075995922, 0.12800000607967377, 0.0, 0.0, 0.0, 0.0, 0.0, 0.0, 1.6518359074008026E9, 0.0, 2022-05-06 12:18:27.400
3.0, -183.75437447289005, -40.295552072580904, -80.21150429965928, -127.7250632867217, 0.1600000075995922, 0.12800000607967377, 0.0, 0.0, 0.0, 0.0, 0.0, 0.0, 1.6518359074017973E9, 0.0, 2022-05-06 12:18:27.401
3.0, -226.9016002616845, -149.5716888778843, -163.48411671305075, -162.12466307915747, 0.1600000075995922, 0.12800000607967377, 0.0, 0.0, 0.0, 0.0, 0.0, 0.0, 1.6518359074017973E9, 0.0, 2022-05-06 12:18:27.401
4.0, -280.7038010242395, -207.73461298877373, -212.62640213081613, -195.69400508143008, 0.1600000075995922, 0.12800000607967377, 0.0, 0.0, 0.0, 0.0, 0.0, 0.0, 1.6518359074157925E9, 0.0, 2022-05-06 12:18:27.415
4.0, -244.84938014904037, -104.5507732112892, -130.78991130040959, -169.73535948898643, 0.1600000075995922, 0.12800000607967377, 0.0, 0.0, 0.0, 0.0, 0.0, 0.0, 1.6518359074157925E9, 0.0, 2022-05-06 12:18:27.415
5.0, -198.94958799285814, -46.02133890474215, -84.37401295034215, -138.63061155751348, 0.1600000075995922, 0.12800000607967377, 0.0, 0.0, 0.0, 0.0, 0.0, 0.0, 1.6518359074298484E9, 0.0, 2022-05-06 12:18:27.429
5.0, -217.17038057697937, -150.04291627230123, -164.71828369842842, -164.6715349489823, 0.1600000075995922, 0.12800000607967377, 0.0, 0.0, 0.0, 0.0, 0.0, 0.0, 1.6518359074298484E9, 0.0, 2022-05-06 12:18:27.429
6.0, -254.64791803294793, -191.50718708103523, -191.847517977003, -174.2718581352383, 0.1600000075995922, 0.12800000607967377, 0.0, 0.0, 0.0, 0.0, 0.0, 0.0, 1.651835907444868E9, 0.0, 2022-05-06 12:18:27.444
6.0, -239.14229281665757, -94.96166972490028, -123.54198518628255, -142.94645610637963, 0.1600000075995922, 0.12800000607967377, 0.0, 0.0, 0.0, 0.0, 0.0, 0.0, 1.651835907444868E9, 0.0, 2022-05-06 12:18:27.444
7.0, -177.05995355220512, -25.799699844326824, -68.58789523737505, -114.47833764366806, 0.1600000075995922, 0.12800000607967377, 0.0, 0.0, 0.0, 0.0, 0.0, 0.0, 1.6518359074458225E9, 0.0, 2022-05-06 12:18:27.445
7.0, -212.12899543670937, -122.56587129784748, -142.28636376420036, -148.4067100416869, 0.1600000075995922, 0.12800000607967377, 0.0, 0.0, 0.0, 0.0, 0.0, 0.0, 1.6518359074458225E9, 0.0, 2022-05-06 12:18:27.445
8.0, -248.03951481124386, -187.5840320275165, -193.4855941575952, -176.02961111441255, 0.1600000075995922, 0.12800000607967377, 0.0, 0.0, 0.0, 0.0, 0.0, 0.0, 1.6518359074598365E9, 0.0, 2022-05-06 12:18:27.459
8.0, -254.6927968324162, -106.30478629050776, -137.92938031582162, -181.25799125246704, 0.1600000075995922, 0.12800000607967377, 0.0, 0.0, 0.0, 0.0, 0.0, 0.0, 1.6518359074598365E9, 0.0, 2022-05-06 12:18:27.459
9.0, -195.1835087374784, -36.611750616226345, -85.57452083611861, -138.35385896079242, 0.1600000075995922, 0.12800000607967377, 0.0, 0.0, 0.0, 0.0, 0.0, 0.0, 1.6518359074607875E9, 0.0, 2022-05-06 12:18:27.460
9.0, -241.86867988435552, -153.84265462728217, -173.55940719367936, -174.02128483820707, 0.1600000075995922, 0.12800000607967377, 0.0, 0.0, 0.0, 0.0, 0.0, 0.0, 1.6518359074607875E9, 0.0, 2022-05-06 12:18:27.460
10.0, -281.39568251604214, -213.05649062572047, -213.03779112594202, -197.62005355861038, 0.1600000075995922, 0.12800000607967377, 1.0240000486373901, 0.0, 0.0, 0.0, 0.0, 0.0, 1.6518359074748342E9, 0.0, 2022-05-06 12:18:27.474
10.0, -223.59926860081032, -89.51263548946008, -114.64476319169626, -135.1712040985003, 0.1600000075995922, 0.12800000607967377, 1.0240000486373901, 0.0, 0.0, 0.0, 0.0, 0.0, 1.6518359074748342E9, 0.0, 2022-05-06 12:18:27.474
11.0, -170.9190378249623, -24.430896460544318, -67.30510955257341, -113.78645615186542, 0.1600000075995922, 0.06400000303983688, 1.0240000486373901, 0.0, 0.0, 0.0, 0.0, 0.0, 1.6518359074898596E9, 0.0, 2022-05-06 12:18:27.489
11.0, -218.28861066373065, -135.61064234329388, -157.74711018102244, -161.84791048243642, 0.1600000075995922, 0.06400000303983688, 1.0240000486373901, 0.0, 0.0, 0.0, 0.0, 0.0, 1.6518359074898596E9, 0.0, 2022-05-06 12:18:27.489
12.0, -279.5930507373996, -197.60322400880978, -207.54761799098924, -195.71270458120853, 0.0800000037997961, 0.06400000303983688, 1.0240000486373901, 0.0, 0.0, 0.0, 0.0, 0.0, 1.6518359074907997E9, 0.0, 2022-05-06 12:18:27.490
12.0, -241.3937125899829, -100.3620852609165, -129.7090802132152, -168.8938819989562, 0.0800000037997961, 0.06400000303983688, 1.0240000486373901, 0.0, 0.0, 0.0, 0.0, 0.0, 1.6518359074907997E9, 0.0, 2022-05-06 12:18:27.490
13.0, -189.35674460651353, -43.35479023633525, -81.32973438641056, -128.93305097240955, 0.0800000037997961, 0.06400000303983688, 1.0240000486373901, 0.0, 0.0, 0.0, 0.0, 0.0, 1.6518359075048444E9, 0.0, 2022-05-06 12:18:27.504
13.0, -219.22732555260882, -129.8212772118859, -148.99948418466374, -150.2953595193103, 0.0800000037997961, 0.06400000303983688, 1.0240000486373901, 0.0, 0.0, 0.0, 0.0, 0.0, 1.6518359075048444E9, 0.0, 2022-05-06 12:18:27.504
14.0, -256.23737551411614, -178.74664843222126, -191.46230828156695, -176.58311630785465, 0.0800000037997961, 0.06400000303983688, 1.0240000486373901, 0.0, 0.0, 0.0, 0.0, 0.0, 1.6518359075518456E9, 0.0, 2022-05-06 12:18:27.551
14.0, -227.58226205362007, -92.50081555405632, -120.87917641783133, -155.38162345904857, 0.0800000037997961, 0.06400000303983688, 1.0240000486373901, 0.0, 0.0, 0.0, 0.0, 0.0, 1.6518359075518456E9, 0.0, 2022-05-06 12:18:27.551
15.0, -197.55086540943012, -50.92060784669593, -91.92113106092438, -138.87370505463332, 0.0800000037997961, 0.06400000303983688, 1.0240000486373901, 0.0, 0.0, 0.0, 0.0, 0.0, 1.6518359075528169E9, 0.0, 2022-05-06 12:18:27.552
15.0, -222.20802581729367, -139.95640609180555, -155.74626370472834, -148.68720253836364, 0.0800000037997961, 0.06400000303983688, 1.0240000486373901, 0.0, 0.0, 0.0, 0.0, 0.0, 1.6518359075528169E9, 0.0, 2022-05-06 12:18:27.552
16.0, -256.7684413078241, -177.736875444185, -193.64640985568985, -179.73959187045693, 0.0800000037997961, 0.06400000303983688, 1.0240000486373901, 0.0, 0.0, 0.0, 0.0, 0.0, 1.6518359075538096E9, 0.0, 2022-05-06 12:18:27.553
16.0, -227.69071915233508, -97.87131189042702, -116.15194287383929, -150.81894551310688, 0.0800000037997961, 0.06400000303983688, 1.0240000486373901, 0.0, 0.0, 0.0, 0.0, 0.0, 1.6518359075538096E9, 0.0, 2022-05-06 12:18:27.553
17.0, -176.1773371626623, -49.41716806450859, -82.28714877506718, -116.45674472022802, 0.0800000037997961, 0.06400000303983688, 1.0240000486373901, 0.0, 0.0, 0.0, 0.0, 0.0, 1.651835907554792E9, 0.0, 2022-05-06 12:18:27.554
17.0, -237.93056523101404, -144.7135588354431, -164.53502860059962, -165.3372371410951, 0.0800000037997961, 0.06400000303983688, 1.0240000486373901, 0.0, 0.0, 0.0, 0.0, 0.0, 1.651835907554792E9, 0.0, 2022-05-06 12:18:27.554
18.0, -239.66213891049847, -173.3985914955847, -193.1490031615831, -182.25654454063624, 0.0800000037997961, 0.06400000303983688, 1.0240000486373901, 0.0, 0.0, 0.0, 0.0, 0.0, 1.6518359075648725E9, 0.0, 2022-05-06 12:18:27.564
18.0, -234.59083457058296, -99.93573666596785, -128.5609309268184, -169.58202359080315, 0.0800000037997961, 0.06400000303983688, 1.0240000486373901, 0.0, 0.0, 0.0, 0.0, 0.0, 1.6518359075648725E9, 0.0, 2022-05-06 12:18:27.564
19.0, -224.10415509482846, -74.84848776319996, -105.3623315016739, -148.94525563530624, 0.0800000037997961, 0.06400000303983688, 1.0240000486373901, 0.0, 0.0, 0.0, 0.0, 0.0, 1.6518359075658176E9, 0.0, 2022-05-06 12:18:27.565
19.0, -238.18113852804527, -144.67241993593052, -172.15694471029565, -168.2618389064446, 0.0800000037997961, 0.06400000303983688, 1.0240000486373901, 0.0, 0.0, 0.0, 0.0, 0.0, 1.6518359075658176E9, 0.0, 2022-05-06 12:18:27.565
20.0, -247.7291031149216, -171.04619442345574, -184.42381656495854, -166.57514402642846, 0.0800000037997961, 0.06400000303983688, 0.5120000243186951, 0.0, 0.0, 0.0, 0.0, 0.0, 1.6518359075798457E9, 0.0, 2022-05-06 12:18:27.579
20.0, -225.92922627320513, -94.02295483602211, -121.01007291628048, -152.25132719613612, 0.0800000037997961, 0.06400000303983688, 0.5120000243186951, 0.0, 0.0, 0.0, 0.0, 0.0, 1.6518359075798457E9, 0.0, 2022-05-06 12:18:27.579
21.0, -198.6653555962257, -55.25141199538484, -89.71832998702303, -137.74051536805928, 0.0800000037997961, 0.09600000455975533, 0.5120000243186951, 0.0, 0.0, 0.0, 0.0, 0.0, 1.651835907580806E9, 0.0, 2022-05-06 12:18:27.580
21.0, -225.9815848725848, -142.3499420634471, -159.68063845811412, -163.92355495784432, 0.0800000037997961, 0.09600000455975533, 0.5120000243186951, 0.0, 0.0, 0.0, 0.0, 0.0, 1.651835907580806E9, 0.0, 2022-05-06 12:18:27.580
22.0, -262.281053842511, -180.0294341170229, -195.4116426347755, -180.66334715951234, 0.12800000607967377, 0.09600000455975533, 0.5120000243186951, 0.0, 0.0, 0.0, 0.0, 0.0, 1.6518359076108546E9, 0.0, 2022-05-06 12:18:27.610
22.0, -226.35557486815378, -91.82015376212075, -117.89847615314648, -141.37195822503418, 0.12800000607967377, 0.09600000455975533, 0.5120000243186951, 0.0, 0.0, 0.0, 0.0, 0.0, 1.6518359076108546E9, 0.0, 2022-05-06 12:18:27.610
23.0, -190.57221209211275, -45.931581305805594, -80.29752199864015, -116.17251232359558, 0.12800000607967377, 0.09600000455975533, 0.5120000243186951, 0.0, 0.0, 0.0, 0.0, 0.0, 1.6518359076117897E9, 0.0, 2022-05-06 12:18:27.611
23.0, -232.21973799867555, -142.18912636535242, -168.48436295380816, -169.58950339071453, 0.12800000607967377, 0.09600000455975533, 0.5120000243186951, 0.0, 0.0, 0.0, 0.0, 0.0, 1.6518359076117897E9, 0.0, 2022-05-06 12:18:27.611
24.0, -257.82683299528435, -179.86113861901686, -196.42515552276745, -199.01503624208272, 0.12800000607967377, 0.09600000455975533, 0.5120000243186951, 0.0, 0.0, 0.0, 0.0, 0.0, 1.651835907612795E9, 0.0, 2022-05-06 12:18:27.612
24.0, -234.17570567550138, -101.56259314669296, -131.20878009544685, -167.01645222119987, 0.12800000607967377, 0.09600000455975533, 0.5120000243186951, 0.0, 0.0, 0.0, 0.0, 0.0, 1.651835907612795E9, 0.0, 2022-05-06 12:18:27.612
25.0, -223.66658680001274, -75.93305875035003, -111.54438612842932, -158.61663692072034, 0.12800000607967377, 0.09600000455975533, 0.5120000243186951, 0.0, 0.0, 0.0, 0.0, 0.0, 1.6518359076248653E9, 0.0, 2022-05-06 12:18:27.624
25.0, -238.65984572237357, -146.46383201470599, -170.08130023488775, -171.0854633729905, 0.12800000607967377, 0.09600000455975533, 0.5120000243186951, 0.0, 0.0, 0.0, 0.0, 0.0, 1.6518359076248653E9, 0.0, 2022-05-06 12:18:27.624
26.0, -260.68037666147575, -178.03980734059587, -195.22838753694668, -183.0830624308437, 0.12800000607967377, 0.09600000455975533, 0.5120000243186951, 0.0, 0.0, 0.0, 0.0, 0.0, 1.651835907639864E9, 0.0, 2022-05-06 12:18:27.639
26.0, -237.91934553114697, -103.89629071904346, -127.03879164485261, -150.71048841439188, 0.12800000607967377, 0.09600000455975533, 0.5120000243186951, 0.0, 0.0, 0.0, 0.0, 0.0, 1.651835907639864E9, 0.0, 2022-05-06 12:18:27.639
27.0, -205.20644061872736, -64.27579058846459, -98.76140807988122, -137.4375834716484, 0.12800000607967377, 0.09600000455975533, 0.5120000243186951, 0.0, 0.0, 0.0, 0.0, 0.0, 1.651835907640808E9, 0.0, 2022-05-06 12:18:27.640
27.0, -223.06446290714666, -140.95495937997475, -165.5448015886359, -167.58491701446474, 0.12800000607967377, 0.09600000455975533, 0.5120000243186951, 0.0, 0.0, 0.0, 0.0, 0.0, 1.651835907640808E9, 0.0, 2022-05-06 12:18:27.640
28.0, -268.31351247103885, -186.86223133606836, -197.88371650548652, -178.81209668144584, 0.12800000607967377, 0.09600000455975533, 0.5120000243186951, 0.0, 0.0, 0.0, 0.0, 0.0, 1.6518359076708767E9, 0.0, 2022-05-06 12:18:27.670
28.0, -234.01115007745102, -98.17050388688222, -130.10176970856264, -159.28607901278883, 0.12800000607967377, 0.09600000455975533, 0.5120000243186951, 0.0, 0.0, 0.0, 0.0, 0.0, 1.6518359076708767E9, 0.0, 2022-05-06 12:18:27.670
29.0, -205.87214281084016, -64.22343198908493, -96.82040000287816, -136.9139974778518, 0.12800000607967377, 0.09600000455975533, 0.5120000243186951, 0.0, 0.0, 0.0, 0.0, 0.0, 1.6518359076717973E9, 0.0, 2022-05-06 12:18:27.671
29.0, -228.95106543740258, -138.901754304301, -156.10155420051888, -154.24843377247453, 0.12800000607967377, 0.09600000455975533, 0.5120000243186951, 0.0, 0.0, 0.0, 0.0, 0.0, 1.6518359076717973E9, 0.0, 2022-05-06 12:18:27.671
30.0, -275.2921657883562, -184.52105396380648, -203.78901853552088, -189.87472075037658, 0.12800000607967377, 0.09600000455975533, 0.7680000364780426, 0.0, 0.0, 0.0, 0.0, 0.0, 1.65183590767278E9, 0.0, 2022-05-06 12:18:27.672
30.0, -247.01104232342914, -105.91583669511601, -140.91008058050647, -173.25086544733495, 0.12800000607967377, 0.09600000455975533, 0.7680000364780426, 0.0, 0.0, 0.0, 0.0, 0.0, 1.65183590767278E9, 0.0, 2022-05-06 12:18:27.672
31.0, -213.29958412284032, -71.65087330108508, -108.38417066587135, -155.0712117627263, 0.12800000607967377, 0.11200000531971455, 0.7680000364780426, 0.0, 0.0, 0.0, 0.0, 0.0, 1.6518359076848588E9, 0.0, 2022-05-06 12:18:27.684
31.0, -231.06036901241168, -142.36490166326985, -160.45853764889762, -162.91752186976373, 0.12800000607967377, 0.11200000531971455, 0.7680000364780426, 0.0, 0.0, 0.0, 0.0, 0.0, 1.6518359076848588E9, 0.0, 2022-05-06 12:18:27.684
32.0, -240.57093459973112, -169.3258404438384, -182.22849529096857, -158.53435912169516, 0.144000006839633, 0.11200000531971455, 0.7680000364780426, 0.0, 0.0, 0.0, 0.0, 0.0, 1.6518359076998773E9, 0.0, 2022-05-06 12:18:27.699
32.0, -243.00186957092956, -94.86443232605234, -124.33110407693312, -144.6294110864401, 0.144000006839633, 0.11200000531971455, 0.7680000364780426, 0.0, 0.0, 0.0, 0.0, 0.0, 1.6518359076998773E9, 0.0, 2022-05-06 12:18:27.699
33.0, -214.06626361375675, -58.303170359227806, -93.55920724151656, -148.61614443920553, 0.144000006839633, 0.11200000531971455, 0.7680000364780426, 0.0, 0.0, 0.0, 0.0, 0.0, 1.651835907700796E9, 0.0, 2022-05-06 12:18:27.700
33.0, -238.27089612698182, -142.72393205901608, -165.81407438544556, -162.66320867277682, 0.144000006839633, 0.11200000531971455, 0.7680000364780426, 0.0, 0.0, 0.0, 0.0, 0.0, 1.651835907700796E9, 0.0, 2022-05-06 12:18:27.700
34.0, -263.0252939336933, -177.82289314316586, -190.87514398852363, -175.5696034198627, 0.144000006839633, 0.11200000531971455, 0.7680000364780426, 0.0, 0.0, 0.0, 0.0, 0.0, 1.6518359077308705E9, 0.0, 2022-05-06 12:18:27.730
34.0, -237.86324703181162, -92.71398985153064, -124.30866467719898, -160.32951110042632, 0.144000006839633, 0.11200000531971455, 0.7680000364780426, 0.0, 0.0, 0.0, 0.0, 0.0, 1.6518359077308705E9, 0.0, 2022-05-06 12:18:27.730
35.0, -203.06721784407273, -56.49305878067389, -88.31212760368362, -133.0581606235355, 0.144000006839633, 0.11200000531971455, 0.7680000364780426, 0.0, 0.0, 0.0, 0.0, 0.0, 1.6518359077318478E9, 0.0, 2022-05-06 12:18:27.731
35.0, -235.21539786318317, -143.8272025459446, -166.14692548150197, -160.99147339258343, 0.144000006839633, 0.11200000531971455, 0.7680000364780426, 0.0, 0.0, 0.0, 0.0, 0.0, 1.6518359077318478E9, 0.0, 2022-05-06 12:18:27.731
36.0, -256.45428971154615, -170.14861843409017, -187.79346642503515, -165.31105784140527, 0.144000006839633, 0.11200000531971455, 0.7680000364780426, 0.0, 0.0, 0.0, 0.0, 0.0, 1.6518359077328005E9, 0.0, 2022-05-06 12:18:27.732
36.0, -240.63451289897785, -105.9943745941855, -132.28213138272986, -159.08786431513727, 0.144000006839633, 0.11200000531971455, 0.7680000364780426, 0.0, 0.0, 0.0, 0.0, 0.0, 1.6518359077328005E9, 0.0, 2022-05-06 12:18:27.732
37.0, -196.47003432223573, -68.55049623781815, -97.22056929813698, -148.57126563973725, 0.144000006839633, 0.11200000531971455, 0.7680000364780426, 0.0, 0.0, 0.0, 0.0, 0.0, 1.6518359077608624E9, 0.0, 2022-05-06 12:18:27.760
37.0, -240.03612890606746, -139.6048554959707, -161.96945723099634, -163.0820774678141, 0.144000006839633, 0.11200000531971455, 0.7680000364780426, 0.0, 0.0, 0.0, 0.0, 0.0, 1.6518359077608624E9, 0.0, 2022-05-06 12:18:27.760
38.0, -276.0027467799373, -187.9617619230412, -199.31983808847144, -179.1973063768819, 0.144000006839633, 0.11200000531971455, 0.7680000364780426, 0.0, 0.0, 0.0, 0.0, 0.0, 1.6518359077618668E9, 0.0, 2022-05-06 12:18:27.761
38.0, -244.4342512539588, -114.28947269590572, -140.46503248577937, -169.62316249031574, 0.144000006839633, 0.11200000531971455, 0.7680000364780426, 0.0, 0.0, 0.0, 0.0, 0.0, 1.6518359077618668E9, 0.0, 2022-05-06 12:18:27.761
39.0, -194.38691004691646, -49.488226163666695, -86.59177362406626, -134.4307039072737, 0.144000006839633, 0.11200000531971455, 0.7680000364780426, 0.0, 0.0, 0.0, 0.0, 0.0, 1.6518359077628183E9, 0.0, 2022-05-06 12:18:27.762
39.0, -227.29428975703195, -133.968826262746, -150.76845686370507, -154.1437165737152, 0.144000006839633, 0.11200000531971455, 0.7680000364780426, 0.0, 0.0, 0.0, 0.0, 0.0, 1.6518359077628183E9, 0.0, 2022-05-06 12:18:27.762
40.0, -265.2991531067528, -175.22366267396137, -193.4070562585257, -176.7102729063481, 0.144000006839633, 0.11200000531971455, 0.8960000425577164, 0.0, 0.0, 0.0, 0.0, 0.0, 1.651835907790868E9, 0.0, 2022-05-06 12:18:27.790
40.0, -238.4653709246777, -92.88602524949238, -120.77445921907201, -146.03935336973518, 0.144000006839633, 0.11200000531971455, 0.8960000425577164, 0.0, 0.0, 0.0, 0.0, 0.0, 1.651835907790868E9, 0.0, 2022-05-06 12:18:27.790
41.0, -202.82786424690858, -53.78163131279871, -85.19679094059393, -130.0625007590279, 0.144000006839633, 0.11200000531971455, 0.8960000425577164, 0.0, 0.0, 0.0, 0.0, 0.0, 1.6518359077917926E9, 0.0, 2022-05-06 12:18:27.791
41.0, -237.99788343021646, -145.99260462028906, -162.2798689273186, -164.14420905523002, 0.144000006839633, 0.11200000531971455, 0.8960000425577164, 0.0, 0.0, 0.0, 0.0, 0.0, 1.6518359077917926E9, 0.0, 2022-05-06 12:18:27.791
42.0, -250.85565947787836, -176.22221596213058, -197.09085771488026, -178.2698111878708, 0.144000006839633, 0.11200000531971455, 0.8960000425577164, 0.0, 0.0, 0.0, 0.0, 0.0, 1.6518359077928033E9, 0.0, 2022-05-06 12:18:27.792
42.0, -232.63112699380144, -97.68057699268684, -126.31325105344877, -150.74788741394877, 0.144000006839633, 0.11200000531971455, 0.8960000425577164, 0.0, 0.0, 0.0, 0.0, 0.0, 1.6518359077928033E9, 0.0, 2022-05-06 12:18:27.792
43.0, -219.4591993498616, -58.87911495240405, -95.64981131674722, -144.5134741878137, 0.144000006839633, 0.11200000531971455, 0.8960000425577164, 0.0, 0.0, 0.0, 0.0, 0.0, 1.6518359078048549E9, 0.0, 2022-05-06 12:18:27.804
43.0, -231.67371260514483, -133.968826262746, -156.8682336914353, -166.90425522252917, 0.144000006839633, 0.11200000531971455, 0.8960000425577164, 0.0, 0.0, 0.0, 0.0, 0.0, 1.6518359078048549E9, 0.0, 2022-05-06 12:18:27.804
44.0, -267.82732547679916, -184.5547130634077, -198.8149515944533, -186.86036138609052, 0.144000006839633, 0.11200000531971455, 0.8960000425577164, 0.0, 0.0, 0.0, 0.0, 0.0, 1.6518359078208516E9, 0.0, 2022-05-06 12:18:27.820
44.0, -251.09127317508683, -109.54353965213522, -138.8232164052315, -164.77625214774162, 0.144000006839633, 0.11200000531971455, 0.8960000425577164, 0.0, 0.0, 0.0, 0.0, 0.0, 1.6518359078208516E9, 0.0, 2022-05-06 12:18:27.820
45.0, -204.20414743060246, -54.47351280460134, -91.26290866872296, -132.919784325175, 0.144000006839633, 0.11200000531971455, 0.8960000425577164, 0.0, 0.0, 0.0, 0.0, 0.0, 1.651835907851856E9, 0.0, 2022-05-06 12:18:27.851
45.0, -229.37367413239554, -139.7918504937552, -158.84664076799527, -153.67996897920966, 0.144000006839633, 0.11200000531971455, 0.8960000425577164, 0.0, 0.0, 0.0, 0.0, 0.0, 1.651835907851856E9, 0.0, 2022-05-06 12:18:27.851
46.0, -253.2865944490768, -173.6940435920842, -180.07805281644687, -147.30343955475837, 0.144000006839633, 0.11200000531971455, 0.8960000425577164, 0.0, 0.0, 0.0, 0.0, 0.0, 1.6518359078528204E9, 0.0, 2022-05-06 12:18:27.852
46.0, -236.69639824563637, -97.05975360004231, -130.0082722096704, -148.20475544407964, 0.144000006839633, 0.11200000531971455, 0.8960000425577164, 0.0, 0.0, 0.0, 0.0, 0.0, 1.6518359078528204E9, 0.0, 2022-05-06 12:18:27.852
47.0, -196.4438550225459, -56.53419768018648, -101.43169664824381, -154.86177736520767, 0.144000006839633, 0.11200000531971455, 0.8960000425577164, 0.0, 0.0, 0.0, 0.0, 0.0, 1.6518359078537996E9, 0.0, 2022-05-06 12:18:27.853
47.0, -230.43206581985578, -136.3773218342103, -156.55782199511304, -161.67961498443037, 0.144000006839633, 0.11200000531971455, 0.8960000425577164, 0.0, 0.0, 0.0, 0.0, 0.0, 1.6518359078537996E9, 0.0, 2022-05-06 12:18:27.853
48.0, -257.07885300414637, -171.71563651552424, -189.97382809920236, -164.46210055146366, 0.144000006839633, 0.11200000531971455, 0.8960000425577164, 0.0, 0.0, 0.0, 0.0, 0.0, 1.6518359078548017E9, 0.0, 2022-05-06 12:18:27.854
48.0, -234.25798347452655, -100.5453403587453, -136.08934953762218, -170.35244298167527, 0.144000006839633, 0.11200000531971455, 0.8960000425577164, 0.0, 0.0, 0.0, 0.0, 0.0, 1.6518359078548017E9, 0.0, 2022-05-06 12:18:27.854
49.0, -201.2271870658733, -61.87103491695598, -96.72690250398591, -151.12935720942914, 0.144000006839633, 0.11200000531971455, 0.8960000425577164, 0.0, 0.0, 0.0, 0.0, 0.0, 1.6518359078808975E9, 0.0, 2022-05-06 12:18:27.880
49.0, -231.51289690705016, -125.24737956607714, -151.0564291602932, -153.893143276684, 0.144000006839633, 0.11200000531971455, 0.8960000425577164, 0.0, 0.0, 0.0, 0.0, 0.0, 1.6518359078808975E9, 0.0, 2022-05-06 12:18:27.880
50.0, -262.56528623914346, -176.86921865446493, -200.3408307763748, -182.78387043438852, 0.144000006839633, 0.11200000531971455, 0.9600000455975533, 0.0, 0.0, 0.0, 0.0, 0.0, 1.6518359078817952E9, 0.0, 2022-05-06 12:18:27.881
50.0, -246.33038053149357, -116.61569046834484, -146.29927641665563, -173.66599434241652, 0.144000006839633, 0.11200000531971455, 0.9600000455975533, 0.0, 0.0, 0.0, 0.0, 0.0, 1.6518359078817952E9, 0.0, 2022-05-06 12:18:27.881
51.0, -221.17207352956757, -67.33876865217462, -104.86866470752284, -157.24409363698214, 0.144000006839633, 0.11200000531971455, 0.9600000455975533, 0.0, 0.0, 0.0, 0.0, 0.0, 1.651835907882805E9, 0.0, 2022-05-06 12:18:27.882
51.0, -231.67371260514483, -136.14170813700184, -159.51234296010807, -165.16894164308906, 0.144000006839633, 0.11200000531971455, 0.9600000455975533, 0.0, 0.0, 0.0, 0.0, 0.0, 1.651835907882805E9, 0.0, 2022-05-06 12:18:27.882
52.0, -259.5097879753448, -180.2538281143643, -194.2260943488218, -171.05554417334497, 0.144000006839633, 0.11200000531971455, 0.9600000455975533, 0.0, 0.0, 0.0, 0.0, 0.0, 1.6518359079118955E9, 0.0, 2022-05-06 12:18:27.911
52.0, -230.9107730141841, -93.7275027395226, -117.4796073581092, -138.9933818532154, 0.144000006839633, 0.11200000531971455, 0.9600000455975533, 0.0, 0.0, 0.0, 0.0, 0.0, 1.6518359079118955E9, 0.0, 2022-05-06 12:18:27.911
53.0, -204.667895025108, -52.22583293123171, -91.34518646774814, -129.33322026766837, 0.144000006839633, 0.11200000531971455, 0.9600000455975533, 0.0, 0.0, 0.0, 0.0, 0.0, 1.6518359079128036E9, 0.0, 2022-05-06 12:18:27.912
53.0, -222.9747053082101, -130.77121180063114, -158.25199667504057, -170.87602897547185, 0.144000006839633, 0.11200000531971455, 0.9600000455975533, 0.0, 0.0, 0.0, 0.0, 0.0, 1.6518359079128036E9, 0.0, 2022-05-06 12:18:27.912
54.0, -243.37211966654286, -164.060061306227, -182.0676795928739, -165.5653710383922, 0.144000006839633, 0.11200000531971455, 0.9600000455975533, 0.0, 0.0, 0.0, 0.0, 0.0, 1.651835907913849E9, 0.0, 2022-05-06 12:18:27.913
54.0, -240.94118469534442, -108.03635996999219, -131.20504019549116, -160.16495550237596, 0.144000006839633, 0.11200000531971455, 0.9600000455975533, 0.0, 0.0, 0.0, 0.0, 0.0, 1.651835907913849E9, 0.0, 2022-05-06 12:18:27.913
55.0, -222.70917241135612, -70.89541351003572, -104.23288171505556, -149.7044553263113, 0.144000006839633, 0.11200000531971455, 0.9600000455975533, 0.0, 0.0, 0.0, 0.0, 0.0, 1.651835907940874E9, 0.0, 2022-05-06 12:18:27.940
55.0, -220.58116933656856, -129.59314331458881, -154.88982661487535, -161.2196072898805, 0.144000006839633, 0.11200000531971455, 0.9600000455975533, 0.0, 0.0, 0.0, 0.0, 0.0, 1.651835907940874E9, 0.0, 2022-05-06 12:18:27.940
56.0, -248.53318160539493, -170.29447453236207, -188.76584041351452, -169.72787968907505, 0.144000006839633, 0.11200000531971455, 0.9600000455975533, 0.0, 0.0, 0.0, 0.0, 0.0, 1.6518359079418056E9, 0.0, 2022-05-06 12:18:27.941
56.0, -242.32868757890537, -107.93912257114425, -132.72717947745696, -153.20874158479273, 0.144000006839633, 0.11200000531971455, 0.9600000455975533, 0.0, 0.0, 0.0, 0.0, 0.0, 1.6518359079418056E9, 0.0, 2022-05-06 12:18:27.941
57.0, -212.46184653276578, -60.98841852741316, -96.68950350442901, -145.28389357868582, 0.144000006839633, 0.11200000531971455, 0.9600000455975533, 0.0, 0.0, 0.0, 0.0, 0.0, 1.6518359079427981E9, 0.0, 2022-05-06 12:18:27.942
57.0, -226.67346636438742, -125.4867331632413, -154.4634780199267, -155.06373196281493, 0.144000006839633, 0.11200000531971455, 0.9600000455975533, 0.0, 0.0, 0.0, 0.0, 0.0, 1.6518359079427981E9, 0.0, 2022-05-06 12:18:27.942
58.0, -252.09356636321172, -170.2121967333369, -193.01810666313395, -168.25435910653323, 0.144000006839633, 0.11200000531971455, 0.9600000455975533, 0.0, 0.0, 0.0, 0.0, 0.0, 1.651835907954878E9, 0.0, 2022-05-06 12:18:27.954
58.0, -232.6834855931811, -95.38427841989323, -120.8155981185846, -149.2556673316285, 0.144000006839633, 0.11200000531971455, 0.9600000455975533, 0.0, 0.0, 0.0, 0.0, 0.0, 1.651835907954878E9, 0.0, 2022-05-06 12:18:27.954
59.0, -202.88396274624392, -52.64844162622467, -88.88807219685987, -132.3999382313341, 0.144000006839633, 0.11200000531971455, 0.9600000455975533, 0.0, 0.0, 0.0, 0.0, 0.0, 1.6518359080028687E9, 0.0, 2022-05-06 12:18:28.002
59.0, -230.62654061755165, -124.58541727392003, -152.7580836401321, -164.57055765017867, 0.144000006839633, 0.11200000531971455, 0.9600000455975533, 0.0, 0.0, 0.0, 0.0, 0.0, 1.6518359080028687E9, 0.0, 2022-05-06 12:18:28.002
60.0, -253.57830664562061, -165.9823698834516, -184.068526069168, -167.7831317121163, 0.144000006839633, 0.11200000531971455, 0.9760000463575125, 0.0, 0.0, 0.0, 0.0, 0.0, 1.651835908003838E9, 0.0, 2022-05-06 12:18:28.003
60.0, -242.01453598262742, -109.04239305807278, -137.47311252122745, -163.0446784682572, 0.144000006839633, 0.11200000531971455, 0.9760000463575125, 0.0, 0.0, 0.0, 0.0, 0.0, 1.651835908003838E9, 0.0, 2022-05-06 12:18:28.003
61.0, -211.15662144823, -68.69635233609006, -103.68685632152483, -153.45931488182396, 0.144000006839633, 0.11200000531971455, 0.9760000463575125, 0.0, 0.0, 0.0, 0.0, 0.0, 1.6518359080047991E9, 0.0, 2022-05-06 12:18:28.004
61.0, -217.02078457875177, -129.38370891707018, -150.74975736392662, -159.10282391496003, 0.144000006839633, 0.11200000531971455, 0.9760000463575125, 0.0, 0.0, 0.0, 0.0, 0.0, 1.6518359080047991E9, 0.0, 2022-05-06 12:18:28.004
62.0, -254.9957287288271, -173.23777579749003, -190.93498238781467, -169.76527868863195, 0.144000006839633, 0.11200000531971455, 0.9760000463575125, 0.0, 0.0, 0.0, 0.0, 0.0, 1.6518359080058053E9, 0.0, 2022-05-06 12:18:28.005
62.0, -245.77687533805147, -118.64645614428446, -142.69027295941487, -159.1103037148714, 0.144000006839633, 0.11200000531971455, 0.9760000463575125, 0.0, 0.0, 0.0, 0.0, 0.0, 1.6518359080058053E9, 0.0, 2022-05-06 12:18:28.005
63.0, -200.49790657451376, -53.64699491439387, -90.6196458763443, -134.48680240660906, 0.144000006839633, 0.11200000531971455, 0.9760000463575125, 0.0, 0.0, 0.0, 0.0, 0.0, 1.6518359080148647E9, 0.0, 2022-05-06 12:18:28.014
63.0, -215.95117319142446, -128.87882242305204, -150.25609056977555, -146.6265176627785, 0.144000006839633, 0.11200000531971455, 0.9760000463575125, 0.0, 0.0, 0.0, 0.0, 0.0, 1.6518359080148647E9, 0.0, 2022-05-06 12:18:28.014
64.0, -258.49627508735284, -179.70406282087788, -196.82532481802627, -174.4887723326683, 0.144000006839633, 0.11200000531971455, 0.9760000463575125, 0.0, 0.0, 0.0, 0.0, 0.0, 1.6518359080157893E9, 0.0, 2022-05-06 12:18:28.015
64.0, -233.2369907866232, -102.60228533437476, -128.10092323226854, -158.43338182289153, 0.144000006839633, 0.11200000531971455, 0.9760000463575125, 0.0, 0.0, 0.0, 0.0, 0.0, 1.6518359080157893E9, 0.0, 2022-05-06 12:18:28.015
65.0, -215.28547099931166, -62.802270005922765, -97.92741038976237, -141.59635222237557, 0.144000006839633, 0.11200000531971455, 0.9760000463575125, 0.0, 0.0, 0.0, 0.0, 0.0, 1.6518359080468397E9, 0.0, 2022-05-06 12:18:28.046
65.0, -229.2390377339907, -129.32387051777914, -162.17889162851498, -163.62810286134481, 0.144000006839633, 0.11200000531971455, 0.9760000463575125, 0.0, 0.0, 0.0, 0.0, 0.0, 1.6518359080468397E9, 0.0, 2022-05-06 12:18:28.046
66.0, -238.9104190194048, -165.03991509461775, -186.31246604258195, -166.40684852842242, 0.144000006839633, 0.11200000531971455, 0.9760000463575125, 0.0, 0.0, 0.0, 0.0, 0.0, 1.651835908047812E9, 0.0, 2022-05-06 12:18:28.047
66.0, -238.727163921576, -109.79411294916645, -131.0105653977953, -157.19921483751386, 0.144000006839633, 0.11200000531971455, 0.9760000463575125, 0.0, 0.0, 0.0, 0.0, 0.0, 1.651835908047812E9, 0.0, 2022-05-06 12:18:28.047
67.0, -210.83872995199636, -67.39112725155428, -98.78758737957105, -151.37619060650468, 0.144000006839633, 0.11200000531971455, 0.9760000463575125, 0.0, 0.0, 0.0, 0.0, 0.0, 1.6518359080608342E9, 0.0, 2022-05-06 12:18:28.060
67.0, -235.75020355684683, -127.14724874356762, -149.2724968814291, -162.8502036705613, 0.144000006839633, 0.11200000531971455, 0.9760000463575125, 0.0, 0.0, 0.0, 0.0, 0.0, 1.6518359080608342E9, 0.0, 2022-05-06 12:18:28.060
68.0, -258.23448209045455, -171.46506321849301, -187.7747669252567, -168.61712940223515, 0.144000006839633, 0.11200000531971455, 0.9760000463575125, 0.0, 0.0, 0.0, 0.0, 0.0, 1.6518359080618138E9, 0.0, 2022-05-06 12:18:28.061
68.0, -244.69604425085708, -116.63438996812329, -138.5315042086877, -162.73426677193493, 0.144000006839633, 0.11200000531971455, 0.9760000463575125, 0.0, 0.0, 0.0, 0.0, 0.0, 1.6518359080618138E9, 0.0, 2022-05-06 12:18:28.061
69.0, -209.96359336236492, -60.84630232909694, -94.3595458320342, -146.20390896778554, 0.144000006839633, 0.11200000531971455, 0.9760000463575125, 0.0, 0.0, 0.0, 0.0, 0.0, 1.6518359080628016E9, 0.0, 2022-05-06 12:18:28.062
69.0, -221.98737171990797, -123.41856848774478, -148.45345879113302, -153.00678698718548, 0.144000006839633, 0.11200000531971455, 0.9760000463575125, 0.0, 0.0, 0.0, 0.0, 0.0, 1.6518359080628016E9, 0.0, 2022-05-06 12:18:28.062
70.0, -252.9200842534192, -173.4733894946985, -187.8907038238831, -172.39068845752627, 0.144000006839633, 0.11200000531971455, 0.9920000471174717, 0.0, 0.0, 0.0, 0.0, 0.0, 1.6518359080748415E9, 0.0, 2022-05-06 12:18:28.074
70.0, -228.8313886388205, -100.67997675715014, -124.53305867454037, -139.83485934324563, 0.144000006839633, 0.11200000531971455, 0.9920000471174717, 0.0, 0.0, 0.0, 0.0, 0.0, 1.6518359080748415E9, 0.0, 2022-05-06 12:18:28.074
71.0, -185.68042295007035, -46.49630619911477, -76.8717736392282, -126.99952269531786, 0.144000006839633, 0.11200000531971455, 0.9920000471174717, 0.0, 0.0, 0.0, 0.0, 0.0, 1.6518359081058767E9, 0.0, 2022-05-06 12:18:28.105
71.0, -227.03997656004503, -126.63862234959379, -154.69161191722378, -157.56946493312716, 0.144000006839633, 0.11200000531971455, 0.9920000471174717, 0.0, 0.0, 0.0, 0.0, 0.0, 1.6518359081058767E9, 0.0, 2022-05-06 12:18:28.105
72.0, -253.2529353494756, -172.46361650666222, -194.80577884195372, -182.48093853797764, 0.1600000075995922, 0.11200000531971455, 0.9920000471174717, 0.0, 0.0, 0.0, 0.0, 0.0, 1.6518359081068065E9, 0.0, 2022-05-06 12:18:28.106
72.0, -235.84370105573907, -113.4068563063629, -139.54501709667966, -168.87892239913344, 0.1600000075995922, 0.11200000531971455, 0.9920000471174717, 0.0, 0.0, 0.0, 0.0, 0.0, 1.6518359081068065E9, 0.0, 2022-05-06 12:18:28.106
73.0, -211.86720243981108, -61.10809532599524, -90.97867627209052, -142.79686010815203, 0.1600000075995922, 0.11200000531971455, 0.9920000471174717, 0.0, 0.0, 0.0, 0.0, 0.0, 1.6518359081078558E9, 0.0, 2022-05-06 12:18:28.107
73.0, -205.8908423106186, -114.36427069501951, -138.9391533038579, -149.79047302529216, 0.1600000075995922, 0.11200000531971455, 0.9920000471174717, 0.0, 0.0, 0.0, 0.0, 0.0, 1.6518359081078558E9, 0.0, 2022-05-06 12:18:28.107
74.0, -250.82948017818853, -170.78066152660176, -189.31934560695663, -161.32432448863983, 0.1600000075995922, 0.11200000531971455, 0.9920000471174717, 0.0, 0.0, 0.0, 0.0, 0.0, 1.6518359081198385E9, 0.0, 2022-05-06 12:18:28.119
74.0, -245.04759484669194, -112.96554811159149, -134.47745265671983, -149.09859153348953, 0.1600000075995922, 0.11200000531971455, 0.9920000471174717, 0.0, 0.0, 0.0, 0.0, 0.0, 1.6518359081198385E9, 0.0, 2022-05-06 12:18:28.119
75.0, -204.35748332878575, -64.18977288948372, -95.36557892011479, -149.3267254307866, 0.1600000075995922, 0.11200000531971455, 0.9920000471174717, 0.0, 0.0, 0.0, 0.0, 0.0, 1.6518359081208007E9, 0.0, 2022-05-06 12:18:28.120
75.0, -222.47729861410335, -125.57275086222216, -151.32944185705855, -163.14191586710513, 0.1600000075995922, 0.11200000531971455, 0.9920000471174717, 0.0, 0.0, 0.0, 0.0, 0.0, 1.6518359081208007E9, 0.0, 2022-05-06 12:18:28.120
76.0, -260.9159903586842, -177.9949285411276, -199.01690619206056, -178.8233163813129, 0.1600000075995922, 0.11200000531971455, 0.9920000471174717, 0.0, 0.0, 0.0, 0.0, 0.0, 1.6518359081348484E9, 0.0, 2022-05-06 12:18:28.134
76.0, -236.81981494417414, -109.64825685089454, -138.40808751014993, -159.99292010441422, 0.1600000075995922, 0.11200000531971455, 0.9920000471174717, 0.0, 0.0, 0.0, 0.0, 0.0, 1.6518359081348484E9, 0.0, 2022-05-06 12:18:28.134
77.0, -204.35374342883006, -55.77499798918143, -90.78794137435034, -141.52529412321746, 0.1600000075995922, 0.11200000531971455, 0.9920000471174717, 0.0, 0.0, 0.0, 0.0, 0.0, 1.6518359081828923E9, 0.0, 2022-05-06 12:18:28.182
77.0, -227.0511962599121, -131.96423988649622, -151.91660615010187, -163.9272948578, 0.1600000075995922, 0.11200000531971455, 0.9920000471174717, 0.0, 0.0, 0.0, 0.0, 0.0, 1.6518359081828923E9, 0.0, 2022-05-06 12:18:28.182
78.0, -251.14363177446648, -170.66846452793106, -191.61564417975023, -173.69965344201773, 0.1600000075995922, 0.11200000531971455, 0.9920000471174717, 0.0, 0.0, 0.0, 0.0, 0.0, 1.6518359081838608E9, 0.0, 2022-05-06 12:18:28.183
78.0, -243.2113039684482, -112.73367431433871, -137.8658020165749, -157.97337412834167, 0.1600000075995922, 0.11200000531971455, 0.9920000471174717, 0.0, 0.0, 0.0, 0.0, 0.0, 1.6518359081838608E9, 0.0, 2022-05-06 12:18:28.183
79.0, -212.53664453187957, -59.69067324278876, -95.30574052082375, -145.06323948130012, 0.1600000075995922, 0.11200000531971455, 0.9920000471174717, 0.0, 0.0, 0.0, 0.0, 0.0, 1.6518359081848004E9, 0.0, 2022-05-06 12:18:28.184
79.0, -202.49127325089648, -111.12551733339205, -136.37358193425462, -141.45423602405936, 0.1600000075995922, 0.11200000531971455, 0.9920000471174717, 0.0, 0.0, 0.0, 0.0, 0.0, 1.6518359081848004E9, 0.0, 2022-05-06 12:18:28.184
80.0, -241.22915699193254, -168.6937973513268, -189.90650989999995, -164.4845399511978, 0.1600000075995922, 0.11200000531971455, 1.008000047877431, 0.0, 0.0, 0.0, 0.0, 0.0, 1.6518359081857872E9, 0.0, 2022-05-06 12:18:28.185
80.0, -240.88508619600907, -113.4405154059641, -137.83588281692937, -153.22744108457118, 0.1600000075995922, 0.11200000531971455, 1.008000047877431, 0.0, 0.0, 0.0, 0.0, 0.0, 1.6518359081857872E9, 0.0, 2022-05-06 12:18:28.185
81.0, -208.2993378820829, -59.46627924544737, -91.41250466695055, -147.00798745825887, 0.1600000075995922, 0.11200000531971455, 1.008000047877431, 0.0, 0.0, 0.0, 0.0, 0.0, 1.6518359081948388E9, 0.0, 2022-05-06 12:18:28.194
81.0, -217.36111547471955, -116.41747577069327, -140.6370678837411, -145.23153497930616, 0.1600000075995922, 0.11200000531971455, 1.008000047877431, 0.0, 0.0, 0.0, 0.0, 0.0, 1.6518359081948388E9, 0.0, 2022-05-06 12:18:28.194
82.0, -260.12313156807795, -173.86607899004593, -199.7087876838632, -188.44981886725873, 0.1600000075995922, 0.11200000531971455, 1.008000047877431, 0.0, 0.0, 0.0, 0.0, 0.0, 1.6518359082268658E9, 0.0, 2022-05-06 12:18:28.226
82.0, -237.34340093797073, -109.38646385399625, -131.95302018662915, -158.83729101810604, 0.1600000075995922, 0.11200000531971455, 1.008000047877431, 0.0, 0.0, 0.0, 0.0, 0.0, 1.6518359082268658E9, 0.0, 2022-05-06 12:18:28.226
83.0, -200.46424747491255, -61.42972672218457, -89.79312798613682, -141.08398592844605, 0.1600000075995922, 0.11200000531971455, 1.008000047877431, 0.0, 0.0, 0.0, 0.0, 0.0, 1.6518359082278004E9, 0.0, 2022-05-06 12:18:28.227
83.0, -212.80217742873356, -125.3745361645706, -152.63466694159433, -161.56367808580399, 0.1600000075995922, 0.11200000531971455, 1.008000047877431, 0.0, 0.0, 0.0, 0.0, 0.0, 1.6518359082278004E9, 0.0, 2022-05-06 12:18:28.227
84.0, -237.67251213407144, -167.55686776479706, -187.23248143168166, -171.8970216633752, 0.1600000075995922, 0.11200000531971455, 1.008000047877431, 0.0, 0.0, 0.0, 0.0, 0.0, 1.6518359082288008E9, 0.0, 2022-05-06 12:18:28.228
84.0, -232.26087689818814, -112.33724491903558, -131.57529029110447, -156.21562114916742, 0.1600000075995922, 0.11200000531971455, 1.008000047877431, 0.0, 0.0, 0.0, 0.0, 0.0, 1.6518359082288008E9, 0.0, 2022-05-06 12:18:28.228
85.0, -210.35254295775667, -55.70767978997901, -86.68153122300282, -131.25552884489298, 0.1600000075995922, 0.11200000531971455, 1.008000047877431, 0.0, 0.0, 0.0, 0.0, 0.0, 1.6518359082297983E9, 0.0, 2022-05-06 12:18:28.229
85.0, -205.20644061872736, -112.99172741128132, -139.81802979344502, -148.61614443920553, 0.1600000075995922, 0.11200000531971455, 1.008000047877431, 0.0, 0.0, 0.0, 0.0, 0.0, 1.6518359082297983E9, 0.0, 2022-05-06 12:18:28.229
86.0, -254.84987263055518, -176.59994585765526, -198.66161569627002, -180.94383965618908, 0.1600000075995922, 0.11200000531971455, 1.008000047877431, 0.0, 0.0, 0.0, 0.0, 0.0, 1.6518359082398348E9, 0.0, 2022-05-06 12:18:28.239
86.0, -250.66492458013818, -134.90380125166848, -149.1976988823153, -177.77614439371973, 0.1600000075995922, 0.11200000531971455, 1.008000047877431, 0.0, 0.0, 0.0, 0.0, 0.0, 1.6518359082398348E9, 0.0, 2022-05-06 12:18:28.239
87.0, -209.73919936502352, -53.05235082143918, -90.52614837745205, -141.56269312277436, 0.1600000075995922, 0.11200000531971455, 1.008000047877431, 0.0, 0.0, 0.0, 0.0, 0.0, 1.6518359082408068E9, 0.0, 2022-05-06 12:18:28.240
87.0, -216.03345099044964, -114.04637919878587, -142.43595976242796, -149.6969755263999, 0.1600000075995922, 0.11200000531971455, 1.008000047877431, 0.0, 0.0, 0.0, 0.0, 0.0, 1.6518359082408068E9, 0.0, 2022-05-06 12:18:28.240
88.0, -257.4304035999812, -181.48051529983059, -197.09459761483595, -176.83742950484157, 0.1600000075995922, 0.11200000531971455, 1.008000047877431, 0.0, 0.0, 0.0, 0.0, 0.0, 1.6518359082548983E9, 0.0, 2022-05-06 12:18:28.254
88.0, -235.67540555773303, -108.09619836928323, -131.73236608924344, -159.60771040897816, 0.1600000075995922, 0.11200000531971455, 1.008000047877431, 0.0, 0.0, 0.0, 0.0, 0.0, 1.6518359082548983E9, 0.0, 2022-05-06 12:18:28.254
89.0, -186.1815695441328, -47.59209688613191, -82.95659086713567, -132.90108482539654, 0.1600000075995922, 0.11200000531971455, 1.008000047877431, 0.0, 0.0, 0.0, 0.0, 0.0, 1.651835908286914E9, 0.0, 2022-05-06 12:18:28.286
89.0, -204.8548900228925, -108.0326200700365, -138.86809520469978, -146.04309326969087, 0.1600000075995922, 0.11200000531971455, 1.008000047877431, 0.0, 0.0, 0.0, 0.0, 0.0, 1.651835908286914E9, 0.0, 2022-05-06 12:18:28.286
90.0, -252.45633665891364, -167.57182736461982, -186.45832214085385, -164.4882798511535, 0.1600000075995922, 0.11200000531971455, 1.008000047877431, 0.0, 0.0, 0.0, 0.0, 0.0, 1.651835908287815E9, 0.0, 2022-05-06 12:18:28.287
90.0, -241.74152328586206, -119.98534032842144, -142.18164656544104, -147.2548208553344, 0.1600000075995922, 0.11200000531971455, 1.008000047877431, 0.0, 0.0, 0.0, 0.0, 0.0, 1.651835908287815E9, 0.0, 2022-05-06 12:18:28.287
91.0, -206.01425900915638, -52.338029929902405, -92.2091033575125, -143.78419369645417, 0.1600000075995922, 0.11200000531971455, 1.008000047877431, 0.0, 0.0, 0.0, 0.0, 0.0, 1.6518359083008344E9, 0.0, 2022-05-06 12:18:28.300
91.0, -208.62470917822793, -102.26195443840697, -134.91502095153555, -153.32093858346343, 0.1600000075995922, 0.11200000531971455, 1.008000047877431, 0.0, 0.0, 0.0, 0.0, 0.0, 1.6518359083008344E9, 0.0, 2022-05-06 12:18:28.300
92.0, -250.18247748585418, -174.2176295858808, -194.28593274811283, -177.8995610922575, 0.1600000075995922, 0.11200000531971455, 1.008000047877431, 0.0, 0.0, 0.0, 0.0, 0.0, 1.6518359083018062E9, 0.0, 2022-05-06 12:18:28.301
92.0, -245.79183493787423, -131.7061867895536, -152.54490934265777, -171.98677926231176, 0.1600000075995922, 0.11200000531971455, 1.008000047877431, 0.0, 0.0, 0.0, 0.0, 0.0, 1.6518359083018062E9, 0.0, 2022-05-06 12:18:28.301
93.0, -201.64231596095487, -63.8270025937818, -90.11475938232616, -138.5071948589757, 0.1600000075995922, 0.11200000531971455, 1.008000047877431, 0.0, 0.0, 0.0, 0.0, 0.0, 1.651835908302832E9, 0.0, 2022-05-06 12:18:28.302
93.0, -228.33024204475805, -126.02527875686064, -150.68991896463558, -162.08726407960057, 0.1600000075995922, 0.11200000531971455, 1.008000047877431, 0.0, 0.0, 0.0, 0.0, 0.0, 1.651835908302832E9, 0.0, 2022-05-06 12:18:28.302
94.0, -258.83286608336493, -188.2572140195407, -199.2562597892247, -171.66514786612242, 0.1600000075995922, 0.11200000531971455, 1.008000047877431, 0.0, 0.0, 0.0, 0.0, 0.0, 1.6518359083468635E9, 0.0, 2022-05-06 12:18:28.346
94.0, -249.44945709453896, -131.75480548897758, -156.10903400043026, -174.54487083200365, 0.1600000075995922, 0.11200000531971455, 1.008000047877431, 0.0, 0.0, 0.0, 0.0, 0.0, 1.6518359083468635E9, 0.0, 2022-05-06 12:18:28.346
95.0, -210.55449755536392, -71.77428999962285, -107.93538267118856, -161.62351648509502, 0.1600000075995922, 0.11200000531971455, 1.008000047877431, 0.0, 0.0, 0.0, 0.0, 0.0, 1.6518359083477936E9, 0.0, 2022-05-06 12:18:28.347
95.0, -216.22418588818982, -122.59205059753731, -150.3159289690666, -158.45956112258136, 0.1600000075995922, 0.11200000531971455, 1.008000047877431, 0.0, 0.0, 0.0, 0.0, 0.0, 1.6518359083477936E9, 0.0, 2022-05-06 12:18:28.347
96.0, -244.59880685200915, -166.2441628803499, -187.35215823026374, -171.46319326851517, 0.1600000075995922, 0.11200000531971455, 1.008000047877431, 0.0, 0.0, 0.0, 0.0, 0.0, 1.6518359083487852E9, 0.0, 2022-05-06 12:18:28.348
96.0, -238.58504772325978, -118.95312794065103, -137.59652921976522, -158.295005524531, 0.1600000075995922, 0.11200000531971455, 1.008000047877431, 0.0, 0.0, 0.0, 0.0, 0.0, 1.6518359083487852E9, 0.0, 2022-05-06 12:18:28.348
97.0, -199.30861838860437, -55.487025692593306, -87.53796831285581, -133.23767582140863, 0.1600000075995922, 0.11200000531971455, 1.008000047877431, 0.0, 0.0, 0.0, 0.0, 0.0, 1.6518359083498168E9, 0.0, 2022-05-06 12:18:28.349
97.0, -196.11848372640088, -92.94212374882773, -123.8187377830036, -133.62662541680038, 0.1600000075995922, 0.11200000531971455, 1.008000047877431, 0.0, 0.0, 0.0, 0.0, 0.0, 1.6518359083498168E9, 0.0, 2022-05-06 12:18:28.349
98.0, -240.49239670066163, -162.14149262895808, -183.11485158046708, -166.03659843280911, 0.1600000075995922, 0.11200000531971455, 1.008000047877431, 0.0, 0.0, 0.0, 0.0, 0.0, 1.6518359083608656E9, 0.0, 2022-05-06 12:18:28.360
98.0, -247.93479761248454, -127.24822604237124, -145.61487472476438, -172.39442835748196, 0.1600000075995922, 0.11200000531971455, 1.008000047877431, 0.0, 0.0, 0.0, 0.0, 0.0, 1.6518359083608656E9, 0.0, 2022-05-06 12:18:28.360
99.0, -203.4112886399962, -55.157914496492594, -88.69359739916399, -139.04574045259506, 0.1600000075995922, 0.11200000531971455, 1.008000047877431, 0.0, 0.0, 0.0, 0.0, 0.0, 1.6518359084088547E9, 0.0, 2022-05-06 12:18:28.408
99.0, -221.59468222456053, -118.82597134215757, -149.7960828752257, -161.9264483815059, 0.1600000075995922, 0.11200000531971455, 1.008000047877431, 0.0, 0.0, 0.0, 0.0, 0.0, 1.6518359084088547E9, 0.0, 2022-05-06 12:18:28.408
100.0, -250.73598267929628, -174.86837217817083, -190.56099239224568, -167.91028831060976, 0.1600000075995922, 0.11200000531971455, 1.008000047877431, 0.0, 0.0, 0.0, 0.0, 0.0, 1.6518359084097946E9, 0.0, 2022-05-06 12:18:28.409
100.0, -229.0857018358074, -109.30418605497107, -125.83454385912046, -140.5155211351812, 0.1600000075995922, 0.11200000531971455, 1.008000047877431, 0.0, 0.0, 0.0, 0.0, 0.0, 1.6518359084097946E9, 0.0, 2022-05-06 12:18:28.409
0.0, -201.7302036099136, -56.63704492896795, -91.57332036504522, -140.1041321400553, 0.1600000075995922, 0.11200000531971455, 1.008000047877431, 0.0, 0.0, 0.0, 0.0, 0.0, 1.65183590841082E9, 0.0, 2022-05-06 12:18:28.410
1.0, -212.19818358588964, -108.4570987150073, -143.4569524503313, -152.2214079964906, 0.1600000075995922, 0.11200000531971455, 1.008000047877431, 0.0, 0.0, 0.0, 0.0, 0.0, 1.6518359084118257E9, 0.0, 2022-05-06 12:18:28.411
1.0, -244.21172720659524, -163.8150978591293, -186.83979193633422, -162.98857996892184, 0.1600000075995922, 0.11200000531971455, 1.008000047877431, 0.0, 0.0, 0.0, 0.0, 0.0, 1.6518359084118257E9, 0.0, 2022-05-06 12:18:28.411
2.0, -236.1148438025266, -123.65979203488678, -144.0889955428429, -164.71641374845058, 0.1600000075995922, 0.11200000531971455, 1.008000047877431, 0.0, 0.0, 0.0, 0.0, 0.0, 1.6518359084378588E9, 0.0, 2022-05-06 12:18:28.437
2.0, -212.46371648274362, -69.58457857556641, -99.18027687491849, -146.80229296069592, 0.1600000075995922, 0.11200000531971455, 1.008000047877431, 0.0, 0.0, 0.0, 0.0, 0.0, 1.6518359084378588E9, 0.0, 2022-05-06 12:18:28.437
3.0, -225.83759872429073, -113.09831456001848, -139.0139513029717, -140.18640993908048, 0.1600000075995922, 0.11200000531971455, 1.008000047877431, 0.0, 0.0, 0.0, 0.0, 0.0, 1.651835908438802E9, 0.0, 2022-05-06 12:18:28.438
3.0, -245.31499769352376, -173.5986761432141, -197.02727941563353, -178.9729123795405, 0.1600000075995922, 0.11200000531971455, 1.008000047877431, 0.0, 0.0, 0.0, 0.0, 0.0, 1.651835908438802E9, 0.0, 2022-05-06 12:18:28.438
4.0, -238.54203887376934, -123.37929953821003, -141.6094418722205, -162.98857996892184, 0.1600000075995922, 0.11200000531971455, 1.008000047877431, 0.0, 0.0, 0.0, 0.0, 0.0, 1.6518359084397883E9, 0.0, 2022-05-06 12:18:28.439
4.0, -193.7604768043384, -40.23010382335633, -72.1258405954577, -119.99842997826636, 0.1600000075995922, 0.11200000531971455, 1.008000047877431, 0.0, 0.0, 0.0, 0.0, 0.0, 1.6518359084397883E9, 0.0, 2022-05-06 12:18:28.439
5.0, -211.08369339909405, -105.74193134717643, -135.42364734550938, -151.80253920145333, 0.1600000075995922, 0.11200000531971455, 1.008000047877431, 0.0, 0.0, 0.0, 0.0, 0.0, 1.6518359084408069E9, 0.0, 2022-05-06 12:18:28.440
5.0, -243.87887611053884, -178.1202151896432, -192.43468227004632, -183.8310424219817, 0.1600000075995922, 0.11200000531971455, 1.008000047877431, 0.0, 0.0, 0.0, 0.0, 0.0, 1.6518359084408069E9, 0.0, 2022-05-06 12:18:28.440
6.0, -244.91108849830925, -121.83098095655441, -140.84650228125975, -170.95082697458565, 0.1600000075995922, 0.11200000531971455, 1.008000047877431, 0.0, 0.0, 0.0, 0.0, 0.0, 1.6518359084808447E9, 0.0, 2022-05-06 12:18:28.480
6.0, -205.31302776746452, -63.96724884212017, -90.38029227918014, -145.56812597531825, 0.1600000075995922, 0.11200000531971455, 1.008000047877431, 0.0, 0.0, 0.0, 0.0, 0.0, 1.6518359084808447E9, 0.0, 2022-05-06 12:18:28.480
7.0, -216.8805383304134, -114.63915334176272, -138.2323122122325, -149.58103862777352, 0.1600000075995922, 0.11200000531971455, 1.008000047877431, 0.0, 0.0, 0.0, 0.0, 0.0, 1.6518359084979274E9, 0.0, 2022-05-06 12:18:28.497
7.0, -250.88370872754604, -178.13143488951027, -197.1469562142156, -185.91416669730097, 0.1600000075995922, 0.11200000531971455, 1.008000047877431, 0.0, 0.0, 0.0, 0.0, 0.0, 1.6518359084979274E9, 0.0, 2022-05-06 12:18:28.497
8.0, -234.84327781759202, -122.38074625004083, -137.8994611161761, -156.35773734748363, 0.1600000075995922, 0.11200000531971455, 1.008000047877431, 0.0, 0.0, 0.0, 0.0, 0.0, 1.6518359084988296E9, 0.0, 2022-05-06 12:18:28.498
8.0, -197.78460915666074, -56.917537425644696, -87.47065011365339, -128.90687167271972, 0.1600000075995922, 0.11200000531971455, 1.008000047877431, 0.0, 0.0, 0.0, 0.0, 0.0, 1.6518359084988296E9, 0.0, 2022-05-06 12:18:28.498
9.0, -194.30650219786912, -96.32112335879356, -125.12396286753938, -140.23876853846014, 0.1600000075995922, 0.11200000531971455, 1.008000047877431, 0.0, 0.0, 0.0, 0.0, 0.0, 1.6518359084998047E9, 0.0, 2022-05-06 12:18:28.499
9.0, -229.13993038516492, -168.14216210786253, -186.87345103593543, -172.12515556067228, 0.1600000075995922, 0.11200000531971455, 1.008000047877431, 0.0, 0.0, 0.0, 0.0, 0.0, 1.6518359084998047E9, 0.0, 2022-05-06 12:18:28.499
10.0, -249.30921084620059, -127.78490168601274, -141.07463617855683, -164.50697935093194, 0.1600000075995922, 0.11200000531971455, 1.0240000486373901, 0.0, 0.0, 0.0, 0.0, 0.0, 1.651835908500806E9, 0.0, 2022-05-06 12:18:28.500
10.0, -203.29348179139197, -49.20212381705642, -79.07457471312955, -121.86090015619993, 0.1600000075995922, 0.11200000531971455, 1.0240000486373901, 0.0, 0.0, 0.0, 0.0, 0.0, 1.651835908500806E9, 0.0, 2022-05-06 12:18:28.500
11.0, -202.03313550632447, -97.74228534195572, -130.28502480639145, -139.00834145303816, 0.1600000075995922, 0.11200000531971455, 1.0240000486373901, 0.0, 0.0, 0.0, 0.0, 0.0, 1.6518359085118396E9, 0.0, 2022-05-06 12:18:28.511
11.0, -254.70588648226112, -187.52606357820332, -196.02124632755294, -179.81812976952642, 0.1600000075995922, 0.11200000531971455, 1.0240000486373901, 0.0, 0.0, 0.0, 0.0, 0.0, 1.6518359085118396E9, 0.0, 2022-05-06 12:18:28.511
12.0, -252.29365101084113, -145.9196765711531, -155.0132433134131, -178.21745258849114, 0.1600000075995922, 0.11200000531971455, 1.0240000486373901, 0.0, 0.0, 0.0, 0.0, 0.0, 1.6518359085127995E9, 0.0, 2022-05-06 12:18:28.512
12.0, -196.8758134674281, -46.857206544838846, -78.22935732314363, -122.59392054751515, 0.1600000075995922, 0.11200000531971455, 1.0240000486373901, 0.0, 0.0, 0.0, 0.0, 0.0, 1.6518359085127995E9, 0.0, 2022-05-06 12:18:28.512
13.0, -207.5008692415431, -91.6013696147129, -130.45706020435318, -141.02040762919933, 0.1600000075995922, 0.11200000531971455, 1.0240000486373901, 0.0, 0.0, 0.0, 0.0, 0.0, 1.651835908527851E9, 0.0, 2022-05-06 12:18:28.527
13.0, -249.06237744912505, -176.36246221046895, -188.7022621142678, -177.89208129234612, 0.1600000075995922, 0.11200000531971455, 1.0240000486373901, 0.0, 0.0, 0.0, 0.0, 0.0, 1.651835908527851E9, 0.0, 2022-05-06 12:18:28.527
14.0, -258.22139244060963, -144.59949188679457, -159.4263252611272, -177.90704089216888, 0.1600000075995922, 0.11200000531971455, 1.0240000486373901, 0.0, 0.0, 0.0, 0.0, 0.0, 1.6518359085288289E9, 0.0, 2022-05-06 12:18:28.528
14.0, -209.78220821451396, -61.18102337513119, -93.63774514058605, -140.2125892387703, 0.1600000075995922, 0.11200000531971455, 1.0240000486373901, 0.0, 0.0, 0.0, 0.0, 0.0, 1.6518359085288289E9, 0.0, 2022-05-06 12:18:28.528
15.0, -197.71729095745832, -90.80477092415094, -127.10984974401072, -144.4798150882125, 0.1600000075995922, 0.11200000531971455, 1.0240000486373901, 0.0, 0.0, 0.0, 0.0, 0.0, 1.6518359085568492E9, 0.0, 2022-05-06 12:18:28.556
15.0, -251.4933124203235, -177.03564420249313, -200.53156567411497, -182.17052684165537, 0.1600000075995922, 0.11200000531971455, 1.0240000486373901, 0.0, 0.0, 0.0, 0.0, 0.0, 1.6518359085568492E9, 0.0, 2022-05-06 12:18:28.556
16.0, -268.2405844219029, -143.72061539720744, -162.47808362497017, -173.63233524281532, 0.1600000075995922, 0.11200000531971455, 1.0240000486373901, 0.0, 0.0, 0.0, 0.0, 0.0, 1.6518359085578475E9, 0.0, 2022-05-06 12:18:28.557
16.0, -208.42088463064283, -51.5433011893183, -88.60009990027174, -138.9597227536142, 0.1600000075995922, 0.11200000531971455, 1.0240000486373901, 0.0, 0.0, 0.0, 0.0, 0.0, 1.6518359085578475E9, 0.0, 2022-05-06 12:18:28.557
17.0, -207.19045754522085, -98.23969203606248, -131.87074238760397, -140.24624833837152, 0.1600000075995922, 0.11200000531971455, 1.0240000486373901, 0.0, 0.0, 0.0, 0.0, 0.0, 1.6518359085588112E9, 0.0, 2022-05-06 12:18:28.558
17.0, -267.41032663173974, -199.22821053955704, -211.1192224486731, -190.33846834488213, 0.1600000075995922, 0.11200000531971455, 1.0240000486373901, 0.0, 0.0, 0.0, 0.0, 0.0, 1.6518359085588112E9, 0.0, 2022-05-06 12:18:28.558
18.0, -264.40718696732074, -148.60492473933846, -166.64807207556441, -181.5272640492767, 0.1600000075995922, 0.11200000531971455, 1.0240000486373901, 0.0, 0.0, 0.0, 0.0, 0.0, 1.65183590855982E9, 0.0, 2022-05-06 12:18:28.559
18.0, -206.8351670494303, -56.143378134816885, -91.40502486703917, -139.78998054377735, 0.1600000075995922, 0.11200000531971455, 1.0240000486373901, 0.0, 0.0, 0.0, 0.0, 0.0, 1.65183590855982E9, 0.0, 2022-05-06 12:18:28.559
19.0, -212.37021898385137, -97.8993611400947, -130.21770660718903, -141.39065772481263, 0.1600000075995922, 0.11200000531971455, 1.0240000486373901, 0.0, 0.0, 0.0, 0.0, 0.0, 1.6518359085698488E9, 0.0, 2022-05-06 12:18:28.569
19.0, -246.35842978116125, -172.71979965362698, -186.93328943522647, -157.51336643379182, 0.1600000075995922, 0.11200000531971455, 1.0240000486373901, 0.0, 0.0, 0.0, 0.0, 0.0, 1.6518359085698488E9, 0.0, 2022-05-06 12:18:28.569
20.0, -242.4165752278641, -142.3667716132477, -160.4286184492521, -175.28911092318594, 0.1600000075995922, 0.11200000531971455, 1.008000047877431, 0.0, 0.0, 0.0, 0.0, 0.0, 1.6518359086008468E9, 0.0, 2022-05-06 12:18:28.600
20.0, -202.171511804685, -43.19210458826274, -74.58295486634597, -125.08469391800463, 0.1600000075995922, 0.11200000531971455, 1.008000047877431, 0.0, 0.0, 0.0, 0.0, 0.0, 1.6518359086008468E9, 0.0, 2022-05-06 12:18:28.600
21.0, -202.21265070419759, -81.66445543244481, -116.60447076847777, -128.5403614770621, 0.1600000075995922, 0.11200000531971455, 1.008000047877431, 0.0, 0.0, 0.0, 0.0, 0.0, 1.6518359086018128E9, 0.0, 2022-05-06 12:18:28.601
21.0, -257.3799149505794, -176.3475026106462, -190.45627519348636, -168.3441167054698, 0.1600000075995922, 0.11200000531971455, 1.008000047877431, 0.0, 0.0, 0.0, 0.0, 0.0, 1.6518359086018128E9, 0.0, 2022-05-06 12:18:28.601
22.0, -258.13911464158446, -144.1020851926878, -160.36504015000537, -170.1878873836249, 0.1600000075995922, 0.11200000531971455, 1.008000047877431, 0.0, 0.0, 0.0, 0.0, 0.0, 1.6518359086028016E9, 0.0, 2022-05-06 12:18:28.602
22.0, -204.33317397907376, -46.056867954321206, -83.87660625623539, -142.24709481466562, 0.1600000075995922, 0.11200000531971455, 1.008000047877431, 0.0, 0.0, 0.0, 0.0, 0.0, 1.6518359086028016E9, 0.0, 2022-05-06 12:18:28.602
23.0, -202.18647140450776, -97.16260084882379, -127.87278933497146, -139.14671775139868, 0.1600000075995922, 0.11200000531971455, 1.008000047877431, 0.0, 0.0, 0.0, 0.0, 0.0, 1.65183590861488E9, 0.0, 2022-05-06 12:18:28.614
23.0, -269.66174640506506, -191.74841062817723, -208.32177728181705, -182.53703703731298, 0.1600000075995922, 0.11200000531971455, 1.008000047877431, 0.0, 0.0, 0.0, 0.0, 0.0, 1.65183590861488E9, 0.0, 2022-05-06 12:18:28.614
24.0, -266.1686798464507, -146.13659076858312, -160.21918405173346, -170.307564182207, 0.1600000075995922, 0.11200000531971455, 1.008000047877431, 0.0, 0.0, 0.0, 0.0, 0.0, 1.651835908615816E9, 0.0, 2022-05-06 12:18:28.615
24.0, -210.59750640485436, -52.34737967979163, -93.12911874661222, -145.7027623737231, 0.1600000075995922, 0.11200000531971455, 1.008000047877431, 0.0, 0.0, 0.0, 0.0, 0.0, 1.651835908615816E9, 0.0, 2022-05-06 12:18:28.615
25.0, -208.6153594283387, -86.91153507027775, -128.4487339281477, -138.7278489563614, 0.1600000075995922, 0.11200000531971455, 1.008000047877431, 0.0, 0.0, 0.0, 0.0, 0.0, 1.6518359086298983E9, 0.0, 2022-05-06 12:18:28.629
25.0, -255.33792957477272, -179.69471307098866, -192.90590966446325, -163.05215826816857, 0.1600000075995922, 0.11200000531971455, 1.008000047877431, 0.0, 0.0, 0.0, 0.0, 0.0, 1.6518359086298983E9, 0.0, 2022-05-06 12:18:28.629
26.0, -268.6781527167186, -154.65234296768904, -168.1739512574859, -176.2353056119755, 0.1600000075995922, 0.11200000531971455, 1.008000047877431, 0.0, 0.0, 0.0, 0.0, 0.0, 1.6518359086608946E9, 0.0, 2022-05-06 12:18:28.660
26.0, -210.11505931057036, -51.09077329467982, -92.03332805959508, -144.7303883852437, 0.1600000075995922, 0.11200000531971455, 1.008000047877431, 0.0, 0.0, 0.0, 0.0, 0.0, 1.6518359086608946E9, 0.0, 2022-05-06 12:18:28.660
27.0, -202.19395120441914, -87.92504795826972, -123.90101558202878, -149.58103862777352, 0.1600000075995922, 0.11200000531971455, 1.008000047877431, 0.0, 0.0, 0.0, 0.0, 0.0, 1.6518359086778555E9, 0.0, 2022-05-06 12:18:28.677
27.0, -267.5000842306763, -192.0588223244995, -204.38740252843127, -187.3839473798871, 0.1600000075995922, 0.11200000531971455, 1.008000047877431, 0.0, 0.0, 0.0, 0.0, 0.0, 1.6518359086778555E9, 0.0, 2022-05-06 12:18:28.677
28.0, -272.44049207214266, -158.23516712523997, -171.22570962132886, -179.9004075685516, 0.1600000075995922, 0.11200000531971455, 1.008000047877431, 0.0, 0.0, 0.0, 0.0, 0.0, 1.651835908678805E9, 0.0, 2022-05-06 12:18:28.678
28.0, -202.2425699038431, -49.692050711251795, -83.2071641641669, -133.97069621272385, 0.1600000075995922, 0.11200000531971455, 1.008000047877431, 0.0, 0.0, 0.0, 0.0, 0.0, 1.651835908678805E9, 0.0, 2022-05-06 12:18:28.678
29.0, -196.0941743766889, -82.14690252672881, -118.57913794508204, -133.73882241547108, 0.1600000075995922, 0.11200000531971455, 1.008000047877431, 0.0, 0.0, 0.0, 0.0, 0.0, 1.6518359086798012E9, 0.0, 2022-05-06 12:18:28.679
29.0, -263.0982219828293, -186.51629059016705, -203.65064223716035, -184.03673691954464, 0.1600000075995922, 0.11200000531971455, 1.008000047877431, 0.0, 0.0, 0.0, 0.0, 0.0, 1.6518359086798012E9, 0.0, 2022-05-06 12:18:28.679
30.0, -260.03150401916355, -146.1777296680957, -160.63057304685935, -173.55005744379014, 0.1600000075995922, 0.11200000531971455, 1.008000047877431, 0.0, 0.0, 0.0, 0.0, 0.0, 1.6518359086807945E9, 0.0, 2022-05-06 12:18:28.680
30.0, -205.01009587105364, -53.282354668714106, -84.06734115397558, -126.04584820661694, 0.1600000075995922, 0.11200000531971455, 1.008000047877431, 0.0, 0.0, 0.0, 0.0, 0.0, 1.6518359086807945E9, 0.0, 2022-05-06 12:18:28.680
31.0, -208.9145514247939, -85.23605989012867, -121.43268161127344, -136.4016311839223, 0.1600000075995922, 0.11200000531971455, 1.008000047877431, 0.0, 0.0, 0.0, 0.0, 0.0, 1.6518359086898553E9, 0.0, 2022-05-06 12:18:28.689
31.0, -259.0591300306842, -181.5310039492324, -195.91652912879363, -180.76806435827166, 0.1600000075995922, 0.11200000531971455, 1.008000047877431, 0.0, 0.0, 0.0, 0.0, 0.0, 1.6518359086898553E9, 0.0, 2022-05-06 12:18:28.689
32.0, -260.4915117137134, -150.9648016113788, -162.5005230247043, -174.0474641378969, 0.1600000075995922, 0.11200000531971455, 1.008000047877431, 0.0, 0.0, 0.0, 0.0, 0.0, 1.6518359087208536E9, 0.0, 2022-05-06 12:18:28.720
32.0, -201.38613281399012, -45.84743355680257, -80.00580980209634, -126.03462850674987, 0.1600000075995922, 0.11200000531971455, 1.008000047877431, 0.0, 0.0, 0.0, 0.0, 0.0, 1.6518359087208536E9, 0.0, 2022-05-06 12:18:28.720
33.0, -200.3202613266185, -78.46684097032994, -120.67348192026839, -134.3596458081156, 0.1600000075995922, 0.11200000531971455, 1.008000047877431, 0.0, 0.0, 0.0, 0.0, 0.0, 1.6518359087217948E9, 0.0, 2022-05-06 12:18:28.721
33.0, -252.59284300729632, -182.7576911346987, -192.6628161673434, -172.3046707585454, 0.1600000075995922, 0.11200000531971455, 1.008000047877431, 0.0, 0.0, 0.0, 0.0, 0.0, 1.6518359087217948E9, 0.0, 2022-05-06 12:18:28.721
34.0, -271.797229279764, -155.19462846126407, -169.15754494583234, -173.87168883997947, 0.1600000075995922, 0.11200000531971455, 1.008000047877431, 0.0, 0.0, 0.0, 0.0, 0.0, 1.651835908722792E9, 0.0, 2022-05-06 12:18:28.722
34.0, -217.93893001787364, -61.10622537601739, -92.33999985596165, -147.95044224709272, 0.1600000075995922, 0.11200000531971455, 1.008000047877431, 0.0, 0.0, 0.0, 0.0, 0.0, 1.651835908722792E9, 0.0, 2022-05-06 12:18:28.722
35.0, -204.70342407468706, -83.27261241339147, -126.09259695606306, -146.24504786729813, 0.1600000075995922, 0.11200000531971455, 1.008000047877431, 0.0, 0.0, 0.0, 0.0, 0.0, 1.6518359087498589E9, 0.0, 2022-05-06 12:18:28.749
35.0, -265.3496417561546, -181.4898650497198, -200.91303546959534, -185.31952260434628, 0.1600000075995922, 0.11200000531971455, 1.008000047877431, 0.0, 0.0, 0.0, 0.0, 0.0, 1.6518359087498589E9, 0.0, 2022-05-06 12:18:28.749
36.0, -276.1018541287631, -162.23686007782817, -177.31426674919203, -187.62330097705126, 0.1600000075995922, 0.11200000531971455, 1.008000047877431, 0.0, 0.0, 0.0, 0.0, 0.0, 1.6518359087828448E9, 0.0, 2022-05-06 12:18:28.782
36.0, -219.53960719890893, -64.1766832396388, -101.27836075006053, -150.34771811868995, 0.1600000075995922, 0.11200000531971455, 1.008000047877431, 0.0, 0.0, 0.0, 0.0, 0.0, 1.6518359087828448E9, 0.0, 2022-05-06 12:18:28.782
37.0, -208.78739482630044, -97.84326264075935, -129.84371661162004, -147.39319715369493, 0.1600000075995922, 0.11200000531971455, 1.008000047877431, 0.0, 0.0, 0.0, 0.0, 0.0, 1.6518359087838337E9, 0.0, 2022-05-06 12:18:28.783
37.0, -251.59428971912712, -186.1983990939334, -201.99012665683404, -184.6426007123664, 0.1600000075995922, 0.11200000531971455, 1.008000047877431, 0.0, 0.0, 0.0, 0.0, 0.0, 1.6518359087838337E9, 0.0, 2022-05-06 12:18:28.783
38.0, -254.3468560865149, -151.7389609022066, -162.33596742665395, -174.48503243271261, 0.1600000075995922, 0.11200000531971455, 1.008000047877431, 0.0, 0.0, 0.0, 0.0, 0.0, 1.65183590878481E9, 0.0, 2022-05-06 12:18:28.784
38.0, -215.16392425075173, -51.86119268555194, -86.53567512473091, -131.88757193740457, 0.1600000075995922, 0.11200000531971455, 1.008000047877431, 0.0, 0.0, 0.0, 0.0, 0.0, 1.65183590878481E9, 0.0, 2022-05-06 12:18:28.784
39.0, -195.8286414798349, -70.12686406914145, -109.34906485443935, -128.40198517870158, 0.1600000075995922, 0.11200000531971455, 1.008000047877431, 0.0, 0.0, 0.0, 0.0, 0.0, 1.6518359087857933E9, 0.0, 2022-05-06 12:18:28.785
39.0, -252.7087799059227, -177.09922250173986, -191.90735637629405, -174.80292392894626, 0.1600000075995922, 0.11200000531971455, 1.008000047877431, 0.0, 0.0, 0.0, 0.0, 0.0, 1.6518359087857933E9, 0.0, 2022-05-06 12:18:28.785
40.0, -264.4184066671878, -155.52373965736479, -162.3172679268755, -172.9703729506582, 0.1600000075995922, 0.11200000531971455, 1.0240000486373901, 0.0, 0.0, 0.0, 0.0, 0.0, 1.6518359087958572E9, 0.0, 2022-05-06 12:18:28.795
40.0, -210.68726400379092, -55.313120344653726, -93.81352043850347, -139.72266234457493, 0.1600000075995922, 0.11200000531971455, 1.0240000486373901, 0.0, 0.0, 0.0, 0.0, 0.0, 1.6518359087958572E9, 0.0, 2022-05-06 12:18:28.795
41.0, -206.38263915479183, -78.85953046567738, -121.47008061083034, -138.86248535476625, 0.1600000075995922, 0.11200000531971455, 1.0240000486373901, 0.0, 0.0, 0.0, 0.0, 0.0, 1.651835908796801E9, 0.0, 2022-05-06 12:18:28.796
41.0, -258.976852231659, -185.3868408035487, -203.13827594323084, -182.43231983855367, 0.1600000075995922, 0.11200000531971455, 1.0240000486373901, 0.0, 0.0, 0.0, 0.0, 0.0, 1.651835908796801E9, 0.0, 2022-05-06 12:18:28.796
42.0, -259.5714963246137, -147.24360115546733, -165.58968038810417, -184.21251221746206, 0.1600000075995922, 0.11200000531971455, 1.0240000486373901, 0.0, 0.0, 0.0, 0.0, 0.0, 1.6518359087978127E9, 0.0, 2022-05-06 12:18:28.797
42.0, -204.12747948151082, -53.00560207199305, -83.78684865729883, -130.29437455628067, 0.1600000075995922, 0.11200000531971455, 1.0240000486373901, 0.0, 0.0, 0.0, 0.0, 0.0, 1.6518359087978127E9, 0.0, 2022-05-06 12:18:28.797
43.0, -190.66383964102715, -78.20504797343165, -110.96844153525308, -118.2406769990921, 0.1600000075995922, 0.11200000531971455, 1.0240000486373901, 0.0, 0.0, 0.0, 0.0, 0.0, 1.6518359088098607E9, 0.0, 2022-05-06 12:18:28.809
43.0, -254.12620198912919, -175.9735126150772, -202.80916474713013, -177.14036140125245, 0.1600000075995922, 0.11200000531971455, 1.0240000486373901, 0.0, 0.0, 0.0, 0.0, 0.0, 1.6518359088098607E9, 0.0, 2022-05-06 12:18:28.809
44.0, -271.3783604847267, -156.63822984416038, -172.63939180457965, -186.8715810859576, 0.1600000075995922, 0.11200000531971455, 1.0240000486373901, 0.0, 0.0, 0.0, 0.0, 0.0, 1.6518359088408616E9, 0.0, 2022-05-06 12:18:28.840
44.0, -208.56300082895905, -55.63849164079875, -89.18352429335937, -137.82279316708446, 0.1600000075995922, 0.11200000531971455, 1.0240000486373901, 0.0, 0.0, 0.0, 0.0, 0.0, 1.6518359088408616E9, 0.0, 2022-05-06 12:18:28.840
45.0, -195.63790658209473, -88.60570975020528, -125.61014986177906, -143.1409309040755, 0.1600000075995922, 0.11200000531971455, 1.0240000486373901, 0.0, 0.0, 0.0, 0.0, 0.0, 1.6518359088418555E9, 0.0, 2022-05-06 12:18:28.841
45.0, -260.0202843192965, -192.7581836162135, -203.99097313312814, -192.63102701772004, 0.1600000075995922, 0.11200000531971455, 1.0240000486373901, 0.0, 0.0, 0.0, 0.0, 0.0, 1.6518359088418555E9, 0.0, 2022-05-06 12:18:28.841
46.0, -279.41914538946, -169.13697549607605, -178.3988377363421, -185.9029469974339, 0.1600000075995922, 0.11200000531971455, 1.0240000486373901, 0.0, 0.0, 0.0, 0.0, 0.0, 1.651835908856866E9, 0.0, 2022-05-06 12:18:28.856
46.0, -218.4699958115816, -56.82777982670814, -95.89290481386706, -146.08423216920346, 0.1600000075995922, 0.11200000531971455, 1.0240000486373901, 0.0, 0.0, 0.0, 0.0, 0.0, 1.651835908856866E9, 0.0, 2022-05-06 12:18:28.856
47.0, -192.22711782250553, -73.54513262864202, -112.73367431433871, -137.59839916974306, 0.1600000075995922, 0.11200000531971455, 1.0240000486373901, 0.0, 0.0, 0.0, 0.0, 0.0, 1.651835908857818E9, 0.0, 2022-05-06 12:18:28.857
47.0, -245.31499769352376, -175.16943412460387, -188.26843371940777, -172.58890315517783, 0.1600000075995922, 0.11200000531971455, 1.0240000486373901, 0.0, 0.0, 0.0, 0.0, 0.0, 1.651835908857818E9, 0.0, 2022-05-06 12:18:28.857
48.0, -261.81543629802763, -154.16989587340504, -168.15899165766314, -180.84286235738546, 0.1600000075995922, 0.11200000531971455, 1.0240000486373901, 0.0, 0.0, 0.0, 0.0, 0.0, 1.651835908869878E9, 0.0, 2022-05-06 12:18:28.869
48.0, -216.13255833927542, -60.26848778594285, -85.38378593837842, -132.5083953300491, 0.1600000075995922, 0.11200000531971455, 1.0240000486373901, 0.0, 0.0, 0.0, 0.0, 0.0, 1.651835908869878E9, 0.0, 2022-05-06 12:18:28.869
49.0, -194.74407049268484, -70.91972285974771, -101.67479014536366, -120.93714486714453, 0.1600000075995922, 0.11200000531971455, 1.0240000486373901, 0.0, 0.0, 0.0, 0.0, 0.0, 1.65183590887082E9, 0.0, 2022-05-06 12:18:28.870
49.0, -248.94270065054297, -177.9706191914156, -194.30463224789128, -170.94708707462996, 0.1600000075995922, 0.11200000531971455, 1.0240000486373901, 0.0, 0.0, 0.0, 0.0, 0.0, 1.65183590887082E9, 0.0, 2022-05-06 12:18:28.870
50.0, -265.7535509513691, -159.7049478078261, -178.1370447394438, -191.95036522578448, 0.1600000075995922, 0.11200000531971455, 1.008000047877431, 0.0, 0.0, 0.0, 0.0, 0.0, 1.6518359089328525E9, 0.0, 2022-05-06 12:18:28.932
50.0, -217.85665221884847, -67.8829240957275, -100.96420915378258, -149.52494012843817, 0.1600000075995922, 0.11200000531971455, 1.008000047877431, 0.0, 0.0, 0.0, 0.0, 0.0, 1.6518359089328525E9, 0.0, 2022-05-06 12:18:28.932
51.0, -192.28321632184088, -73.8480645250529, -111.57056542811915, -134.22126950975507, 0.1600000075995922, 0.11200000531971455, 1.008000047877431, 0.0, 0.0, 0.0, 0.0, 0.0, 1.65183590893382E9, 0.0, 2022-05-06 12:18:28.933
51.0, -255.85403576865792, -185.6448939004913, -196.19702162547037, -166.41806822828948, 0.1600000075995922, 0.11200000531971455, 1.008000047877431, 0.0, 0.0, 0.0, 0.0, 0.0, 1.65183590893382E9, 0.0, 2022-05-06 12:18:28.933
52.0, -262.9748052842915, -158.16784892603755, -168.36842605518177, -177.95565959159285, 0.1600000075995922, 0.11200000531971455, 1.008000047877431, 0.0, 0.0, 0.0, 0.0, 0.0, 1.651835908934796E9, 0.0, 2022-05-06 12:18:28.934
52.0, -198.92153874319047, -44.99847626686096, -83.25578286359087, -137.64327796921134, 0.1600000075995922, 0.11200000531971455, 1.008000047877431, 0.0, 0.0, 0.0, 0.0, 0.0, 1.651835908934796E9, 0.0, 2022-05-06 12:18:28.934
53.0, -207.09322014637291, -88.38131575286388, -126.39926875242963, -151.480907805264, 0.1600000075995922, 0.11200000531971455, 1.008000047877431, 0.0, 0.0, 0.0, 0.0, 0.0, 1.6518359089358215E9, 0.0, 2022-05-06 12:18:28.935
53.0, -260.5251708133146, -193.2742898100987, -204.95212742174044, -188.40120016783476, 0.1600000075995922, 0.11200000531971455, 1.008000047877431, 0.0, 0.0, 0.0, 0.0, 0.0, 1.6518359089358215E9, 0.0, 2022-05-06 12:18:28.935
54.0, -267.5748822297901, -164.58925714995712, -172.29158110870048, -184.7585376109928, 0.1600000075995922, 0.11200000531971455, 1.008000047877431, 0.0, 0.0, 0.0, 0.0, 0.0, 1.6518359089628468E9, 0.0, 2022-05-06 12:18:28.962
54.0, -228.84073838870972, -69.66685637459159, -104.97338190628216, -154.74584046658128, 0.1600000075995922, 0.11200000531971455, 1.008000047877431, 0.0, 0.0, 0.0, 0.0, 0.0, 1.6518359089628468E9, 0.0, 2022-05-06 12:18:28.962
55.0, -203.41689848992974, -77.50568668171763, -120.39298942359164, -144.184362991713, 0.1600000075995922, 0.11200000531971455, 1.008000047877431, 0.0, 0.0, 0.0, 0.0, 0.0, 1.6518359089637952E9, 0.0, 2022-05-06 12:18:28.963
55.0, -241.95656753331423, -166.1562752313912, -180.6951363091357, -164.7500728480518, 0.1600000075995922, 0.11200000531971455, 1.008000047877431, 0.0, 0.0, 0.0, 0.0, 0.0, 1.6518359089637952E9, 0.0, 2022-05-06 12:18:28.963
56.0, -256.1981065645814, -157.2927123364061, -172.7291494035162, -173.28078464698046, 0.1600000075995922, 0.11200000531971455, 1.008000047877431, 0.0, 0.0, 0.0, 0.0, 0.0, 1.6518359089647963E9, 0.0, 2022-05-06 12:18:28.964
56.0, -191.45295853167772, -49.20586371701211, -85.14443234121427, -121.95813755504787, 0.1600000075995922, 0.11200000531971455, 1.008000047877431, 0.0, 0.0, 0.0, 0.0, 0.0, 1.6518359089647963E9, 0.0, 2022-05-06 12:18:28.964
57.0, -206.71549025084823, -76.03964589908719, -121.09983051521704, -154.1848554732278, 0.1600000075995922, 0.11200000531971455, 1.008000047877431, 0.0, 0.0, 0.0, 0.0, 0.0, 1.6518359089657936E9, 0.0, 2022-05-06 12:18:28.965
57.0, -254.41043438576162, -177.0506038023159, -187.64013052685186, -158.78493241872638, 0.1600000075995922, 0.11200000531971455, 1.008000047877431, 0.0, 0.0, 0.0, 0.0, 0.0, 1.6518359089657936E9, 0.0, 2022-05-06 12:18:28.965
58.0, -261.59104230068624, -160.4491878990084, -171.10977272270247, -166.86311632301658, 0.1600000075995922, 0.11200000531971455, 1.008000047877431, 0.0, 0.0, 0.0, 0.0, 0.0, 1.651835908991866E9, 0.0, 2022-05-06 12:18:28.991
58.0, -203.93674458377063, -51.719076487235725, -97.73667549202219, -151.5519659044221, 0.1600000075995922, 0.11200000531971455, 1.008000047877431, 0.0, 0.0, 0.0, 0.0, 0.0, 1.651835908991866E9, 0.0, 2022-05-06 12:18:28.991
59.0, -206.64069225173444, -78.59773746877909, -119.17752193799242, -149.6221775272861, 0.1600000075995922, 0.11200000531971455, 1.008000047877431, 0.0, 0.0, 0.0, 0.0, 0.0, 1.6518359089927864E9, 0.0, 2022-05-06 12:18:28.992
59.0, -258.03439744282514, -186.76312398724258, -203.93861453374848, -188.0197303723544, 0.1600000075995922, 0.11200000531971455, 1.008000047877431, 0.0, 0.0, 0.0, 0.0, 0.0, 1.6518359089927864E9, 0.0, 2022-05-06 12:18:28.992
60.0, -251.5307114198804, -150.35145801864564, -162.01059613050893, -166.08521713223308, 0.1600000075995922, 0.11200000531971455, 1.0240000486373901, 0.0, 0.0, 0.0, 0.0, 0.0, 1.6518359089937904E9, 0.0, 2022-05-06 12:18:28.993
60.0, -215.65011124499142, -58.31999990902841, -99.20271627465263, -148.72834143787622, 0.1600000075995922, 0.11200000531971455, 1.0240000486373901, 0.0, 0.0, 0.0, 0.0, 0.0, 1.6518359089937904E9, 0.0, 2022-05-06 12:18:28.993
61.0, -197.25728326290846, -69.33400527853519, -114.5550055927597, -137.99856846500188, 0.1600000075995922, 0.12800000607967377, 1.0240000486373901, 0.0, 0.0, 0.0, 0.0, 0.0, 1.6518359089947855E9, 0.0, 2022-05-06 12:18:28.994
61.0, -255.40150787401944, -178.64754108339548, -195.5911578326486, -179.07388967834413, 0.1600000075995922, 0.12800000607967377, 1.0240000486373901, 0.0, 0.0, 0.0, 0.0, 0.0, 1.6518359089947855E9, 0.0, 2022-05-06 12:18:28.994
62.0, -267.4888645308092, -170.16918788384646, -179.61430522194132, -184.0516965193674, 0.1600000075995922, 0.12800000607967377, 1.0240000486373901, 0.0, 0.0, 0.0, 0.0, 0.0, 1.6518359090208535E9, 0.0, 2022-05-06 12:18:29.020
62.0, -207.6504652397707, -61.98510186560452, -95.38801831984892, -142.79312020819634, 0.1600000075995922, 0.12800000607967377, 1.0240000486373901, 0.0, 0.0, 0.0, 0.0, 0.0, 1.6518359090208535E9, 0.0, 2022-05-06 12:18:29.020
63.0, -207.19793734513223, -76.65298949182034, -117.1130971624516, -138.64931105729192, 0.1600000075995922, 0.12800000607967377, 1.0240000486373901, 0.0, 0.0, 0.0, 0.0, 0.0, 1.6518359090217876E9, 0.0, 2022-05-06 12:18:29.021
63.0, -259.833289321512, -185.48781810235232, -209.9673332623206, -190.6114810416475, 0.1600000075995922, 0.12800000607967377, 1.0240000486373901, 0.0, 0.0, 0.0, 0.0, 0.0, 1.6518359090217876E9, 0.0, 2022-05-06 12:18:29.021
64.0, -266.1948591461405, -160.12007670290768, -174.37096548406407, -173.47525944467634, 0.1600000075995922, 0.12800000607967377, 1.0240000486373901, 0.0, 0.0, 0.0, 0.0, 0.0, 1.651835909022858E9, 0.0, 2022-05-06 12:18:29.022
64.0, -196.03433597739786, -43.12104648910463, -81.77104258118197, -125.55218141246587, 0.1600000075995922, 0.12800000607967377, 1.0240000486373901, 0.0, 0.0, 0.0, 0.0, 0.0, 1.651835909022858E9, 0.0, 2022-05-06 12:18:29.022
65.0, -192.7581836162135, -68.89643698371947, -105.18655620375648, -128.14393208175898, 0.1600000075995922, 0.12800000607967377, 1.0240000486373901, 0.0, 0.0, 0.0, 0.0, 0.0, 1.6518359090509152E9, 0.0, 2022-05-06 12:18:29.050
65.0, -255.55110387224704, -186.4190531913191, -197.47232751036063, -177.46947259735316, 0.1600000075995922, 0.12800000607967377, 1.0240000486373901, 0.0, 0.0, 0.0, 0.0, 0.0, 1.6518359090509152E9, 0.0, 2022-05-06 12:18:29.050
66.0, -260.77200421039015, -157.4834472341463, -173.33875309629366, -178.98039217945188, 0.1600000075995922, 0.12800000607967377, 1.0240000486373901, 0.0, 0.0, 0.0, 0.0, 0.0, 1.6518359090518043E9, 0.0, 2022-05-06 12:18:29.051
66.0, -184.05917631927878, -41.7223239056766, -78.55098871933296, -124.23573662806302, 0.1600000075995922, 0.12800000607967377, 1.0240000486373901, 0.0, 0.0, 0.0, 0.0, 0.0, 1.6518359090518043E9, 0.0, 2022-05-06 12:18:29.051
67.0, -188.91730636171997, -74.39782981853932, -98.36871858453378, -120.16298557631671, 0.1600000075995922, 0.12800000607967377, 1.0240000486373901, 0.0, 0.0, 0.0, 0.0, 0.0, 1.6518359090528352E9, 0.0, 2022-05-06 12:18:29.052
67.0, -249.1932739475742, -176.22408591210842, -195.95018822839484, -176.2278258120641, 0.1600000075995922, 0.12800000607967377, 1.0240000486373901, 0.0, 0.0, 0.0, 0.0, 0.0, 1.6518359090528352E9, 0.0, 2022-05-06 12:18:29.052
68.0, -273.0650553647429, -171.44449376873672, -181.00928790541366, -186.3442551922053, 0.1600000075995922, 0.12800000607967377, 1.0240000486373901, 0.0, 0.0, 0.0, 0.0, 0.0, 1.6518359090658429E9, 0.0, 2022-05-06 12:18:29.065
68.0, -213.86243906617165, -65.39589062519372, -101.39429764868692, -147.24360115546733, 0.1600000075995922, 0.12800000607967377, 1.0240000486373901, 0.0, 0.0, 0.0, 0.0, 0.0, 1.6518359090658429E9, 0.0, 2022-05-06 12:18:29.065
69.0, -203.71609048638493, -74.56986521650106, -119.86940342979506, -146.9631086587906, 0.1600000075995922, 0.12800000607967377, 1.0240000486373901, 0.0, 0.0, 0.0, 0.0, 0.0, 1.651835909066853E9, 0.0, 2022-05-06 12:18:29.066
69.0, -259.40320082660764, -193.22567111067474, -209.67936096573249, -192.66468611732125, 0.1600000075995922, 0.12800000607967377, 1.0240000486373901, 0.0, 0.0, 0.0, 0.0, 0.0, 1.651835909066853E9, 0.0, 2022-05-06 12:18:29.066
70.0, -274.0486490530893, -175.9772525150329, -186.49946104036644, -192.9788377135992, 0.1600000075995922, 0.12800000607967377, 1.008000047877431, 0.0, 0.0, 0.0, 0.0, 0.0, 1.6518359091118467E9, 0.0, 2022-05-06 12:18:29.111
70.0, -193.40144640859216, -40.009449725970626, -80.64159279456362, -126.93220449611545, 0.1600000075995922, 0.12800000607967377, 1.008000047877431, 0.0, 0.0, 0.0, 0.0, 0.0, 1.6518359091118467E9, 0.0, 2022-05-06 12:18:29.111
71.0, -178.35956878680736, -62.546086858958006, -105.93827609485015, -120.7239705696702, 0.1600000075995922, 0.12800000607967377, 1.008000047877431, 0.0, 0.0, 0.0, 0.0, 0.0, 1.6518359091128073E9, 0.0, 2022-05-06 12:18:29.112
71.0, -258.59164253622293, -179.54511707276106, -199.23382038949057, -182.2378450408578, 0.1600000075995922, 0.12800000607967377, 1.008000047877431, 0.0, 0.0, 0.0, 0.0, 0.0, 1.6518359091128073E9, 0.0, 2022-05-06 12:18:29.112
72.0, -257.7165059465915, -156.90376274101436, -165.31292779138312, -168.24313940666616, 0.1600000075995922, 0.12800000607967377, 1.008000047877431, 0.0, 0.0, 0.0, 0.0, 0.0, 1.651835909113845E9, 0.0, 2022-05-06 12:18:29.113
72.0, -196.04555567726493, -45.51084256079048, -79.684178405907, -127.15285859350115, 0.1600000075995922, 0.12800000607967377, 1.008000047877431, 0.0, 0.0, 0.0, 0.0, 0.0, 1.651835909113845E9, 0.0, 2022-05-06 12:18:29.113
73.0, -191.20986503455788, -67.78942659683526, -109.24060775572434, -129.7670486625284, 0.1600000075995922, 0.12800000607967377, 1.008000047877431, 0.0, 0.0, 0.0, 0.0, 0.0, 1.6518359091148036E9, 0.0, 2022-05-06 12:18:29.114
73.0, -240.38206965196878, -171.30985737033188, -182.67354338569567, -168.66200820170343, 0.1600000075995922, 0.12800000607967377, 1.008000047877431, 0.0, 0.0, 0.0, 0.0, 0.0, 1.6518359091148036E9, 0.0, 2022-05-06 12:18:29.114
74.0, -260.91412040870637, -160.14251610264182, -169.99902243586257, -174.83284312859178, 0.1600000075995922, 0.12800000607967377, 1.008000047877431, 0.0, 0.0, 0.0, 0.0, 0.0, 1.6518359091248329E9, 0.0, 2022-05-06 12:18:29.124
74.0, -203.74226978607476, -52.500715577974916, -90.79168127430603, -136.97009597718716, 0.1600000075995922, 0.12800000607967377, 1.008000047877431, 0.0, 0.0, 0.0, 0.0, 0.0, 1.6518359091248329E9, 0.0, 2022-05-06 12:18:29.124
75.0, -183.68892622366548, -60.616298481822014, -97.92367048980668, -125.75787591002882, 0.1600000075995922, 0.12800000607967377, 1.008000047877431, 0.0, 0.0, 0.0, 0.0, 0.0, 1.6518359091257844E9, 0.0, 2022-05-06 12:18:29.125
75.0, -239.15912236645818, -171.83718326408416, -185.48594815237448, -163.97217365726829, 0.1600000075995922, 0.12800000607967377, 1.008000047877431, 0.0, 0.0, 0.0, 0.0, 0.0, 1.6518359091257844E9, 0.0, 2022-05-06 12:18:29.125
76.0, -255.9026544680819, -165.53171193879098, -171.78295471472666, -170.29260458238423, 0.1600000075995922, 0.12800000607967377, 1.008000047877431, 0.0, 0.0, 0.0, 0.0, 0.0, 1.6518359091558511E9, 0.0, 2022-05-06 12:18:29.155
76.0, -188.0533894719556, -32.06964212004095, -79.5383223076351, -125.72047691047192, 0.1600000075995922, 0.12800000607967377, 1.008000047877431, 0.0, 0.0, 0.0, 0.0, 0.0, 1.6518359091558511E9, 0.0, 2022-05-06 12:18:29.155
77.0, -193.40518630854785, -64.41977673675865, -110.55705254012719, -145.83365887217224, 0.1600000075995922, 0.12800000607967377, 1.008000047877431, 0.0, 0.0, 0.0, 0.0, 0.0, 1.6518359091567988E9, 0.0, 2022-05-06 12:18:29.156
77.0, -246.80721777584404, -179.7919504698366, -191.2902728836052, -163.51216596271843, 0.1600000075995922, 0.12800000607967377, 1.008000047877431, 0.0, 0.0, 0.0, 0.0, 0.0, 1.6518359091567988E9, 0.0, 2022-05-06 12:18:29.156
78.0, -261.0487568071112, -161.57115788571537, -170.8367600259371, -177.94443989172578, 0.1600000075995922, 0.12800000607967377, 1.008000047877431, 0.0, 0.0, 0.0, 0.0, 0.0, 1.6518359091578176E9, 0.0, 2022-05-06 12:18:29.157
78.0, -207.75144253857434, -59.24375519808382, -92.42601755494252, -143.70565579738468, 0.1600000075995922, 0.12800000607967377, 1.008000047877431, 0.0, 0.0, 0.0, 0.0, 0.0, 1.6518359091578176E9, 0.0, 2022-05-06 12:18:29.157
79.0, -183.6477873241529, -68.9562753830105, -107.09390518115833, -135.548933994025, 0.1600000075995922, 0.12800000607967377, 1.008000047877431, 0.0, 0.0, 0.0, 0.0, 0.0, 1.6518359091698737E9, 0.0, 2022-05-06 12:18:29.169
79.0, -247.29714467003942, -172.83573655225337, -186.95198893500492, -174.24193893559277, 0.1600000075995922, 0.12800000607967377, 1.008000047877431, 0.0, 0.0, 0.0, 0.0, 0.0, 1.6518359091698737E9, 0.0, 2022-05-06 12:18:29.169
80.0, -260.83932240959257, -164.46210055146366, -175.55651377001777, -180.1622005654499, 0.1600000075995922, 0.12800000607967377, 1.008000047877431, 0.0, 0.0, 0.0, 0.0, 0.0, 1.6518359091849005E9, 0.0, 2022-05-06 12:18:29.184
80.0, -201.689064710401, -52.04818768333644, -86.89844542043284, -134.08663311135024, 0.1600000075995922, 0.12800000607967377, 1.008000047877431, 0.0, 0.0, 0.0, 0.0, 0.0, 1.6518359091849005E9, 0.0, 2022-05-06 12:18:29.184
81.0, -181.95735254418105, -58.211542810313404, -96.09859931143001, -114.17914564721286, 0.1600000075995922, 0.11200000531971455, 1.008000047877431, 0.0, 0.0, 0.0, 0.0, 0.0, 1.651835909185823E9, 0.0, 2022-05-06 12:18:29.185
81.0, -234.74978031869978, -172.32711015827954, -189.6297573032789, -168.54233140312135, 0.1600000075995922, 0.11200000531971455, 1.008000047877431, 0.0, 0.0, 0.0, 0.0, 0.0, 1.651835909185823E9, 0.0, 2022-05-06 12:18:29.185
82.0, -265.73485145159066, -172.0840166611597, -178.49233523523435, -178.5278642848134, 0.144000006839633, 0.11200000531971455, 1.008000047877431, 0.0, 0.0, 0.0, 0.0, 0.0, 1.6518359092158444E9, 0.0, 2022-05-06 12:18:29.215
82.0, -198.01274305395782, -48.40926502645016, -85.38752583833411, -135.4703960949555, 0.144000006839633, 0.11200000531971455, 1.008000047877431, 0.0, 0.0, 0.0, 0.0, 0.0, 1.6518359092158444E9, 0.0, 2022-05-06 12:18:29.215
83.0, -191.59507472999394, -73.20854163262993, -117.26643306063488, -137.38522487226874, 0.144000006839633, 0.11200000531971455, 1.008000047877431, 0.0, 0.0, 0.0, 0.0, 0.0, 1.6518359092168E9, 0.0, 2022-05-06 12:18:29.216
83.0, -248.43033435661346, -174.9338204273954, -190.9948207871057, -174.6795072304085, 0.144000006839633, 0.11200000531971455, 1.008000047877431, 0.0, 0.0, 0.0, 0.0, 0.0, 1.6518359092168E9, 0.0, 2022-05-06 12:18:29.216
84.0, -268.2368445219472, -167.4166215164587, -168.36842605518177, -168.56851070281118, 0.144000006839633, 0.11200000531971455, 1.008000047877431, 0.0, 0.0, 0.0, 0.0, 0.0, 1.6518359092178013E9, 0.0, 2022-05-06 12:18:29.217
84.0, -201.23653681576252, -53.05048087146133, -91.37136576743796, -134.7336358036846, 0.144000006839633, 0.11200000531971455, 1.008000047877431, 0.0, 0.0, 0.0, 0.0, 0.0, 1.6518359092178013E9, 0.0, 2022-05-06 12:18:29.217
85.0, -202.51558260060847, -80.82297794241458, -116.01730647543445, -143.71313559729606, 0.144000006839633, 0.11200000531971455, 1.008000047877431, 0.0, 0.0, 0.0, 0.0, 0.0, 1.6518359092298412E9, 0.0, 2022-05-06 12:18:29.229
85.0, -259.1189684299752, -179.99390506744385, -196.3017388242297, -180.61098856013268, 0.144000006839633, 0.11200000531971455, 1.008000047877431, 0.0, 0.0, 0.0, 0.0, 0.0, 1.6518359092298412E9, 0.0, 2022-05-06 12:18:29.229
86.0, -271.8346282793209, -179.70593277085572, -188.1076180213131, -196.66263916995376, 0.144000006839633, 0.11200000531971455, 1.008000047877431, 0.0, 0.0, 0.0, 0.0, 0.0, 1.6518359092449212E9, 0.0, 2022-05-06 12:18:29.244
86.0, -210.11879921052605, -71.93323574773967, -107.97278167074546, -151.87733720056713, 0.144000006839633, 0.11200000531971455, 1.008000047877431, 0.0, 0.0, 0.0, 0.0, 0.0, 1.6518359092449212E9, 0.0, 2022-05-06 12:18:29.244
87.0, -189.0930816596374, -67.05266630556434, -111.70894172647968, -140.0255942409858, 0.144000006839633, 0.11200000531971455, 1.008000047877431, 0.0, 0.0, 0.0, 0.0, 0.0, 1.6518359092457907E9, 0.0, 2022-05-06 12:18:29.245
87.0, -244.95596729777753, -180.09114246629179, -193.50803355732933, -176.86734870448709, 0.144000006839633, 0.11200000531971455, 1.008000047877431, 0.0, 0.0, 0.0, 0.0, 0.0, 1.6518359092457907E9, 0.0, 2022-05-06 12:18:29.245
88.0, -257.29015735164285, -168.5198920033872, -179.292673825752, -176.07448991388083, 0.144000006839633, 0.11200000531971455, 1.008000047877431, 0.0, 0.0, 0.0, 0.0, 0.0, 1.6518359092918613E9, 0.0, 2022-05-06 12:18:29.291
88.0, -192.088741524145, -42.107533601112664, -76.14623304782435, -125.55592131242156, 0.144000006839633, 0.11200000531971455, 1.008000047877431, 0.0, 0.0, 0.0, 0.0, 0.0, 1.6518359092918613E9, 0.0, 2022-05-06 12:18:29.291
89.0, -179.70593277085572, -46.59915344789624, -88.21863010479137, -110.72347808815539, 0.144000006839633, 0.11200000531971455, 1.008000047877431, 0.0, 0.0, 0.0, 0.0, 0.0, 1.651835909292798E9, 0.0, 2022-05-06 12:18:29.292
89.0, -248.43781415652484, -176.60929560754448, -190.4039165941067, -161.84043068252504, 0.144000006839633, 0.11200000531971455, 1.008000047877431, 0.0, 0.0, 0.0, 0.0, 0.0, 1.651835909292798E9, 0.0, 2022-05-06 12:18:29.292
90.0, -255.0873562777415, -153.9941205754876, -171.71189661556855, -178.89437448047101, 0.144000006839633, 0.11200000531971455, 1.0240000486373901, 0.0, 0.0, 0.0, 0.0, 0.0, 1.6518359092937899E9, 0.0, 2022-05-06 12:18:29.293
90.0, -217.08997272793204, -63.62691794615239, -99.33735267305747, -152.86841068882495, 0.144000006839633, 0.11200000531971455, 1.0240000486373901, 0.0, 0.0, 0.0, 0.0, 0.0, 1.6518359092937899E9, 0.0, 2022-05-06 12:18:29.293
91.0, -187.84021517448127, -63.028533953242004, -99.2887339736335, -127.86343958508223, 0.144000006839633, 0.11200000531971455, 1.0240000486373901, 0.0, 0.0, 0.0, 0.0, 0.0, 1.6518359092947893E9, 0.0, 2022-05-06 12:18:29.294
91.0, -229.26708698365837, -165.5616311384365, -173.58932639332488, -152.1503498973325, 0.144000006839633, 0.11200000531971455, 1.0240000486373901, 0.0, 0.0, 0.0, 0.0, 0.0, 1.6518359092947893E9, 0.0, 2022-05-06 12:18:29.294
92.0, -255.13597497716546, -164.12924945540726, -169.1725045456551, -169.10705629643053, 0.144000006839633, 0.11200000531971455, 1.0240000486373901, 0.0, 0.0, 0.0, 0.0, 0.0, 1.6518359093058956E9, 0.0, 2022-05-06 12:18:29.305
92.0, -211.89525168947875, -53.783501262776554, -90.66826457576826, -140.2873872378841, 0.144000006839633, 0.11200000531971455, 1.0240000486373901, 0.0, 0.0, 0.0, 0.0, 0.0, 1.6518359093058956E9, 0.0, 2022-05-06 12:18:29.305
93.0, -177.09174270182848, -50.526048401370645, -93.48066934244707, -126.51333570107818, 0.144000006839633, 0.11200000531971455, 1.0240000486373901, 0.0, 0.0, 0.0, 0.0, 0.0, 1.6518359093068283E9, 0.0, 2022-05-06 12:18:29.306
93.0, -235.8156518060714, -160.32577120047063, -181.33465920155868, -167.98134640976787, 0.144000006839633, 0.11200000531971455, 1.0240000486373901, 0.0, 0.0, 0.0, 0.0, 0.0, 1.6518359093068283E9, 0.0, 2022-05-06 12:18:29.306
94.0, -265.0541896596551, -170.09812978468835, -178.07720634015277, -167.038891620934, 0.144000006839633, 0.11200000531971455, 1.0240000486373901, 0.0, 0.0, 0.0, 0.0, 0.0, 1.6518359093358572E9, 0.0, 2022-05-06 12:18:29.335
94.0, -203.88812588434666, -52.62039237655699, -84.71060394635424, -134.5503807058558, 0.144000006839633, 0.11200000531971455, 1.0240000486373901, 0.0, 0.0, 0.0, 0.0, 0.0, 1.6518359093358572E9, 0.0, 2022-05-06 12:18:29.335
95.0, -183.55054992530495, -59.0642400002107, -101.25966125028208, -141.94790281821042, 0.144000006839633, 0.11200000531971455, 1.0240000486373901, 0.0, 0.0, 0.0, 0.0, 0.0, 1.6518359093368285E9, 0.0, 2022-05-06 12:18:29.336
95.0, -248.7893647523597, -180.10984196607023, -193.58657145639881, -181.7553979465738, 0.144000006839633, 0.11200000531971455, 1.0240000486373901, 0.0, 0.0, 0.0, 0.0, 0.0, 1.6518359093368285E9, 0.0, 2022-05-06 12:18:29.336
96.0, -268.43879911955446, -172.31589045841247, -182.24345489079133, -179.87422826886177, 0.144000006839633, 0.11200000531971455, 1.0240000486373901, 0.0, 0.0, 0.0, 0.0, 0.0, 1.6518359093378012E9, 0.0, 2022-05-06 12:18:29.337
96.0, -195.6079873824492, -50.488649401813745, -88.0952134062536, -133.68646381609142, 0.144000006839633, 0.11200000531971455, 1.0240000486373901, 0.0, 0.0, 0.0, 0.0, 0.0, 1.6518359093378012E9, 0.0, 2022-05-06 12:18:29.337
97.0, -187.3876872798428, -56.45752973109484, -93.67514414014295, -126.17674470506608, 0.144000006839633, 0.11200000531971455, 1.0240000486373901, 0.0, 0.0, 0.0, 0.0, 0.0, 1.6518359093658493E9, 0.0, 2022-05-06 12:18:29.365
97.0, -249.99361253809184, -174.78048452921212, -187.26614053128287, -167.5624776147306, 0.144000006839633, 0.11200000531971455, 1.0240000486373901, 0.0, 0.0, 0.0, 0.0, 0.0, 1.6518359093658493E9, 0.0, 2022-05-06 12:18:29.365
98.0, -258.73375873453915, -167.58117711450905, -177.86029214272276, -185.30456300452352, 0.144000006839633, 0.11200000531971455, 1.0240000486373901, 0.0, 0.0, 0.0, 0.0, 0.0, 1.651835909366782E9, 0.0, 2022-05-06 12:18:29.366
98.0, -211.9850092884153, -62.590965658426285, -97.57585979392752, -152.1503498973325, 0.144000006839633, 0.11200000531971455, 1.0240000486373901, 0.0, 0.0, 0.0, 0.0, 0.0, 1.651835909366782E9, 0.0, 2022-05-06 12:18:29.366
99.0, -188.4236395675689, -58.85854550264776, -98.38367818435654, -127.79238148592412, 0.144000006839633, 0.11200000531971455, 1.0240000486373901, 0.0, 0.0, 0.0, 0.0, 0.0, 1.6518359093678284E9, 0.0, 2022-05-06 12:18:29.367
99.0, -241.27590574137866, -177.09174270182848, -191.60442447988316, -171.3360366700217, 0.144000006839633, 0.11200000531971455, 1.0240000486373901, 0.0, 0.0, 0.0, 0.0, 0.0, 1.6518359093678284E9, 0.0, 2022-05-06 12:18:29.367
100.0, -260.1997995171696, -171.0779835730791, -178.68307013297454, -176.49709860887378, 0.144000006839633, 0.11200000531971455, 1.0240000486373901, 0.0, 0.0, 0.0, 0.0, 0.0, 1.6518359093958395E9, 0.0, 2022-05-06 12:18:29.395
100.0, -204.86797967273742, -50.63450550008565, -89.1723045934923, -144.26290089078248, 0.144000006839633, 0.11200000531971455, 1.0240000486373901, 0.0, 0.0, 0.0, 0.0, 0.0, 1.6518359093958395E9, 0.0, 2022-05-06 12:18:29.395
0.0, -186.93141948524863, -61.001508177258074, -100.33590596122667, -131.53602134156972, 0.144000006839633, 0.11200000531971455, 1.0240000486373901, 0.0, 0.0, 0.0, 0.0, 0.0, 1.6518359093967848E9, 0.0, 2022-05-06 12:18:29.396
1.0, -235.75207350682467, -169.825117087923, -180.17155031533912, -167.79435141198337, 0.144000006839633, 0.11200000531971455, 1.0240000486373901, 0.0, 0.0, 0.0, 0.0, 0.0, 1.6518359093977902E9, 0.0, 2022-05-06 12:18:29.397
1.0, -260.8318426096812, -172.562723855488, -177.53866074653342, -171.99799896217883, 0.144000006839633, 0.11200000531971455, 1.0240000486373901, 0.0, 0.0, 0.0, 0.0, 0.0, 1.6518359093977902E9, 0.0, 2022-05-06 12:18:29.397
2.0, -204.32569417916238, -49.99498260766268, -89.21718339296058, -136.730742380023, 0.144000006839633, 0.11200000531971455, 1.0240000486373901, 0.0, 0.0, 0.0, 0.0, 0.0, 1.6518359094258358E9, 0.0, 2022-05-06 12:18:29.425
2.0, -189.91211974993348, -58.121785211376846, -103.04733342910185, -138.04718716442585, 0.144000006839633, 0.11200000531971455, 1.0240000486373901, 0.0, 0.0, 0.0, 0.0, 0.0, 1.6518359094258358E9, 0.0, 2022-05-06 12:18:29.425
3.0, -247.43926086835563, -175.66684081871063, -191.30149258347228, -179.58251607231796, 0.144000006839633, 0.11200000531971455, 1.0240000486373901, 0.0, 0.0, 0.0, 0.0, 0.0, 1.651835909426846E9, 0.0, 2022-05-06 12:18:29.426
3.0, -269.7215848043561, -180.3491955632344, -185.0371601576917, -181.50482464954257, 0.144000006839633, 0.11200000531971455, 1.0240000486373901, 0.0, 0.0, 0.0, 0.0, 0.0, 1.651835909426846E9, 0.0, 2022-05-06 12:18:29.426
4.0, -213.6978834681213, -69.49856087658554, -101.35315874917433, -146.7761136610061, 0.144000006839633, 0.11200000531971455, 1.0240000486373901, 0.0, 0.0, 0.0, 0.0, 0.0, 1.6518359094277933E9, 0.0, 2022-05-06 12:18:29.427
4.0, -182.40614053886384, -59.397091096267104, -96.03876091213897, -125.10339341778308, 0.144000006839633, 0.11200000531971455, 1.0240000486373901, 0.0, 0.0, 0.0, 0.0, 0.0, 1.6518359094277933E9, 0.0, 2022-05-06 12:18:29.427
5.0, -235.51271990966052, -171.2986376704648, -179.98081541759893, -152.41588279418647, 0.144000006839633, 0.11200000531971455, 1.0240000486373901, 0.0, 0.0, 0.0, 0.0, 0.0, 1.651835909455845E9, 0.0, 2022-05-06 12:18:29.455
5.0, -268.0835086237639, -182.91850683279335, -186.9931278345175, -191.20986503455788, 0.144000006839633, 0.11200000531971455, 1.0240000486373901, 0.0, 0.0, 0.0, 0.0, 0.0, 1.651835909455845E9, 0.0, 2022-05-06 12:18:29.455
6.0, -212.2468022853136, -59.17269709892571, -95.96770281298086, -148.8068793369457, 0.144000006839633, 0.11200000531971455, 1.0240000486373901, 0.0, 0.0, 0.0, 0.0, 0.0, 1.6518359094568012E9, 0.0, 2022-05-06 12:18:29.456
6.0, -201.00466301850975, -64.82368593197316, -107.17244308022782, -138.1743437629193, 0.144000006839633, 0.11200000531971455, 1.0240000486373901, 0.0, 0.0, 0.0, 0.0, 0.0, 1.6518359094568012E9, 0.0, 2022-05-06 12:18:29.456
7.0, -260.14370101783425, -190.98921093717217, -204.2976449294947, -180.4613925619051, 0.144000006839633, 0.11200000531971455, 1.0240000486373901, 0.0, 0.0, 0.0, 0.0, 0.0, 1.651835909457795E9, 0.0, 2022-05-06 12:18:29.457
7.0, -273.11367406416684, -177.06556340213865, -191.16311628511176, -195.51448988355696, 0.144000006839633, 0.11200000531971455, 1.0240000486373901, 0.0, 0.0, 0.0, 0.0, 0.0, 1.651835909457795E9, 0.0, 2022-05-06 12:18:29.457
8.0, -219.56578649859875, -61.67843006923795, -100.75477475626394, -143.57101939897984, 0.144000006839633, 0.11200000531971455, 1.0240000486373901, 0.0, 0.0, 0.0, 0.0, 0.0, 1.651835909485868E9, 0.0, 2022-05-06 12:18:29.485
8.0, -191.9466253258288, -52.99812227208167, -96.97747580101714, -124.40403212606907, 0.144000006839633, 0.11200000531971455, 1.0240000486373901, 0.0, 0.0, 0.0, 0.0, 0.0, 1.651835909485868E9, 0.0, 2022-05-06 12:18:29.485
9.0, -235.68849520757794, -162.69312787242234, -177.72191584436223, -161.79929178301245, 0.144000006839633, 0.11200000531971455, 1.0240000486373901, 0.0, 0.0, 0.0, 0.0, 0.0, 1.6518359094868364E9, 0.0, 2022-05-06 12:18:29.486
9.0, -275.1369599401951, -178.7148592825979, -187.82338562468067, -185.9066868973896, 0.144000006839633, 0.11200000531971455, 1.0240000486373901, 0.0, 0.0, 0.0, 0.0, 0.0, 1.6518359094868364E9, 0.0, 2022-05-06 12:18:29.486
10.0, -228.20869529619813, -69.34522497840226, -109.5884184516035, -161.69457458425313, 0.144000006839633, 0.11200000531971455, 1.0240000486373901, 0.0, 0.0, 0.0, 0.0, 0.0, 1.6518359094878E9, 0.0, 2022-05-06 12:18:29.487
10.0, -188.24412436969578, -50.492389301769435, -91.43868396664038, -125.21185051649809, 0.144000006839633, 0.11200000531971455, 1.0240000486373901, 0.0, 0.0, 0.0, 0.0, 0.0, 1.6518359094878E9, 0.0, 2022-05-06 12:18:29.487
11.0, -255.7867175694555, -183.58046912495047, -201.69467456033453, -187.14459378272295, 0.144000006839633, 0.11200000531971455, 1.0240000486373901, 0.0, 0.0, 0.0, 0.0, 0.0, 1.6518359095158525E9, 0.0, 2022-05-06 12:18:29.515
11.0, -282.7663558498025, -191.60255452990532, -199.7761058830656, -193.59592120628804, 0.144000006839633, 0.11200000531971455, 1.0240000486373901, 0.0, 0.0, 0.0, 0.0, 0.0, 1.6518359095158525E9, 0.0, 2022-05-06 12:18:29.515
12.0, -217.1722505269572, -53.40203146729618, -97.19065009849146, -143.12597130425274, 0.144000006839633, 0.11200000531971455, 1.0240000486373901, 0.0, 0.0, 0.0, 0.0, 0.0, 1.6518359095167997E9, 0.0, 2022-05-06 12:18:29.516
12.0, -194.78146949224174, -64.0308271413669, -104.12442461634055, -142.19473621528596, 0.144000006839633, 0.11200000531971455, 1.0240000486373901, 0.0, 0.0, 0.0, 0.0, 0.0, 1.6518359095167997E9, 0.0, 2022-05-06 12:18:29.516
13.0, -249.69816044159234, -173.46777964476496, -189.04259301023558, -169.39876849297434, 0.144000006839633, 0.11200000531971455, 1.0240000486373901, 0.0, 0.0, 0.0, 0.0, 0.0, 1.6518359095177896E9, 0.0, 2022-05-06 12:18:29.517
13.0, -270.349887996912, -172.58516325522214, -189.07999200979248, -186.10864149499685, 0.144000006839633, 0.11200000531971455, 1.0240000486373901, 0.0, 0.0, 0.0, 0.0, 0.0, 1.6518359095177896E9, 0.0, 2022-05-06 12:18:29.517
14.0, -206.7977680498734, -57.98714881297201, -98.56319338222966, -141.34577892534435, 0.144000006839633, 0.11200000531971455, 1.0240000486373901, 0.0, 0.0, 0.0, 0.0, 0.0, 1.6518359095458312E9, 0.0, 2022-05-06 12:18:29.545
14.0, -195.81742177996784, -63.1033319523558, -104.75272780889645, -136.08747958764434, 0.144000006839633, 0.11200000531971455, 1.0240000486373901, 0.0, 0.0, 0.0, 0.0, 0.0, 1.6518359095458312E9, 0.0, 2022-05-06 12:18:29.545
15.0, -257.4584528496489, -176.91222750395536, -184.64821056229994, -172.3832086576149, 0.144000006839633, 0.11200000531971455, 1.0240000486373901, 0.0, 0.0, 0.0, 0.0, 0.0, 1.6518359095468006E9, 0.0, 2022-05-06 12:18:29.546
15.0, -267.17471293453127, -170.06821058504283, -175.5452940701507, -162.53605207428336, 0.144000006839633, 0.11200000531971455, 1.0240000486373901, 0.0, 0.0, 0.0, 0.0, 0.0, 1.6518359095468006E9, 0.0, 2022-05-06 12:18:29.546
16.0, -213.50340867042542, -58.593012605793774, -102.18341653933749, -138.03970736451447, 0.144000006839633, 0.11200000531971455, 1.0240000486373901, 0.0, 0.0, 0.0, 0.0, 0.0, 1.6518359095478048E9, 0.0, 2022-05-06 12:18:29.547
16.0, -194.44487849622965, -49.90522500872612, -98.14432458719239, -144.12452459242195, 0.144000006839633, 0.11200000531971455, 1.0240000486373901, 0.0, 0.0, 0.0, 0.0, 0.0, 1.6518359095478048E9, 0.0, 2022-05-06 12:18:29.547
17.0, -248.56871065497398, -170.35992278158665, -180.66895700944588, -168.47501320391893, 0.144000006839633, 0.11200000531971455, 1.0240000486373901, 0.0, 0.0, 0.0, 0.0, 0.0, 1.6518359096078465E9, 0.0, 2022-05-06 12:18:29.607
17.0, -271.89072677865624, -177.21889930032194, -184.8464252599515, -176.7888108054176, 0.144000006839633, 0.11200000531971455, 1.0240000486373901, 0.0, 0.0, 0.0, 0.0, 0.0, 1.6518359096078465E9, 0.0, 2022-05-06 12:18:29.607
18.0, -208.69763722736388, -55.27198144514114, -99.72630226844922, -151.8174988012761, 0.144000006839633, 0.11200000531971455, 1.0240000486373901, 0.0, 0.0, 0.0, 0.0, 0.0, 1.6518359096088045E9, 0.0, 2022-05-06 12:18:29.608
18.0, -182.08076924271882, -52.964463172480464, -101.25592135032639, -133.11799902282655, 0.144000006839633, 0.11200000531971455, 1.0240000486373901, 0.0, 0.0, 0.0, 0.0, 0.0, 1.6518359096088045E9, 0.0, 2022-05-06 12:18:29.608
19.0, -269.7141050044447, -186.4190531913191, -202.2967984532006, -184.2686107167974, 0.144000006839633, 0.11200000531971455, 1.0240000486373901, 0.0, 0.0, 0.0, 0.0, 0.0, 1.6518359096098099E9, 0.0, 2022-05-06 12:18:29.609
19.0, -276.52072292380035, -177.6789069948718, -186.36108474200591, -190.2374910460785, 0.144000006839633, 0.11200000531971455, 1.0240000486373901, 0.0, 0.0, 0.0, 0.0, 0.0, 1.6518359096098099E9, 0.0, 2022-05-06 12:18:29.609
20.0, -217.87161181867123, -57.9534897133708, -94.5091418302618, -127.06684089452028, 0.144000006839633, 0.11200000531971455, 1.008000047877431, 0.0, 0.0, 0.0, 0.0, 0.0, 1.6518359096108136E9, 0.0, 2022-05-06 12:18:29.610
20.0, -196.67385886982083, -57.785194215364754, -102.68082323344424, -131.57342034112662, 0.144000006839633, 0.11200000531971455, 1.008000047877431, 0.0, 0.0, 0.0, 0.0, 0.0, 1.6518359096108136E9, 0.0, 2022-05-06 12:18:29.610
21.0, -261.54242360126227, -174.974959326908, -192.6254171677865, -183.1242013303563, 0.144000006839633, 0.11200000531971455, 1.008000047877431, 0.0, 0.0, 0.0, 0.0, 0.0, 1.6518359096218362E9, 0.0, 2022-05-06 12:18:29.621
21.0, -277.803508608602, -182.18922634143382, -193.4855941575952, -187.98607127275318, 0.144000006839633, 0.11200000531971455, 1.008000047877431, 0.0, 0.0, 0.0, 0.0, 0.0, 1.6518359096218362E9, 0.0, 2022-05-06 12:18:29.621
22.0, -225.6206845268607, -69.50604067649692, -103.52604062343016, -147.69238915015012, 0.1600000075995922, 0.11200000531971455, 1.008000047877431, 0.0, 0.0, 0.0, 0.0, 0.0, 1.6518359096678536E9, 0.0, 2022-05-06 12:18:29.667
22.0, -199.10853374097496, -55.46271634288132, -102.18715643929318, -137.6245784694329, 0.1600000075995922, 0.11200000531971455, 1.008000047877431, 0.0, 0.0, 0.0, 0.0, 0.0, 1.6518359096678536E9, 0.0, 2022-05-06 12:18:29.667
23.0, -249.7841781405732, -167.73451301269233, -182.89045758312568, -162.9324814695865, 0.1600000075995922, 0.11200000531971455, 1.008000047877431, 0.0, 0.0, 0.0, 0.0, 0.0, 1.65183590966887E9, 0.0, 2022-05-06 12:18:29.668
23.0, -273.2408306626603, -183.6777065237984, -191.45856838161126, -189.06316245999187, 0.1600000075995922, 0.11200000531971455, 1.008000047877431, 0.0, 0.0, 0.0, 0.0, 0.0, 1.65183590966887E9, 0.0, 2022-05-06 12:18:29.668
24.0, -215.8071870431304, -62.41145046055317, -104.71906870929524, -154.80567886587232, 0.1600000075995922, 0.11200000531971455, 1.008000047877431, 0.0, 0.0, 0.0, 0.0, 0.0, 1.651835909669795E9, 0.0, 2022-05-06 12:18:29.669
24.0, -205.48506316542625, -71.37225075438619, -111.70894172647968, -148.1449170447886, 0.1600000075995922, 0.11200000531971455, 1.008000047877431, 0.0, 0.0, 0.0, 0.0, 0.0, 1.651835909669795E9, 0.0, 2022-05-06 12:18:29.669
25.0, -267.3804074320942, -194.11576730012894, -205.23261991841719, -187.59338177740574, 0.1600000075995922, 0.11200000531971455, 1.008000047877431, 0.0, 0.0, 0.0, 0.0, 0.0, 1.651835909670818E9, 0.0, 2022-05-06 12:18:29.670
25.0, -269.1979988105595, -181.6469408478588, -186.92954953527078, -185.0539897074923, 0.1600000075995922, 0.11200000531971455, 1.008000047877431, 0.0, 0.0, 0.0, 0.0, 0.0, 1.651835909670818E9, 0.0, 2022-05-06 12:18:29.670
26.0, -207.56444754078984, -54.80823385063559, -88.99278939561918, -135.34697939641774, 0.1600000075995922, 0.11200000531971455, 1.008000047877431, 0.0, 0.0, 0.0, 0.0, 0.0, 1.651835909682839E9, 0.0, 2022-05-06 12:18:29.682
26.0, -180.61098856013268, -50.03238160721958, -92.45219685463235, -111.87536727450788, 0.1600000075995922, 0.11200000531971455, 1.008000047877431, 0.0, 0.0, 0.0, 0.0, 0.0, 1.651835909682839E9, 0.0, 2022-05-06 12:18:29.682
27.0, -244.8587298989296, -160.78951879497617, -185.46350875264034, -166.88181582279503, 0.1600000075995922, 0.11200000531971455, 1.008000047877431, 0.0, 0.0, 0.0, 0.0, 0.0, 1.6518359096838412E9, 0.0, 2022-05-06 12:18:29.683
27.0, -273.19221196323633, -173.3742821458727, -182.23971499083564, -172.4206076571718, 0.1600000075995922, 0.11200000531971455, 1.008000047877431, 0.0, 0.0, 0.0, 0.0, 0.0, 1.6518359096838412E9, 0.0, 2022-05-06 12:18:29.683
28.0, -223.02145405765623, -67.64731039851904, -99.96939576556906, -143.92630989477038, 0.1600000075995922, 0.11200000531971455, 1.008000047877431, 0.0, 0.0, 0.0, 0.0, 0.0, 1.6518359096848488E9, 0.0, 2022-05-06 12:18:29.684
28.0, -189.46707165520638, -46.31118115130812, -88.48416300164536, -118.91759889107198, 0.1600000075995922, 0.11200000531971455, 1.008000047877431, 0.0, 0.0, 0.0, 0.0, 0.0, 1.6518359096848488E9, 0.0, 2022-05-06 12:18:29.684
30.0, -133.92207751329988, 86.16729497909546, 6.030588678549975, -74.05375902261585, 0.1600000075995922, 0.11200000531971455, 1.0240000486373901, 0.0, 0.0, 0.0, 0.0, 0.0, 1.6518359097118435E9, 0.0, 2022-05-06 12:18:29.711
30.0, -124.46013062540442, 80.23581364937127, 1.9466179269365966, -70.48215456493199, 0.1600000075995922, 0.11200000531971455, 1.0240000486373901, 0.0, 0.0, 0.0, 0.0, 0.0, 1.6518359097118435E9, 0.0, 2022-05-06 12:18:29.711
31.0, -177.68638679478317, -46.95070404373109, -95.29078092100099, -105.7194919474423, 0.1600000075995922, 0.11200000531971455, 1.0240000486373901, 0.0, 0.0, 0.0, 0.0, 0.0, 1.6518359097127826E9, 0.0, 2022-05-06 12:18:29.712
31.0, -187.0922351833433, -38.038522449322045, -88.97034999588504, -110.91047308593988, 0.1600000075995922, 0.11200000531971455, 1.0240000486373901, 0.0, 0.0, 0.0, 0.0, 0.0, 1.6518359097127826E9, 0.0, 2022-05-06 12:18:29.712
32.0, -148.05141954589635, 63.798953344114125, -14.172350882086903, -88.47481325175613, 0.1600000075995922, 0.11200000531971455, 1.0240000486373901, 0.0, 0.0, 0.0, 0.0, 0.0, 1.6518359097138026E9, 0.0, 2022-05-06 12:18:29.713
32.0, -120.30510177463293, 78.75481326691806, -0.5740746431984007, -70.08572516962886, 0.1600000075995922, 0.11200000531971455, 1.0240000486373901, 0.0, 0.0, 0.0, 0.0, 0.0, 1.6518359097138026E9, 0.0, 2022-05-06 12:18:29.713
33.0, -172.19995355978608, -25.240584800951183, -78.27423612261191, -96.82974975276738, 0.1600000075995922, 0.11200000531971455, 1.0240000486373901, 0.0, 0.0, 0.0, 0.0, 0.0, 1.6518359097147806E9, 0.0, 2022-05-06 12:18:29.714
33.0, -198.81308164447546, -47.63136583566666, -91.68551736371592, -114.06694864854217, 0.1600000075995922, 0.11200000531971455, 1.0240000486373901, 0.0, 0.0, 0.0, 0.0, 0.0, 1.6518359097147806E9, 0.0, 2022-05-06 12:18:29.714
34.0, -150.4449555175379, 63.439922948367894, -9.553574436809868, -78.74733346700668, 0.1600000075995922, 0.11200000531971455, 1.0240000486373901, 0.0, 0.0, 0.0, 0.0, 0.0, 1.65183590972484E9, 0.0, 2022-05-06 12:18:29.724
34.0, -112.86270086281002, 89.88475553505123, 7.893058856483549, -60.182470086961985, 0.1600000075995922, 0.11200000531971455, 1.0240000486373901, 0.0, 0.0, 0.0, 0.0, 0.0, 1.65183590972484E9, 0.0, 2022-05-06 12:18:29.724
35.0, -165.61024983786047, -35.12514038383961, -83.95514415530488, -97.1588609488681, 0.1600000075995922, 0.11200000531971455, 1.0240000486373901, 0.0, 0.0, 0.0, 0.0, 0.0, 1.6518359097408428E9, 0.0, 2022-05-06 12:18:29.740
35.0, -204.34065377898514, -56.169557434506714, -97.45618299534544, -116.70357811730355, 0.1600000075995922, 0.11200000531971455, 1.0240000486373901, 0.0, 0.0, 0.0, 0.0, 0.0, 1.6518359097408428E9, 0.0, 2022-05-06 12:18:29.740
36.0, -144.71168888546526, 72.85325113683939, -0.8396075400523841, -69.8127124728635, 0.1600000075995922, 0.11200000531971455, 1.0240000486373901, 0.0, 0.0, 0.0, 0.0, 0.0, 1.6518359097718496E9, 0.0, 2022-05-06 12:18:29.771
36.0, -121.9843168547377, 78.20878787338734, -0.5927741429768503, -66.4393227128312, 0.1600000075995922, 0.11200000531971455, 1.0240000486373901, 0.0, 0.0, 0.0, 0.0, 0.0, 1.6518359097718496E9, 0.0, 2022-05-06 12:18:29.771
37.0, -169.4099881928414, -34.59033469017595, -89.27702179225162, -113.28156965784729, 0.1600000075995922, 0.11200000531971455, 1.0240000486373901, 0.0, 0.0, 0.0, 0.0, 0.0, 1.6518359097728105E9, 0.0, 2022-05-06 12:18:29.772
37.0, -179.92658686824143, -32.50721041485667, -81.30729498667642, -101.84121569339186, 0.1600000075995922, 0.11200000531971455, 1.0240000486373901, 0.0, 0.0, 0.0, 0.0, 0.0, 1.6518359097728105E9, 0.0, 2022-05-06 12:18:29.772
38.0, -131.2517889449373, 82.7078875200823, 5.316267787013203, -73.20106183271855, 0.1600000075995922, 0.11200000531971455, 1.0240000486373901, 0.0, 0.0, 0.0, 0.0, 0.0, 1.6518359097737932E9, 0.0, 2022-05-06 12:18:29.773
38.0, -118.91759889107198, 90.18768743146211, 17.06703344779089, -44.27667557541281, 0.1600000075995922, 0.11200000531971455, 1.0240000486373901, 0.0, 0.0, 0.0, 0.0, 0.0, 1.6518359097737932E9, 0.0, 2022-05-06 12:18:29.773
39.0, -162.79410517122597, -23.3818545229733, -80.56679479544982, -102.21520568896085, 0.1600000075995922, 0.11200000531971455, 1.0240000486373901, 0.0, 0.0, 0.0, 0.0, 0.0, 1.65183590977479E9, 0.0, 2022-05-06 12:18:29.774
39.0, -189.7924429513514, -50.9860560959205, -95.85176591435447, -122.9828701429069, 0.1600000075995922, 0.11200000531971455, 1.0240000486373901, 0.0, 0.0, 0.0, 0.0, 0.0, 1.65183590977479E9, 0.0, 2022-05-06 12:18:29.774
40.0, -147.1463637566194, 57.08209302369505, -11.191650617402047, -78.97172746434808, 0.1600000075995922, 0.11200000531971455, 1.0240000486373901, 0.0, 0.0, 0.0, 0.0, 0.0, 1.6518359097848463E9, 0.0, 2022-05-06 12:18:29.784
40.0, -120.01338957808912, 84.95556739345193, 7.732243158388883, -65.7362215211615, 0.1600000075995922, 0.11200000531971455, 1.0240000486373901, 0.0, 0.0, 0.0, 0.0, 0.0, 1.6518359097848463E9, 0.0, 2022-05-06 12:18:29.784
41.0, -167.8616696111858, -31.650773325003684, -84.45255084941164, -107.77643692307174, 0.1600000075995922, 0.12800000607967377, 1.0240000486373901, 0.0, 0.0, 0.0, 0.0, 0.0, 1.651835909799864E9, 0.0, 2022-05-06 12:18:29.799
41.0, -180.92888005636632, -39.58310113102198, -80.7986685927026, -102.88090788107365, 0.1600000075995922, 0.12800000607967377, 1.0240000486373901, 0.0, 0.0, 0.0, 0.0, 0.0, 1.651835909799864E9, 0.0, 2022-05-06 12:18:29.799
42.0, -141.71976892091334, 68.73936118558049, -5.076914189849049, -72.97666783537716, 0.1600000075995922, 0.12800000607967377, 1.0240000486373901, 0.0, 0.0, 0.0, 0.0, 0.0, 1.6518359098328452E9, 0.0, 2022-05-06 12:18:29.832
42.0, -124.6172064235434, 65.27621382661164, -11.681577511597425, -84.91068859398365, 0.1600000075995922, 0.12800000607967377, 1.0240000486373901, 0.0, 0.0, 0.0, 0.0, 0.0, 1.6518359098328452E9, 0.0, 2022-05-06 12:18:29.832
43.0, -174.7169062299654, -41.254836411215365, -95.1000460232608, -117.14488631207496, 0.1600000075995922, 0.12800000607967377, 1.0240000486373901, 0.0, 0.0, 0.0, 0.0, 0.0, 1.6518359098337982E9, 0.0, 2022-05-06 12:18:29.833
43.0, -191.93166572600603, -32.67550591286272, -81.26241618720815, -106.48243153840303, 0.1600000075995922, 0.12800000607967377, 1.0240000486373901, 0.0, 0.0, 0.0, 0.0, 0.0, 1.6518359098337982E9, 0.0, 2022-05-06 12:18:29.833
44.0, -146.89579045958817, 66.95168900676072, -0.6152135427109897, -72.37828384246677, 0.1600000075995922, 0.12800000607967377, 1.0240000486373901, 0.0, 0.0, 0.0, 0.0, 0.0, 1.6518359098347926E9, 0.0, 2022-05-06 12:18:29.834
44.0, -124.22451692819595, 70.74394756183028, -1.2659561350010335, -64.9171834308654, 0.1600000075995922, 0.12800000607967377, 1.0240000486373901, 0.0, 0.0, 0.0, 0.0, 0.0, 1.6518359098347926E9, 0.0, 2022-05-06 12:18:29.834
45.0, -160.7109808959067, -22.90688722860068, -79.22417071135715, -102.30496328789741, 0.1600000075995922, 0.12800000607967377, 1.0240000486373901, 0.0, 0.0, 0.0, 0.0, 0.0, 1.651835909835797E9, 0.0, 2022-05-06 12:18:29.835
45.0, -187.26053068134934, -45.37994606234133, -90.29801448015496, -116.55024221912026, 0.1600000075995922, 0.12800000607967377, 1.0240000486373901, 0.0, 0.0, 0.0, 0.0, 0.0, 1.651835909835797E9, 0.0, 2022-05-06 12:18:29.835
46.0, -153.20126178488135, 60.522800982929766, -5.738876482006162, -76.71656779106706, 0.1600000075995922, 0.12800000607967377, 1.0240000486373901, 0.0, 0.0, 0.0, 0.0, 0.0, 1.6518359098448536E9, 0.0, 2022-05-06 12:18:29.844
46.0, -114.55687554273754, 91.47421301621944, 11.247749116737396, -58.33869940880686, 0.1600000075995922, 0.12800000607967377, 1.0240000486373901, 0.0, 0.0, 0.0, 0.0, 0.0, 1.6518359098448536E9, 0.0, 2022-05-06 12:18:29.844
47.0, -168.46005360409617, -26.014744091778994, -75.89565975079313, -97.6001691436395, 0.1600000075995922, 0.12800000607967377, 1.0240000486373901, 0.0, 0.0, 0.0, 0.0, 0.0, 1.651835909859868E9, 0.0, 2022-05-06 12:18:29.859
47.0, -194.59447449445724, -53.49552896618843, -95.30948042077944, -112.44383206777275, 0.1600000075995922, 0.12800000607967377, 1.0240000486373901, 0.0, 0.0, 0.0, 0.0, 0.0, 1.651835909859868E9, 0.0, 2022-05-06 12:18:29.859
48.0, -143.5822390988469, 75.87135040108114, -3.83152750460431, -75.27296640817076, 0.1600000075995922, 0.12800000607967377, 1.0240000486373901, 0.0, 0.0, 0.0, 0.0, 0.0, 1.6518359098607898E9, 0.0, 2022-05-06 12:18:29.860
48.0, -118.71564429346472, 82.72658701986074, 7.212397064547986, -63.30902644991875, 0.1600000075995922, 0.12800000607967377, 1.0240000486373901, 0.0, 0.0, 0.0, 0.0, 0.0, 1.6518359098607898E9, 0.0, 2022-05-06 12:18:29.860
49.0, -163.09329716768116, -32.9410388097167, -86.79746812162921, -101.42608679831028, 0.1600000075995922, 0.12800000607967377, 1.0240000486373901, 0.0, 0.0, 0.0, 0.0, 0.0, 1.65183590990684E9, 0.0, 2022-05-06 12:18:29.906
49.0, -176.5270178085193, -33.44592530373484, -71.00387060875073, -90.79729112423956, 0.1600000075995922, 0.12800000607967377, 1.0240000486373901, 0.0, 0.0, 0.0, 0.0, 0.0, 1.65183590990684E9, 0.0, 2022-05-06 12:18:29.906
50.0, -123.23344343993813, 83.9644939051941, 11.431004214566201, -42.429164997301996, 0.1600000075995922, 0.12800000607967377, 1.008000047877431, 0.0, 0.0, 0.0, 0.0, 0.0, 1.6518359099078116E9, 0.0, 2022-05-06 12:18:29.907
50.0, -107.48846462648362, 91.34705641772598, 8.510142349172384, -67.69218919798732, 0.1600000075995922, 0.12800000607967377, 1.008000047877431, 0.0, 0.0, 0.0, 0.0, 0.0, 1.6518359099078116E9, 0.0, 2022-05-06 12:18:29.907
51.0, -164.13298935536295, -26.08954209089279, -82.85187366837636, -109.92313949763775, 0.1600000075995922, 0.11200000531971455, 1.008000047877431, 0.0, 0.0, 0.0, 0.0, 0.0, 1.6518359099088466E9, 0.0, 2022-05-06 12:18:29.908
51.0, -176.94962650351226, -34.762370088137686, -79.75523650506511, -97.01300485059619, 0.1600000075995922, 0.11200000531971455, 1.008000047877431, 0.0, 0.0, 0.0, 0.0, 0.0, 1.6518359099088466E9, 0.0, 2022-05-06 12:18:29.908
52.0, -145.6204845746979, 61.90282406657934, -10.125779130030423, -69.65189677476883, 0.1600000075995922, 0.11200000531971455, 1.008000047877431, 0.0, 0.0, 0.0, 0.0, 0.0, 1.6518359099097989E9, 0.0, 2022-05-06 12:18:29.909
52.0, -118.21823759935796, 83.94579440541565, 0.4095190451480448, -77.01949968747795, 0.1600000075995922, 0.11200000531971455, 1.008000047877431, 0.0, 0.0, 0.0, 0.0, 0.0, 1.6518359099097989E9, 0.0, 2022-05-06 12:18:29.909
53.0, -153.24988048430532, -22.55159673281014, -71.22078480618075, -99.89272781647742, 0.1600000075995922, 0.11200000531971455, 1.008000047877431, 0.0, 0.0, 0.0, 0.0, 0.0, 1.6518359099208412E9, 0.0, 2022-05-06 12:18:29.920
53.0, -191.40433983225375, -51.49094258993864, -96.05746041191742, -123.15490554086864, 0.1600000075995922, 0.11200000531971455, 1.008000047877431, 0.0, 0.0, 0.0, 0.0, 0.0, 1.6518359099208412E9, 0.0, 2022-05-06 12:18:29.920
54.0, -140.30982663761824, 69.04603298194706, -3.696891106199473, -81.33908413629979, 0.1600000075995922, 0.11200000531971455, 1.008000047877431, 0.0, 0.0, 0.0, 0.0, 0.0, 1.6518359099217951E9, 0.0, 2022-05-06 12:18:29.921
54.0, -133.03572122380137, 77.51316648162901, 3.3640400101430714, -64.34123883768916, 0.1600000075995922, 0.11200000531971455, 1.008000047877431, 0.0, 0.0, 0.0, 0.0, 0.0, 1.6518359099217951E9, 0.0, 2022-05-06 12:18:29.921
55.0, -165.23999974224716, -25.872627893462777, -80.59297409513965, -101.13437460176647, 0.1600000075995922, 0.11200000531971455, 1.008000047877431, 0.0, 0.0, 0.0, 0.0, 0.0, 1.6518359099508946E9, 0.0, 2022-05-06 12:18:29.950
55.0, -173.3406230462715, -48.33072712738067, -92.2128432574682, -110.46916489116848, 0.1600000075995922, 0.11200000531971455, 1.008000047877431, 0.0, 0.0, 0.0, 0.0, 0.0, 1.6518359099508946E9, 0.0, 2022-05-06 12:18:29.950
56.0, -133.77622141502798, 68.68326268624514, 0.08414774900302291, -68.76554048527032, 0.1600000075995922, 0.11200000531971455, 1.008000047877431, 0.0, 0.0, 0.0, 0.0, 0.0, 1.6518359099518206E9, 0.0, 2022-05-06 12:18:29.951
56.0, -124.05622143018991, 82.64804912079126, 7.780861857812852, -60.881831378676, 0.1600000075995922, 0.11200000531971455, 1.008000047877431, 0.0, 0.0, 0.0, 0.0, 0.0, 1.6518359099518206E9, 0.0, 2022-05-06 12:18:29.951
57.0, -156.90750264097005, -19.79155056551099, -72.71300488850102, -86.48892637528479, 0.1600000075995922, 0.11200000531971455, 1.008000047877431, 0.0, 0.0, 0.0, 0.0, 0.0, 1.6518359099527953E9, 0.0, 2022-05-06 12:18:29.952
57.0, -194.4261789964512, -46.39719885028899, -92.53073475370184, -114.72891094069928, 0.1600000075995922, 0.11200000531971455, 1.008000047877431, 0.0, 0.0, 0.0, 0.0, 0.0, 1.6518359099527953E9, 0.0, 2022-05-06 12:18:29.952
58.0, -144.56957268714905, 61.97762206569314, -8.027695254888386, -70.76638696156442, 0.1600000075995922, 0.11200000531971455, 1.008000047877431, 0.0, 0.0, 0.0, 0.0, 0.0, 1.6518359099648354E9, 0.0, 2022-05-06 12:18:29.964
58.0, -96.339822858572, 99.42150042206049, 20.892951102461666, -42.21599069982767, 0.1600000075995922, 0.11200000531971455, 1.008000047877431, 0.0, 0.0, 0.0, 0.0, 0.0, 1.6518359099648354E9, 0.0, 2022-05-06 12:18:29.964
59.0, -141.72350882086903, -8.642908797599375, -55.46458629285917, -63.48106184788048, 0.1600000075995922, 0.11200000531971455, 1.008000047877431, 0.0, 0.0, 0.0, 0.0, 0.0, 1.651835909979864E9, 0.0, 2022-05-06 12:18:29.979
59.0, -189.51943025458604, -48.26340892817825, -94.70361662795767, -101.64674089569598, 0.1600000075995922, 0.11200000531971455, 1.008000047877431, 0.0, 0.0, 0.0, 0.0, 0.0, 1.651835909979864E9, 0.0, 2022-05-06 12:18:29.979
60.0, -149.18834913242608, 64.07196604087949, -17.616798741277307, -100.29289711173624, 0.1600000075995922, 0.11200000531971455, 1.008000047877431, 0.0, 0.0, 0.0, 0.0, 0.0, 1.6518359099808035E9, 0.0, 2022-05-06 12:18:29.980
60.0, -108.7899498110637, 89.5593842389062, 10.170657929498702, -75.11963050998747, 0.1600000075995922, 0.11200000531971455, 1.008000047877431, 0.0, 0.0, 0.0, 0.0, 0.0, 1.6518359099808035E9, 0.0, 2022-05-06 12:18:29.980
61.0, -161.3692032881081, -33.02331660874188, -82.74341656966135, -110.35696789249778, 0.1600000075995922, 0.11200000531971455, 1.008000047877431, 0.0, 0.0, 0.0, 0.0, 0.0, 1.6518359100118487E9, 0.0, 2022-05-06 12:18:30.011
61.0, -197.81826825626194, -50.68312419950962, -93.49188904231414, -117.3169217100367, 0.1600000075995922, 0.11200000531971455, 1.008000047877431, 0.0, 0.0, 0.0, 0.0, 0.0, 1.6518359100118487E9, 0.0, 2022-05-06 12:18:30.011
62.0, -146.48440146446228, 63.383824449032545, -3.988603302743286, -70.91224305983633, 0.1600000075995922, 0.11200000531971455, 1.008000047877431, 0.0, 0.0, 0.0, 0.0, 0.0, 1.6518359100127835E9, 0.0, 2022-05-06 12:18:30.012
62.0, -123.59247383568436, 64.97328193020076, -6.479376673232764, -74.06123882252723, 0.1600000075995922, 0.11200000531971455, 1.008000047877431, 0.0, 0.0, 0.0, 0.0, 0.0, 1.6518359100127835E9, 0.0, 2022-05-06 12:18:30.012
63.0, -145.41852997709066, -11.182300867512822, -68.20642544189468, -92.745779001154, 0.1600000075995922, 0.11200000531971455, 1.008000047877431, 0.0, 0.0, 0.0, 0.0, 0.0, 1.6518359100138085E9, 0.0, 2022-05-06 12:18:30.013
63.0, -172.35328945796937, -21.27629084791988, -70.59622151358053, -94.11084248498082, 0.1600000075995922, 0.11200000531971455, 1.008000047877431, 0.0, 0.0, 0.0, 0.0, 0.0, 1.6518359100138085E9, 0.0, 2022-05-06 12:18:30.013
64.0, -135.93040378950536, 69.50978057645261, -0.47309734439477324, -62.64332425780594, 0.1600000075995922, 0.11200000531971455, 1.008000047877431, 0.0, 0.0, 0.0, 0.0, 0.0, 1.6518359100248425E9, 0.0, 2022-05-06 12:18:30.024
64.0, -113.04221606068313, 91.23485941905528, 13.323393592145294, -56.3602923322469, 0.1600000075995922, 0.11200000531971455, 1.008000047877431, 0.0, 0.0, 0.0, 0.0, 0.0, 1.6518359100248425E9, 0.0, 2022-05-06 12:18:30.024
65.0, -145.1043783808127, -24.264470912516117, -77.8703269273974, -98.31822993513197, 0.1600000075995922, 0.11200000531971455, 1.008000047877431, 0.0, 0.0, 0.0, 0.0, 0.0, 1.6518359100398552E9, 0.0, 2022-05-06 12:18:30.039
65.0, -193.25933021027595, -56.37151203211397, -100.6986762569286, -120.54819527175277, 0.1600000075995922, 0.11200000531971455, 1.008000047877431, 0.0, 0.0, 0.0, 0.0, 0.0, 1.6518359100398552E9, 0.0, 2022-05-06 12:18:30.039
66.0, -142.5836858106777, 69.52100027631968, -4.2840553992427886, -72.65129653923213, 0.1600000075995922, 0.11200000531971455, 1.008000047877431, 0.0, 0.0, 0.0, 0.0, 0.0, 1.6518359100407972E9, 0.0, 2022-05-06 12:18:30.040
66.0, -99.24946502409875, 103.61018837243319, 26.255967638920993, -44.73294337000698, 0.1600000075995922, 0.11200000531971455, 1.008000047877431, 0.0, 0.0, 0.0, 0.0, 0.0, 1.6518359100407972E9, 0.0, 2022-05-06 12:18:30.040
67.0, -147.37823755387217, -15.748718713410199, -67.83617534628138, -83.38480941206217, 0.1600000075995922, 0.11200000531971455, 1.008000047877431, 0.0, 0.0, 0.0, 0.0, 0.0, 1.651835910102857E9, 0.0, 2022-05-06 12:18:30.102
