%OpenBCI Raw EEG Data
%Number of channels = 4
%Sample Rate = 200 Hz
%Board = OpenBCI_GUI$BoardGanglionBLE
Sample Index, EXG Channel 0, EXG Channel 1, EXG Channel 2, EXG Channel 3, Accel Channel 0, Accel Channel 1, Accel Channel 2, Other, Other, Other, Other, Other, Timestamp, Other, Timestamp (Formatted)
73.0, -55.19344354607165, -120.51453617215157, -97.55155044421554, -51.98460938408971, 0.0, 0.0, 0.0, 0.0, 0.0, 0.0, 0.0, 0.0, 1.651836213616253E9, 0.0, 2022-05-06 12:23:33.616
73.0, 186.6808461882174, 59.815959891304374, 99.45889942161739, 124.52744882460684, 0.0, 0.0, 0.0, 0.0, 0.0, 0.0, 0.0, 0.0, 1.651836213616253E9, 0.0, 2022-05-06 12:23:33.616
0.0, -288.5314116314985, -217.50697157299146, -223.12617125641555, -207.6504652397707, 0.0, 0.0, 0.0, 0.0, 0.0, 0.0, 0.0, 0.0, 1.6518362136612496E9, 0.0, 2022-05-06 12:23:33.661
1.0, -241.53208888834342, -97.48610219499096, -133.44337031897157, -162.4126353757456, 0.0, 0.11200000531971455, 0.0, 0.0, 0.0, 0.0, 0.0, 0.0, 1.6518362136622217E9, 0.0, 2022-05-06 12:23:33.662
1.0, -198.69527479587123, -49.02073866920546, -101.71779899485409, -136.77936107944697, 0.0, 0.11200000531971455, 0.0, 0.0, 0.0, 0.0, 0.0, 0.0, 1.6518362136622217E9, 0.0, 2022-05-06 12:23:33.662
2.0, -262.0716194449924, -195.91652912879363, -212.57591348141432, -192.76940331608057, 0.0800000037997961, 0.11200000531971455, 0.0, 0.0, 0.0, 0.0, 0.0, 0.0, 1.65183621369336E9, 0.0, 2022-05-06 12:23:33.693
2.0, -293.5653169718571, -219.04033055482432, -228.04413969814777, -209.10528632253408, 0.0800000037997961, 0.11200000531971455, 0.0, 0.0, 0.0, 0.0, 0.0, 0.0, 1.65183621369336E9, 0.0, 2022-05-06 12:23:33.693
3.0, -233.46886458387598, -89.69589058728889, -120.28266237489879, -155.42276235856116, 0.0800000037997961, 0.11200000531971455, 0.0, 0.0, 0.0, 0.0, 0.0, 0.0, 1.6518362136951587E9, 0.0, 2022-05-06 12:23:33.695
3.0, -181.92556339455768, -47.5958367860876, -91.90430151112378, -116.91675241477787, 0.0800000037997961, 0.11200000531971455, 0.0, 0.0, 0.0, 0.0, 0.0, 0.0, 1.6518362136951587E9, 0.0, 2022-05-06 12:23:33.695
4.0, -254.40856443578377, -177.4750824472867, -193.06111551262438, -175.3826084220782, 0.0800000037997961, 0.11200000531971455, 0.0, 0.0, 0.0, 0.0, 0.0, 0.0, 1.6518362136961384E9, 0.0, 2022-05-06 12:23:33.696
4.0, -297.0434239306487, -217.98193886736408, -226.74639441352338, -215.78474764339626, 0.0800000037997961, 0.11200000531971455, 0.0, 0.0, 0.0, 0.0, 0.0, 0.0, 1.6518362136961384E9, 0.0, 2022-05-06 12:23:33.696
5.0, -245.88533243676648, -100.83331265533343, -134.53916100598872, -164.75381274800748, 0.0800000037997961, 0.11200000531971455, 0.0, 0.0, 0.0, 0.0, 0.0, 0.0, 1.651836213706184E9, 0.0, 2022-05-06 12:23:33.706
5.0, -195.78937253030017, -58.49390525696799, -110.58884168975055, -145.38861077744514, 0.0800000037997961, 0.11200000531971455, 0.0, 0.0, 0.0, 0.0, 0.0, 0.0, 1.651836213706184E9, 0.0, 2022-05-06 12:23:33.706
6.0, -260.6990761612542, -195.7370139309205, -213.92975726537406, -192.06630212441087, 0.0800000037997961, 0.11200000531971455, 0.0, 0.0, 0.0, 0.0, 0.0, 0.0, 1.651836213707219E9, 0.0, 2022-05-06 12:23:33.707
6.0, -293.6064558713697, -215.95491309138015, -221.8882643710822, -196.056775377132, 0.0800000037997961, 0.11200000531971455, 0.0, 0.0, 0.0, 0.0, 0.0, 0.0, 1.651836213707219E9, 0.0, 2022-05-06 12:23:33.707
7.0, -228.73041134001687, -80.34614069806412, -116.86065391544253, -144.95104248262942, 0.0800000037997961, 0.11200000531971455, 0.0, 0.0, 0.0, 0.0, 0.0, 0.0, 1.6518362137202413E9, 0.0, 2022-05-06 12:23:33.720
7.0, -165.01747569488361, -47.95112728187814, -100.40883401036263, -125.3539667148143, 0.0800000037997961, 0.11200000531971455, 0.0, 0.0, 0.0, 0.0, 0.0, 0.0, 1.6518362137202413E9, 0.0, 2022-05-06 12:23:33.720
8.0, -264.63345091464, -194.4392686462961, -214.68521705642343, -207.96461683604866, 0.0800000037997961, 0.11200000531971455, 0.0, 0.0, 0.0, 0.0, 0.0, 0.0, 1.6518362137361908E9, 0.0, 2022-05-06 12:23:33.736
8.0, -313.66727923369035, -219.24602505238727, -227.38965720590204, -211.55866069346666, 0.0800000037997961, 0.11200000531971455, 0.0, 0.0, 0.0, 0.0, 0.0, 0.0, 1.6518362137361908E9, 0.0, 2022-05-06 12:23:33.736
9.0, -238.77204272104427, -89.14986519375816, -129.81940726190805, -168.269318706356, 0.0800000037997961, 0.11200000531971455, 0.0, 0.0, 0.0, 0.0, 0.0, 0.0, 1.6518362137372017E9, 0.0, 2022-05-06 12:23:33.737
9.0, -213.37064222199842, -73.95839157374576, -113.66677935328335, -141.7758674202487, 0.0800000037997961, 0.11200000531971455, 0.0, 0.0, 0.0, 0.0, 0.0, 0.0, 1.6518362137372017E9, 0.0, 2022-05-06 12:23:33.737
10.0, -262.94301613466814, -189.94016899960116, -211.05377419944853, -193.73055760469288, 0.0800000037997961, 0.11200000531971455, 0.5120000243186951, 0.0, 0.0, 0.0, 0.0, 0.0, 1.651836213750327E9, 0.0, 2022-05-06 12:23:33.750
10.0, -292.69766018213704, -216.17556718876585, -226.61549791507423, -215.05920705199242, 0.0800000037997961, 0.11200000531971455, 0.5120000243186951, 0.0, 0.0, 0.0, 0.0, 0.0, 1.651836213750327E9, 0.0, 2022-05-06 12:23:33.750
11.0, -240.53353560017422, -90.15215838188305, -120.9109655674547, -160.7409000955522, 0.0800000037997961, 0.04800000227987766, 0.5120000243186951, 0.0, 0.0, 0.0, 0.0, 0.0, 1.651836213766191E9, 0.0, 2022-05-06 12:23:33.766
11.0, -220.98133863182738, -87.97927650762722, -120.3163214745, -154.46908786986023, 0.0800000037997961, 0.04800000227987766, 0.5120000243186951, 0.0, 0.0, 0.0, 0.0, 0.0, 1.651836213766191E9, 0.0, 2022-05-06 12:23:33.766
12.0, -257.31072680139914, -183.63843757426366, -201.4983298126608, -179.8256095694378, 0.11200000531971455, 0.04800000227987766, 0.5120000243186951, 0.0, 0.0, 0.0, 0.0, 0.0, 1.6518362137672784E9, 0.0, 2022-05-06 12:23:33.767
12.0, -251.7307960675098, -174.8758519780822, -187.17077308241278, -168.40769500471652, 0.11200000531971455, 0.04800000227987766, 0.5120000243186951, 0.0, 0.0, 0.0, 0.0, 0.0, 1.6518362137672784E9, 0.0, 2022-05-06 12:23:33.767
13.0, -246.77542862622067, -94.34832613216713, -131.0236550476402, -161.08123099152, 0.11200000531971455, 0.04800000227987766, 0.5120000243186951, 0.0, 0.0, 0.0, 0.0, 0.0, 1.651836213780249E9, 0.0, 2022-05-06 12:23:33.780
13.0, -228.0497495480813, -101.18486325116828, -144.16192359197885, -180.87652145698667, 0.11200000531971455, 0.04800000227987766, 0.5120000243186951, 0.0, 0.0, 0.0, 0.0, 0.0, 1.651836213780249E9, 0.0, 2022-05-06 12:23:33.780
14.0, -256.5103882108815, -186.02075384603813, -208.24136943276972, -195.45091158431023, 0.11200000531971455, 0.04800000227987766, 0.5120000243186951, 0.0, 0.0, 0.0, 0.0, 0.0, 1.651836213796202E9, 0.0, 2022-05-06 12:23:33.796
14.0, -275.3819233872928, -193.8147053536959, -210.7246630033478, -208.11421283427626, 0.11200000531971455, 0.04800000227987766, 0.5120000243186951, 0.0, 0.0, 0.0, 0.0, 0.0, 1.651836213796202E9, 0.0, 2022-05-06 12:23:33.796
15.0, -219.5676564485766, -85.08459394192323, -116.47544422000647, -148.71338183805346, 0.11200000531971455, 0.04800000227987766, 0.5120000243186951, 0.0, 0.0, 0.0, 0.0, 0.0, 1.651836213797136E9, 0.0, 2022-05-06 12:23:33.797
15.0, -199.06178499152884, -78.96611761441454, -118.03124260157347, -141.56643302273005, 0.11200000531971455, 0.04800000227987766, 0.5120000243186951, 0.0, 0.0, 0.0, 0.0, 0.0, 1.651836213797136E9, 0.0, 2022-05-06 12:23:33.797
16.0, -274.50678679766133, -190.83774498896673, -208.92577112466097, -186.91645988542587, 0.11200000531971455, 0.04800000227987766, 0.5120000243186951, 0.0, 0.0, 0.0, 0.0, 0.0, 1.6518362138102415E9, 0.0, 2022-05-06 12:23:33.810
16.0, -279.88102303398773, -192.01581347500905, -204.62114627566189, -200.58953412342817, 0.11200000531971455, 0.04800000227987766, 0.5120000243186951, 0.0, 0.0, 0.0, 0.0, 0.0, 1.6518362138102415E9, 0.0, 2022-05-06 12:23:33.810
17.0, -236.688918445725, -90.357852879446, -124.32923412695527, -163.7402998600155, 0.11200000531971455, 0.04800000227987766, 0.5120000243186951, 0.0, 0.0, 0.0, 0.0, 0.0, 1.6518362138263087E9, 0.0, 2022-05-06 12:23:33.826
17.0, -223.54691000143066, -93.56668704142794, -130.9114580489695, -161.7768523832783, 0.11200000531971455, 0.04800000227987766, 0.5120000243186951, 0.0, 0.0, 0.0, 0.0, 0.0, 1.6518362138263087E9, 0.0, 2022-05-06 12:23:33.826
18.0, -263.511480927933, -193.43697545817122, -209.01552872359753, -187.84769497439265, 0.11200000531971455, 0.04800000227987766, 0.5120000243186951, 0.0, 0.0, 0.0, 0.0, 0.0, 1.651836213827326E9, 0.0, 2022-05-06 12:23:33.827
18.0, -276.2944589764811, -189.23332790797576, -209.05666762311012, -197.34704086184502, 0.11200000531971455, 0.04800000227987766, 0.5120000243186951, 0.0, 0.0, 0.0, 0.0, 0.0, 1.651836213827326E9, 0.0, 2022-05-06 12:23:33.827
19.0, -236.75249674497172, -99.94695636583492, -134.01183511223644, -176.42230060976, 0.11200000531971455, 0.04800000227987766, 0.5120000243186951, 0.0, 0.0, 0.0, 0.0, 0.0, 1.6518362138402126E9, 0.0, 2022-05-06 12:23:33.840
19.0, -210.46473995642737, -94.29596753278747, -128.6525584757328, -151.12561730947345, 0.11200000531971455, 0.04800000227987766, 0.5120000243186951, 0.0, 0.0, 0.0, 0.0, 0.0, 1.6518362138402126E9, 0.0, 2022-05-06 12:23:33.840
20.0, -245.63849903969094, -174.29616748495027, -193.6819389052689, -168.6320890020579, 0.11200000531971455, 0.04800000227987766, 0.7520000357180834, 0.0, 0.0, 0.0, 0.0, 0.0, 1.6518362138563707E9, 0.0, 2022-05-06 12:23:33.856
20.0, -259.45742937596515, -172.79646760271862, -195.1704190876335, -178.85697548091412, 0.11200000531971455, 0.04800000227987766, 0.7520000357180834, 0.0, 0.0, 0.0, 0.0, 0.0, 1.6518362138563707E9, 0.0, 2022-05-06 12:23:33.856
21.0, -225.28222358087078, -90.15963818179443, -123.86548653244972, -162.5996303735301, 0.11200000531971455, 0.09600000455975533, 0.7520000357180834, 0.0, 0.0, 0.0, 0.0, 0.0, 1.6518362138572285E9, 0.0, 2022-05-06 12:23:33.857
21.0, -222.55209661321715, -97.68057699268684, -132.53831452969462, -165.67756803706288, 0.11200000531971455, 0.09600000455975533, 0.7520000357180834, 0.0, 0.0, 0.0, 0.0, 0.0, 1.6518362138572285E9, 0.0, 2022-05-06 12:23:33.857
22.0, -248.92213120078668, -180.44830291206017, -197.23858376313, -182.85118863359094, 0.144000006839633, 0.09600000455975533, 0.7520000357180834, 0.0, 0.0, 0.0, 0.0, 0.0, 1.6518362138702397E9, 0.0, 2022-05-06 12:23:33.870
22.0, -271.5447860327549, -184.68186966190115, -200.12204662896693, -186.57986888941377, 0.144000006839633, 0.09600000455975533, 0.7520000357180834, 0.0, 0.0, 0.0, 0.0, 0.0, 1.6518362138702397E9, 0.0, 2022-05-06 12:23:33.870
23.0, -237.21624433947727, -90.36907257931307, -129.27338186837733, -164.49949955102056, 0.144000006839633, 0.09600000455975533, 0.7520000357180834, 0.0, 0.0, 0.0, 0.0, 0.0, 1.6518362138863153E9, 0.0, 2022-05-06 12:23:33.886
23.0, -214.40659450972453, -87.38463241467252, -121.69260465819389, -153.76972657814622, 0.144000006839633, 0.09600000455975533, 0.7520000357180834, 0.0, 0.0, 0.0, 0.0, 0.0, 1.6518362138863153E9, 0.0, 2022-05-06 12:23:33.886
24.0, -265.9311961992644, -188.8855172120966, -213.67918396834284, -201.56190811190754, 0.144000006839633, 0.09600000455975533, 0.7520000357180834, 0.0, 0.0, 0.0, 0.0, 0.0, 1.651836213887172E9, 0.0, 2022-05-06 12:23:33.887
24.0, -257.4042243002914, -176.79816055530682, -196.2362905750051, -186.36669459193945, 0.144000006839633, 0.09600000455975533, 0.7520000357180834, 0.0, 0.0, 0.0, 0.0, 0.0, 1.651836213887172E9, 0.0, 2022-05-06 12:23:33.887
25.0, -219.18992655305192, -86.78998832171783, -116.15755272377282, -138.23792206216604, 0.144000006839633, 0.09600000455975533, 0.7520000357180834, 0.0, 0.0, 0.0, 0.0, 0.0, 1.6518362139002008E9, 0.0, 2022-05-06 12:23:33.900
25.0, -232.90039979061112, -94.63255852879956, -126.78634839784354, -151.93717559985816, 0.144000006839633, 0.09600000455975533, 0.7520000357180834, 0.0, 0.0, 0.0, 0.0, 0.0, 1.6518362139002008E9, 0.0, 2022-05-06 12:23:33.900
26.0, -254.85735243046656, -183.1821697796695, -208.77991502638906, -201.01214281842113, 0.144000006839633, 0.09600000455975533, 0.7520000357180834, 0.0, 0.0, 0.0, 0.0, 0.0, 1.6518362139163177E9, 0.0, 2022-05-06 12:23:33.916
26.0, -267.49821428069845, -182.60248528653756, -197.71355105750263, -191.78580962773412, 0.144000006839633, 0.09600000455975533, 0.7520000357180834, 0.0, 0.0, 0.0, 0.0, 0.0, 1.6518362139163177E9, 0.0, 2022-05-06 12:23:33.916
27.0, -223.33373570395634, -82.18617147626355, -114.47833764366806, -151.61928410362452, 0.144000006839633, 0.09600000455975533, 0.7520000357180834, 0.0, 0.0, 0.0, 0.0, 0.0, 1.6518362139172573E9, 0.0, 2022-05-06 12:23:33.917
27.0, -227.18957255827263, -101.73836844461039, -136.356752384454, -168.49371270369738, 0.144000006839633, 0.09600000455975533, 0.7520000357180834, 0.0, 0.0, 0.0, 0.0, 0.0, 1.6518362139172573E9, 0.0, 2022-05-06 12:23:33.917
28.0, -259.1844166791998, -180.69139640918002, -205.89645216055214, -191.2360443342477, 0.144000006839633, 0.09600000455975533, 0.7520000357180834, 0.0, 0.0, 0.0, 0.0, 0.0, 1.6518362139302075E9, 0.0, 2022-05-06 12:23:33.930
28.0, -274.3347513996996, -186.2227084436454, -195.8286414798349, -189.15665995888412, 0.144000006839633, 0.09600000455975533, 0.7520000357180834, 0.0, 0.0, 0.0, 0.0, 0.0, 1.6518362139302075E9, 0.0, 2022-05-06 12:23:33.930
29.0, -222.6081951125525, -80.23394369939342, -110.5701421899721, -138.71662925649434, 0.144000006839633, 0.09600000455975533, 0.7520000357180834, 0.0, 0.0, 0.0, 0.0, 0.0, 1.6518362139462664E9, 0.0, 2022-05-06 12:23:33.946
29.0, -213.54267761996016, -89.53507488919422, -122.86693324428052, -152.28498629573733, 0.144000006839633, 0.09600000455975533, 0.7520000357180834, 0.0, 0.0, 0.0, 0.0, 0.0, 1.6518362139462664E9, 0.0, 2022-05-06 12:23:33.946
30.0, -251.19599037384614, -183.72445527324453, -206.15824515745044, -193.2406307104975, 0.144000006839633, 0.09600000455975533, 0.8800000417977571, 0.0, 0.0, 0.0, 0.0, 0.0, 1.651836213947163E9, 0.0, 2022-05-06 12:23:33.947
30.0, -261.2825005543418, -183.7356749731116, -195.98945717792958, -195.1629392877221, 0.144000006839633, 0.09600000455975533, 0.8800000417977571, 0.0, 0.0, 0.0, 0.0, 0.0, 1.651836213947163E9, 0.0, 2022-05-06 12:23:33.947
31.0, -220.87662143306807, -87.67260471126065, -112.44757196772844, -147.35579815413803, 0.144000006839633, 0.09600000455975533, 0.8800000417977571, 0.0, 0.0, 0.0, 0.0, 0.0, 1.6518362139602108E9, 0.0, 2022-05-06 12:23:33.960
31.0, -214.77310470538214, -90.4700498781167, -125.2455096160993, -145.18665617983788, 0.144000006839633, 0.09600000455975533, 0.8800000417977571, 0.0, 0.0, 0.0, 0.0, 0.0, 1.6518362139602108E9, 0.0, 2022-05-06 12:23:33.960
32.0, -254.393604835961, -181.00180810550228, -205.27188886795193, -187.71305857598782, 0.144000006839633, 0.09600000455975533, 0.8800000417977571, 0.0, 0.0, 0.0, 0.0, 0.0, 1.6518362139763045E9, 0.0, 2022-05-06 12:23:33.976
32.0, -251.64477836852893, -172.65061150444672, -178.29225058760494, -165.95058073382825, 0.144000006839633, 0.09600000455975533, 0.8800000417977571, 0.0, 0.0, 0.0, 0.0, 0.0, 1.6518362139763045E9, 0.0, 2022-05-06 12:23:33.976
33.0, -214.4589531091042, -80.50695639615878, -117.56749500706792, -151.64172350335866, 0.144000006839633, 0.09600000455975533, 0.8800000417977571, 0.0, 0.0, 0.0, 0.0, 0.0, 1.6518362139772604E9, 0.0, 2022-05-06 12:23:33.977
33.0, -206.50792580330744, -94.96914952481166, -133.3648324199021, -167.31938411761075, 0.144000006839633, 0.09600000455975533, 0.8800000417977571, 0.0, 0.0, 0.0, 0.0, 0.0, 1.6518362139772604E9, 0.0, 2022-05-06 12:23:33.977
34.0, -261.71258904924616, -189.6596765029244, -208.94447062443942, -194.3513809973374, 0.144000006839633, 0.09600000455975533, 0.8800000417977571, 0.0, 0.0, 0.0, 0.0, 0.0, 1.6518362139902847E9, 0.0, 2022-05-06 12:23:33.990
34.0, -274.0392993032001, -189.30064610717818, -206.66687155142426, -200.36514012608677, 0.144000006839633, 0.09600000455975533, 0.8800000417977571, 0.0, 0.0, 0.0, 0.0, 0.0, 1.6518362139902847E9, 0.0, 2022-05-06 12:23:33.990
35.0, -229.98701772512868, -90.42891097860411, -115.51055003143847, -156.90002284105867, 0.144000006839633, 0.09600000455975533, 0.8800000417977571, 0.0, 0.0, 0.0, 0.0, 0.0, 1.6518362140062296E9, 0.0, 2022-05-06 12:23:34.006
35.0, -216.3812616863288, -81.04924188973382, -121.12787976488471, -149.26314713153988, 0.144000006839633, 0.09600000455975533, 0.8800000417977571, 0.0, 0.0, 0.0, 0.0, 0.0, 1.6518362140062296E9, 0.0, 2022-05-06 12:23:34.006
36.0, -272.53585952101275, -202.5997303496115, -226.2228084197268, -212.23932248540223, 0.144000006839633, 0.09600000455975533, 0.8800000417977571, 0.0, 0.0, 0.0, 0.0, 0.0, 1.651836214007221E9, 0.0, 2022-05-06 12:23:34.007
36.0, -274.5890645966865, -194.8469177414663, -204.19853758066893, -198.38299314957112, 0.144000006839633, 0.09600000455975533, 0.8800000417977571, 0.0, 0.0, 0.0, 0.0, 0.0, 1.651836214007221E9, 0.0, 2022-05-06 12:23:34.007
37.0, -222.6755133117549, -79.77019610488787, -111.71455157641321, -146.13659076858312, 0.144000006839633, 0.09600000455975533, 0.8800000417977571, 0.0, 0.0, 0.0, 0.0, 0.0, 1.6518362140202825E9, 0.0, 2022-05-06 12:23:34.020
37.0, -218.55040366062894, -89.55377438897267, -130.30185435619205, -153.34337798319757, 0.144000006839633, 0.09600000455975533, 0.8800000417977571, 0.0, 0.0, 0.0, 0.0, 0.0, 1.6518362140202825E9, 0.0, 2022-05-06 12:23:34.020
38.0, -264.3604382178746, -186.97816823469475, -213.37251217197627, -198.75324324518442, 0.144000006839633, 0.09600000455975533, 0.8800000417977571, 0.0, 0.0, 0.0, 0.0, 0.0, 1.6518362140362384E9, 0.0, 2022-05-06 12:23:34.036
38.0, -270.0824851500802, -187.32223903061822, -198.70088464580476, -192.50761031918228, 0.144000006839633, 0.09600000455975533, 0.8800000417977571, 0.0, 0.0, 0.0, 0.0, 0.0, 1.6518362140362384E9, 0.0, 2022-05-06 12:23:34.036
39.0, -237.8370677321218, -93.77986133890226, -123.29702173918486, -158.4483414227143, 0.144000006839633, 0.09600000455975533, 0.8800000417977571, 0.0, 0.0, 0.0, 0.0, 0.0, 1.6518362140371573E9, 0.0, 2022-05-06 12:23:34.037
39.0, -224.35846829181537, -95.20850312197581, -127.11171969398856, -156.84018444176763, 0.144000006839633, 0.09600000455975533, 0.8800000417977571, 0.0, 0.0, 0.0, 0.0, 0.0, 1.6518362140371573E9, 0.0, 2022-05-06 12:23:34.037
40.0, -259.6145051741041, -186.7724737371318, -207.3176141437143, -179.533897372894, 0.144000006839633, 0.09600000455975533, 0.9600000455975533, 0.0, 0.0, 0.0, 0.0, 0.0, 1.6518362140502732E9, 0.0, 2022-05-06 12:23:34.050
40.0, -264.68206961406395, -181.2935203020461, -191.12010743562132, -167.92524791043252, 0.144000006839633, 0.09600000455975533, 0.9600000455975533, 0.0, 0.0, 0.0, 0.0, 0.0, 1.6518362140502732E9, 0.0, 2022-05-06 12:23:34.050
41.0, -236.74501694506034, -95.1000460232608, -123.69345113448799, -159.36461691185832, 0.144000006839633, 0.11200000531971455, 0.9600000455975533, 0.0, 0.0, 0.0, 0.0, 0.0, 1.6518362140662425E9, 0.0, 2022-05-06 12:23:34.066
41.0, -223.03080380754545, -101.03526725294068, -137.87141186650842, -158.17906862590462, 0.144000006839633, 0.11200000531971455, 0.9600000455975533, 0.0, 0.0, 0.0, 0.0, 0.0, 1.6518362140662425E9, 0.0, 2022-05-06 12:23:34.066
42.0, -259.71174257295206, -179.4385299240239, -206.56963415257633, -195.41725248470902, 0.1600000075995922, 0.11200000531971455, 0.9600000455975533, 0.0, 0.0, 0.0, 0.0, 0.0, 1.6518362140671568E9, 0.0, 2022-05-06 12:23:34.067
42.0, -287.4094416447915, -194.959114740137, -207.27647524420172, -209.3969985190779, 0.1600000075995922, 0.11200000531971455, 0.9600000455975533, 0.0, 0.0, 0.0, 0.0, 0.0, 1.6518362140671568E9, 0.0, 2022-05-06 12:23:34.067
43.0, -222.33892231574282, -79.54580210754648, -106.8265023343265, -137.97238916531205, 0.1600000075995922, 0.11200000531971455, 0.9600000455975533, 0.0, 0.0, 0.0, 0.0, 0.0, 1.6518362140972524E9, 0.0, 2022-05-06 12:23:34.097
43.0, -200.9990531685762, -95.63859161688015, -133.66402441635728, -167.5624776147306, 0.1600000075995922, 0.11200000531971455, 0.9600000455975533, 0.0, 0.0, 0.0, 0.0, 0.0, 1.6518362140972524E9, 0.0, 2022-05-06 12:23:34.097
44.0, -288.58751013083383, -197.7416003071703, -216.31207353714854, -200.03602892998606, 0.1600000075995922, 0.11200000531971455, 0.9600000455975533, 0.0, 0.0, 0.0, 0.0, 0.0, 1.6518362140981784E9, 0.0, 2022-05-06 12:23:34.098
44.0, -278.8488106462173, -183.79551337240264, -196.44198507256806, -179.44787967391312, 0.1600000075995922, 0.11200000531971455, 0.9600000455975533, 0.0, 0.0, 0.0, 0.0, 0.0, 1.6518362140981784E9, 0.0, 2022-05-06 12:23:34.098
45.0, -219.5339973489754, -78.49489021999761, -104.84809525776654, -134.96550960093737, 0.1600000075995922, 0.11200000531971455, 0.9600000455975533, 0.0, 0.0, 0.0, 0.0, 0.0, 1.651836214111272E9, 0.0, 2022-05-06 12:23:34.111
45.0, -219.0889492542483, -84.07856085384265, -120.6155134709552, -149.9924276228994, 0.1600000075995922, 0.11200000531971455, 0.9600000455975533, 0.0, 0.0, 0.0, 0.0, 0.0, 1.651836214111272E9, 0.0, 2022-05-06 12:23:34.111
46.0, -269.7421542541124, -188.0290801222436, -214.85351255442947, -198.36429364979267, 0.1600000075995922, 0.11200000531971455, 0.9600000455975533, 0.0, 0.0, 0.0, 0.0, 0.0, 1.6518362141121495E9, 0.0, 2022-05-06 12:23:34.112
46.0, -284.21182718267664, -186.02449374599382, -206.41255835443735, -204.1386991813779, 0.1600000075995922, 0.11200000531971455, 0.9600000455975533, 0.0, 0.0, 0.0, 0.0, 0.0, 1.6518362141121495E9, 0.0, 2022-05-06 12:23:34.112
47.0, -236.03443595347926, -88.07651390647516, -122.23115025181323, -160.40056919958442, 0.1600000075995922, 0.11200000531971455, 0.9600000455975533, 0.0, 0.0, 0.0, 0.0, 0.0, 1.651836214142296E9, 0.0, 2022-05-06 12:23:34.142
47.0, -222.66803351184353, -91.29282786836848, -129.19484396930784, -157.0795380389318, 0.1600000075995922, 0.11200000531971455, 0.9600000455975533, 0.0, 0.0, 0.0, 0.0, 0.0, 1.651836214142296E9, 0.0, 2022-05-06 12:23:34.142
48.0, -267.3411384825595, -197.7827392066829, -218.52983421087265, -197.10394736472517, 0.1600000075995922, 0.11200000531971455, 0.9600000455975533, 0.0, 0.0, 0.0, 0.0, 0.0, 1.651836214143221E9, 0.0, 2022-05-06 12:23:34.143
48.0, -272.3974832226522, -187.3259789305739, -200.2828623270616, -192.96387811377645, 0.1600000075995922, 0.11200000531971455, 0.9600000455975533, 0.0, 0.0, 0.0, 0.0, 0.0, 1.651836214143221E9, 0.0, 2022-05-06 12:23:34.143
49.0, -238.33821432618424, -94.81581362662837, -120.59307407122105, -143.8477719957009, 0.1600000075995922, 0.11200000531971455, 0.9600000455975533, 0.0, 0.0, 0.0, 0.0, 0.0, 1.651836214144216E9, 0.0, 2022-05-06 12:23:34.144
49.0, -207.94778728624806, -77.56739503098652, -117.81806830409914, -127.93823758419603, 0.1600000075995922, 0.11200000531971455, 0.9600000455975533, 0.0, 0.0, 0.0, 0.0, 0.0, 1.651836214144216E9, 0.0, 2022-05-06 12:23:34.144
50.0, -263.63863752642646, -184.38641756540164, -211.30808739643544, -198.70462454576045, 0.1600000075995922, 0.11200000531971455, 0.9760000463575125, 0.0, 0.0, 0.0, 0.0, 0.0, 1.6518362141452217E9, 0.0, 2022-05-06 12:23:34.145
50.0, -273.4745744098909, -178.75412823213264, -194.0222698012367, -185.73839139938354, 0.1600000075995922, 0.11200000531971455, 0.9760000463575125, 0.0, 0.0, 0.0, 0.0, 0.0, 1.6518362141452217E9, 0.0, 2022-05-06 12:23:34.145
51.0, -239.06375491758808, -94.19125033402815, -124.00012293085456, -164.8585299467668, 0.1600000075995922, 0.11200000531971455, 0.9760000463575125, 0.0, 0.0, 0.0, 0.0, 0.0, 1.6518362141552312E9, 0.0, 2022-05-06 12:23:34.155
51.0, -225.0466098836623, -93.27871474483982, -126.7639089981094, -153.82956497743726, 0.1600000075995922, 0.11200000531971455, 0.9760000463575125, 0.0, 0.0, 0.0, 0.0, 0.0, 1.6518362141552312E9, 0.0, 2022-05-06 12:23:34.155
52.0, -267.8422850766219, -190.53855299251154, -213.03592117596418, -197.1637857640162, 0.1600000075995922, 0.11200000531971455, 0.9760000463575125, 0.0, 0.0, 0.0, 0.0, 0.0, 1.6518362141702385E9, 0.0, 2022-05-06 12:23:34.170
52.0, -252.47877605864778, -173.11061919899657, -184.5304037136957, -180.3828546628356, 0.1600000075995922, 0.11200000531971455, 0.9760000463575125, 0.0, 0.0, 0.0, 0.0, 0.0, 1.6518362141702385E9, 0.0, 2022-05-06 12:23:34.170
53.0, -235.07328166486695, -86.45713722566143, -124.12353962939233, -155.40032295882702, 0.1600000075995922, 0.11200000531971455, 0.9760000463575125, 0.0, 0.0, 0.0, 0.0, 0.0, 1.6518362141862679E9, 0.0, 2022-05-06 12:23:34.186
53.0, -222.66803351184353, -97.40382439596578, -131.00869544781744, -163.54208516236395, 0.1600000075995922, 0.11200000531971455, 0.9760000463575125, 0.0, 0.0, 0.0, 0.0, 0.0, 1.6518362141862679E9, 0.0, 2022-05-06 12:23:34.186
54.0, -273.0370061150752, -186.70889543788508, -202.9120119959116, -176.9683260032907, 0.1600000075995922, 0.11200000531971455, 0.9760000463575125, 0.0, 0.0, 0.0, 0.0, 0.0, 1.6518362141872213E9, 0.0, 2022-05-06 12:23:34.187
54.0, -259.30783337773755, -173.08817979926243, -183.66274692397565, -170.1168292844668, 0.1600000075995922, 0.11200000531971455, 0.9760000463575125, 0.0, 0.0, 0.0, 0.0, 0.0, 1.6518362141872213E9, 0.0, 2022-05-06 12:23:34.187
55.0, -238.618706822861, -87.13779901759699, -117.41041920892894, -162.77540567144752, 0.1600000075995922, 0.11200000531971455, 0.9760000463575125, 0.0, 0.0, 0.0, 0.0, 0.0, 1.6518362142002008E9, 0.0, 2022-05-06 12:23:34.200
55.0, -236.81607504421845, -98.00594828883186, -137.60961886961013, -164.5219389507547, 0.1600000075995922, 0.11200000531971455, 0.9760000463575125, 0.0, 0.0, 0.0, 0.0, 0.0, 1.6518362142002008E9, 0.0, 2022-05-06 12:23:34.200
56.0, -265.97233509877697, -191.12945718551055, -217.96884921751916, -206.00864915922284, 0.1600000075995922, 0.11200000531971455, 0.9760000463575125, 0.0, 0.0, 0.0, 0.0, 0.0, 1.651836214216219E9, 0.0, 2022-05-06 12:23:34.216
56.0, -271.12217733776197, -187.75232752552256, -195.96701777819544, -189.99813744891435, 0.1600000075995922, 0.11200000531971455, 0.9760000463575125, 0.0, 0.0, 0.0, 0.0, 0.0, 1.651836214216219E9, 0.0, 2022-05-06 12:23:34.216
57.0, -234.47115777200088, -87.71000371081755, -120.78380896896124, -151.32009210716933, 0.1600000075995922, 0.11200000531971455, 0.9760000463575125, 0.0, 0.0, 0.0, 0.0, 0.0, 1.6518362142171562E9, 0.0, 2022-05-06 12:23:34.217
57.0, -216.9385067797266, -89.65101178782061, -127.25383589230478, -159.47681391052902, 0.1600000075995922, 0.11200000531971455, 0.9760000463575125, 0.0, 0.0, 0.0, 0.0, 0.0, 1.6518362142171562E9, 0.0, 2022-05-06 12:23:34.217
58.0, -261.5779526508413, -181.40945720067248, -201.54694851208478, -189.63910705316812, 0.1600000075995922, 0.11200000531971455, 0.9760000463575125, 0.0, 0.0, 0.0, 0.0, 0.0, 1.6518362142472396E9, 0.0, 2022-05-06 12:23:34.247
58.0, -272.2628468242474, -184.0722659691237, -201.06450141780078, -190.85083463881165, 0.1600000075995922, 0.11200000531971455, 0.9760000463575125, 0.0, 0.0, 0.0, 0.0, 0.0, 1.6518362142472396E9, 0.0, 2022-05-06 12:23:34.247
59.0, -225.5701958774589, -91.36762586748227, -117.07382821291685, -146.60407826304436, 0.1600000075995922, 0.11200000531971455, 0.9760000463575125, 0.0, 0.0, 0.0, 0.0, 0.0, 1.651836214248148E9, 0.0, 2022-05-06 12:23:34.248
59.0, -224.84465528605506, -96.955036401283, -131.9174911370501, -154.21103477291763, 0.1600000075995922, 0.11200000531971455, 0.9760000463575125, 0.0, 0.0, 0.0, 0.0, 0.0, 1.651836214248148E9, 0.0, 2022-05-06 12:23:34.248
60.0, -265.5833855033852, -190.84148488892242, -209.05666762311012, -193.79039600398391, 0.1600000075995922, 0.11200000531971455, 0.9920000471174717, 0.0, 0.0, 0.0, 0.0, 0.0, 1.6518362142491825E9, 0.0, 2022-05-06 12:23:34.249
60.0, -265.93867599917576, -178.9598227296956, -190.26741024572402, -185.16992660611868, 0.1600000075995922, 0.11200000531971455, 0.9920000471174717, 0.0, 0.0, 0.0, 0.0, 0.0, 1.6518362142491825E9, 0.0, 2022-05-06 12:23:34.249
61.0, -228.81268913904205, -90.03996138321236, -115.21509793493897, -146.48814136441797, 0.1600000075995922, 0.11200000531971455, 0.9920000471174717, 0.0, 0.0, 0.0, 0.0, 0.0, 1.651836214260183E9, 0.0, 2022-05-06 12:23:34.260
61.0, -221.07109623076394, -90.67948427563533, -128.30848767980933, -161.6309962850064, 0.1600000075995922, 0.11200000531971455, 0.9920000471174717, 0.0, 0.0, 0.0, 0.0, 0.0, 1.651836214260183E9, 0.0, 2022-05-06 12:23:34.260
62.0, -264.1472639204003, -183.5112809757702, -205.9525506598875, -187.77289697527885, 0.1600000075995922, 0.11200000531971455, 0.9920000471174717, 0.0, 0.0, 0.0, 0.0, 0.0, 1.6518362142762709E9, 0.0, 2022-05-06 12:23:34.276
62.0, -258.79546708380803, -174.75243527954444, -184.48926481418312, -176.57937640789896, 0.1600000075995922, 0.11200000531971455, 0.9920000471174717, 0.0, 0.0, 0.0, 0.0, 0.0, 1.6518362142762709E9, 0.0, 2022-05-06 12:23:34.276
63.0, -235.03214276535437, -89.20596369309351, -125.15949191711843, -166.19741413090378, 0.1600000075995922, 0.11200000531971455, 0.9920000471174717, 0.0, 0.0, 0.0, 0.0, 0.0, 1.6518362142772212E9, 0.0, 2022-05-06 12:23:34.277
63.0, -235.08076146477833, -108.08871856937185, -142.18725641537458, -181.4599458500743, 0.1600000075995922, 0.11200000531971455, 0.9920000471174717, 0.0, 0.0, 0.0, 0.0, 0.0, 1.6518362142772212E9, 0.0, 2022-05-06 12:23:34.277
64.0, -268.17139627272263, -195.87913012923673, -219.66676379740238, -207.6542051397264, 0.1600000075995922, 0.11200000531971455, 0.9920000471174717, 0.0, 0.0, 0.0, 0.0, 0.0, 1.6518362142902625E9, 0.0, 2022-05-06 12:23:34.290
64.0, -256.0690800161101, -183.369164777454, -197.58265455905348, -194.69919169321656, 0.1600000075995922, 0.11200000531971455, 0.9920000471174717, 0.0, 0.0, 0.0, 0.0, 0.0, 1.6518362142902625E9, 0.0, 2022-05-06 12:23:34.290
65.0, -244.18741785688326, -85.94477093173191, -126.68537109903991, -164.8173910472542, 0.1600000075995922, 0.11200000531971455, 0.9920000471174717, 0.0, 0.0, 0.0, 0.0, 0.0, 1.6518362143062804E9, 0.0, 2022-05-06 12:23:34.306
65.0, -227.33168875658885, -89.01148889539763, -126.21414370462298, -144.509734287858, 0.1600000075995922, 0.11200000531971455, 0.9920000471174717, 0.0, 0.0, 0.0, 0.0, 0.0, 1.6518362143062804E9, 0.0, 2022-05-06 12:23:34.306
66.0, -254.04205424012616, -176.8766984543763, -199.56480153556913, -171.8222236642614, 0.1600000075995922, 0.11200000531971455, 0.9920000471174717, 0.0, 0.0, 0.0, 0.0, 0.0, 1.651836214307224E9, 0.0, 2022-05-06 12:23:34.307
66.0, -281.3021850171499, -194.09519785037264, -207.31387424375862, -204.26211587991565, 0.1600000075995922, 0.11200000531971455, 0.9920000471174717, 0.0, 0.0, 0.0, 0.0, 0.0, 1.651836214307224E9, 0.0, 2022-05-06 12:23:34.307
67.0, -236.1354132522829, -86.34120032703504, -121.02690246608108, -155.3704037591815, 0.1600000075995922, 0.11200000531971455, 0.9920000471174717, 0.0, 0.0, 0.0, 0.0, 0.0, 1.651836214320194E9, 0.0, 2022-05-06 12:23:34.320
67.0, -212.94055372709408, -77.78430922841653, -125.19689091667533, -153.8108654776588, 0.1600000075995922, 0.11200000531971455, 0.9920000471174717, 0.0, 0.0, 0.0, 0.0, 0.0, 1.651836214320194E9, 0.0, 2022-05-06 12:23:34.320
68.0, -259.86133857117966, -185.47098855255172, -205.69823746290058, -190.3908269442618, 0.1600000075995922, 0.11200000531971455, 0.9920000471174717, 0.0, 0.0, 0.0, 0.0, 0.0, 1.6518362143362167E9, 0.0, 2022-05-06 12:23:34.336
68.0, -291.9085412914865, -208.47511318000033, -218.98236210551113, -203.33836059086025, 0.1600000075995922, 0.11200000531971455, 0.9920000471174717, 0.0, 0.0, 0.0, 0.0, 0.0, 1.6518362143362167E9, 0.0, 2022-05-06 12:23:34.336
69.0, -237.41071913717315, -86.64039232349023, -120.82868776842952, -153.7398073785007, 0.1600000075995922, 0.11200000531971455, 0.9920000471174717, 0.0, 0.0, 0.0, 0.0, 0.0, 1.6518362143371704E9, 0.0, 2022-05-06 12:23:34.337
69.0, -206.72484000073746, -63.66244699573144, -113.83881475124508, -136.75692167971283, 0.1600000075995922, 0.11200000531971455, 0.9920000471174717, 0.0, 0.0, 0.0, 0.0, 0.0, 1.6518362143371704E9, 0.0, 2022-05-06 12:23:34.337
70.0, -263.3992839292623, -191.24913398409262, -214.48326245881617, -196.4980835719034, 0.1600000075995922, 0.11200000531971455, 1.008000047877431, 0.0, 0.0, 0.0, 0.0, 0.0, 1.6518362143502676E9, 0.0, 2022-05-06 12:23:34.350
70.0, -296.13836814137176, -211.73256604140624, -219.1730970032513, -218.50365491118282, 0.1600000075995922, 0.11200000531971455, 1.008000047877431, 0.0, 0.0, 0.0, 0.0, 0.0, 1.6518362143502676E9, 0.0, 2022-05-06 12:23:34.350
71.0, -237.29478223854676, -87.19015761697665, -126.47219680156559, -162.2592994775623, 0.1600000075995922, 0.11200000531971455, 1.008000047877431, 0.0, 0.0, 0.0, 0.0, 0.0, 1.6518362143662004E9, 0.0, 2022-05-06 12:23:34.366
71.0, -203.377629540395, -66.69176595984027, -107.39122722763568, -137.57221987005323, 0.1600000075995922, 0.11200000531971455, 1.008000047877431, 0.0, 0.0, 0.0, 0.0, 0.0, 1.6518362143662004E9, 0.0, 2022-05-06 12:23:34.366
72.0, -255.48939552297816, -184.44999586464837, -200.0173294302076, -174.32047683466226, 0.1600000075995922, 0.11200000531971455, 1.008000047877431, 0.0, 0.0, 0.0, 0.0, 0.0, 1.6518362143672228E9, 0.0, 2022-05-06 12:23:34.367
72.0, -307.1374139110558, -221.57972262473777, -233.50439363345504, -231.2903728596866, 0.1600000075995922, 0.11200000531971455, 1.008000047877431, 0.0, 0.0, 0.0, 0.0, 0.0, 1.6518362143672228E9, 0.0, 2022-05-06 12:23:34.367
73.0, -241.37875299016014, -90.4326508785598, -128.7610155744478, -165.38585584051907, 0.1600000075995922, 0.11200000531971455, 1.008000047877431, 0.0, 0.0, 0.0, 0.0, 0.0, 1.6518362143802114E9, 0.0, 2022-05-06 12:23:34.380
73.0, -214.02138481428847, -81.12403988884762, -120.88478626776487, -148.20475544407964, 0.1600000075995922, 0.11200000531971455, 1.008000047877431, 0.0, 0.0, 0.0, 0.0, 0.0, 1.6518362143802114E9, 0.0, 2022-05-06 12:23:34.380
74.0, -248.2826083083637, -180.54180041095242, -200.28660222701728, -177.52183119673282, 0.1600000075995922, 0.11200000531971455, 1.008000047877431, 0.0, 0.0, 0.0, 0.0, 0.0, 1.6518362143962111E9, 0.0, 2022-05-06 12:23:34.396
74.0, -297.4548129257746, -200.49416667455807, -218.5522736106068, -201.33377421461046, 0.1600000075995922, 0.11200000531971455, 1.008000047877431, 0.0, 0.0, 0.0, 0.0, 0.0, 1.6518362143962111E9, 0.0, 2022-05-06 12:23:34.396
75.0, -230.51808351883665, -80.16288560023531, -118.01628300175071, -152.3672640947625, 0.1600000075995922, 0.11200000531971455, 1.008000047877431, 0.0, 0.0, 0.0, 0.0, 0.0, 1.6518362143972108E9, 0.0, 2022-05-06 12:23:34.397
75.0, -197.76777960686013, -59.219445848371834, -105.09866855479777, -121.89081935584545, 0.1600000075995922, 0.11200000531971455, 1.008000047877431, 0.0, 0.0, 0.0, 0.0, 0.0, 1.6518362143972108E9, 0.0, 2022-05-06 12:23:34.397
76.0, -281.3059249171056, -212.1551747363992, -234.30473222397268, -220.624178186059, 0.1600000075995922, 0.11200000531971455, 1.008000047877431, 0.0, 0.0, 0.0, 0.0, 0.0, 1.6518362144103093E9, 0.0, 2022-05-06 12:23:34.410
76.0, -282.7009076005779, -202.65582884894684, -210.23099620919675, -205.16343176923692, 0.1600000075995922, 0.11200000531971455, 1.008000047877431, 0.0, 0.0, 0.0, 0.0, 0.0, 1.6518362144103093E9, 0.0, 2022-05-06 12:23:34.410
77.0, -222.6455941121094, -85.94103103177622, -112.14837997127324, -147.7410078495741, 0.1600000075995922, 0.11200000531971455, 1.008000047877431, 0.0, 0.0, 0.0, 0.0, 0.0, 1.6518362144262664E9, 0.0, 2022-05-06 12:23:34.426
77.0, -204.47342022741213, -66.52347046183422, -109.37711410410702, -115.36843383312225, 0.1600000075995922, 0.11200000531971455, 1.008000047877431, 0.0, 0.0, 0.0, 0.0, 0.0, 1.6518362144262664E9, 0.0, 2022-05-06 12:23:34.426
78.0, -258.64213118562475, -190.42261609388515, -212.11964568682015, -192.3093956215307, 0.1600000075995922, 0.11200000531971455, 1.008000047877431, 0.0, 0.0, 0.0, 0.0, 0.0, 1.6518362144271617E9, 0.0, 2022-05-06 12:23:34.427
78.0, -289.4813462202437, -214.46269300905988, -221.106625280343, -227.11664450913668, 0.1600000075995922, 0.11200000531971455, 1.008000047877431, 0.0, 0.0, 0.0, 0.0, 0.0, 1.6518362144271617E9, 0.0, 2022-05-06 12:23:34.427
79.0, -229.3138357331045, -92.00340885994956, -126.8387069972232, -167.50637911539525, 0.1600000075995922, 0.11200000531971455, 1.008000047877431, 0.0, 0.0, 0.0, 0.0, 0.0, 1.6518362144402084E9, 0.0, 2022-05-06 12:23:34.440
79.0, -217.9034009682946, -78.4612311203964, -121.7599228573963, -150.80398591328412, 0.1600000075995922, 0.11200000531971455, 1.008000047877431, 0.0, 0.0, 0.0, 0.0, 0.0, 1.6518362144402084E9, 0.0, 2022-05-06 12:23:34.440
80.0, -263.5451400275342, -198.28014590078965, -216.04280074033886, -193.44258530810475, 0.1600000075995922, 0.11200000531971455, 1.008000047877431, 0.0, 0.0, 0.0, 0.0, 0.0, 1.6518362144562483E9, 0.0, 2022-05-06 12:23:34.456
80.0, -285.18046127120033, -205.13164261961356, -215.16392425075173, -199.3217080384493, 0.1600000075995922, 0.11200000531971455, 1.008000047877431, 0.0, 0.0, 0.0, 0.0, 0.0, 1.6518362144562483E9, 0.0, 2022-05-06 12:23:34.456
81.0, -229.1231008353643, -72.69804528867826, -105.52127724979073, -143.1820698035881, 0.1600000075995922, 0.11200000531971455, 1.008000047877431, 0.0, 0.0, 0.0, 0.0, 0.0, 1.651836214457218E9, 0.0, 2022-05-06 12:23:34.457
81.0, -192.01207357505336, -67.44722575088963, -112.06236227229238, -133.46206981875002, 0.1600000075995922, 0.11200000531971455, 1.008000047877431, 0.0, 0.0, 0.0, 0.0, 0.0, 1.651836214457218E9, 0.0, 2022-05-06 12:23:34.457
82.0, -251.21842977358028, -183.24574807891622, -203.34958029072732, -179.18982657697052, 0.1600000075995922, 0.11200000531971455, 1.008000047877431, 0.0, 0.0, 0.0, 0.0, 0.0, 1.6518362144702559E9, 0.0, 2022-05-06 12:23:34.470
82.0, -292.98937237868086, -212.6376218306832, -221.26370107848197, -212.74420897942036, 0.1600000075995922, 0.11200000531971455, 1.008000047877431, 0.0, 0.0, 0.0, 0.0, 0.0, 1.6518362144702559E9, 0.0, 2022-05-06 12:23:34.470
83.0, -230.51434361888096, -81.47559048468247, -113.3862868566066, -153.88192357681692, 0.1600000075995922, 0.11200000531971455, 1.008000047877431, 0.0, 0.0, 0.0, 0.0, 0.0, 1.6518362144862027E9, 0.0, 2022-05-06 12:23:34.486
83.0, -205.49441291531548, -68.32236234052107, -115.41331263259053, -136.12487858720124, 0.1600000075995922, 0.11200000531971455, 1.008000047877431, 0.0, 0.0, 0.0, 0.0, 0.0, 1.6518362144862027E9, 0.0, 2022-05-06 12:23:34.486
84.0, -253.40627124765888, -182.50524788768962, -198.23339715134352, -185.08016900718212, 0.1600000075995922, 0.11200000531971455, 1.008000047877431, 0.0, 0.0, 0.0, 0.0, 0.0, 1.651836214487228E9, 0.0, 2022-05-06 12:23:34.487
84.0, -290.20688681164756, -205.38221591664478, -218.97488230559975, -209.79342791438103, 0.1600000075995922, 0.11200000531971455, 1.008000047877431, 0.0, 0.0, 0.0, 0.0, 0.0, 1.651836214487228E9, 0.0, 2022-05-06 12:23:34.487
85.0, -227.02875686017796, -80.8323276923038, -118.71564429346472, -161.53749878611416, 0.1600000075995922, 0.11200000531971455, 1.008000047877431, 0.0, 0.0, 0.0, 0.0, 0.0, 1.6518362145002968E9, 0.0, 2022-05-06 12:23:34.500
85.0, -200.0416387799196, -67.80251624668017, -108.43839921522886, -138.178083662875, 0.1600000075995922, 0.11200000531971455, 1.008000047877431, 0.0, 0.0, 0.0, 0.0, 0.0, 1.6518362145002968E9, 0.0, 2022-05-06 12:23:34.500
86.0, -253.46610964694992, -179.48340872349218, -201.59182731155306, -179.47031907364726, 0.1600000075995922, 0.11200000531971455, 1.008000047877431, 0.0, 0.0, 0.0, 0.0, 0.0, 1.6518362145322936E9, 0.0, 2022-05-06 12:23:34.532
86.0, -257.9091107943095, -184.8800843595527, -200.99344331864268, -189.9794379491359, 0.1600000075995922, 0.11200000531971455, 1.008000047877431, 0.0, 0.0, 0.0, 0.0, 0.0, 1.6518362145322936E9, 0.0, 2022-05-06 12:23:34.532
87.0, -226.0526429717429, -69.10774133121595, -99.06994982622564, -130.08120025880635, 0.1600000075995922, 0.11200000531971455, 1.008000047877431, 0.0, 0.0, 0.0, 0.0, 0.0, 1.6518362145332093E9, 0.0, 2022-05-06 12:23:34.533
87.0, -198.4821004983969, -59.604655543807894, -106.74796443525702, -130.31307405605912, 0.1600000075995922, 0.11200000531971455, 1.008000047877431, 0.0, 0.0, 0.0, 0.0, 0.0, 1.6518362145332093E9, 0.0, 2022-05-06 12:23:34.533
88.0, -255.93070371774957, -189.700815402437, -217.08997272793204, -210.96401660051197, 0.1600000075995922, 0.11200000531971455, 1.008000047877431, 0.0, 0.0, 0.0, 0.0, 0.0, 1.651836214534223E9, 0.0, 2022-05-06 12:23:34.534
88.0, -292.3872484858148, -209.98229286214337, -211.86907238978893, -208.8808923251927, 0.1600000075995922, 0.11200000531971455, 1.008000047877431, 0.0, 0.0, 0.0, 0.0, 0.0, 1.651836214534223E9, 0.0, 2022-05-06 12:23:34.534
89.0, -224.91945328516886, -78.84644081583247, -111.07128878403455, -149.2930663311854, 0.1600000075995922, 0.11200000531971455, 1.008000047877431, 0.0, 0.0, 0.0, 0.0, 0.0, 1.6518362145352304E9, 0.0, 2022-05-06 12:23:34.535
89.0, -195.08627133863047, -71.71445160033181, -118.0574219012633, -140.05925334058702, 0.1600000075995922, 0.11200000531971455, 1.008000047877431, 0.0, 0.0, 0.0, 0.0, 0.0, 1.6518362145352304E9, 0.0, 2022-05-06 12:23:34.535
90.0, -265.3253324064426, -191.1444167853333, -212.67315088026226, -205.7318965625018, 0.1600000075995922, 0.11200000531971455, 1.008000047877431, 0.0, 0.0, 0.0, 0.0, 0.0, 1.651836214545205E9, 0.0, 2022-05-06 12:23:34.545
90.0, -303.8276024502702, -220.1623005415313, -235.38556331116706, -226.42850291728973, 0.1600000075995922, 0.11200000531971455, 1.008000047877431, 0.0, 0.0, 0.0, 0.0, 0.0, 1.651836214545205E9, 0.0, 2022-05-06 12:23:34.545
91.0, -228.3526814444922, -84.55726804817095, -119.95729107875377, -156.05106555111706, 0.1600000075995922, 0.11200000531971455, 1.008000047877431, 0.0, 0.0, 0.0, 0.0, 0.0, 1.6518362145602632E9, 0.0, 2022-05-06 12:23:34.560
91.0, -201.60865686135367, -70.4989841147326, -113.88369355071336, -145.1829162798822, 0.1600000075995922, 0.11200000531971455, 1.008000047877431, 0.0, 0.0, 0.0, 0.0, 0.0, 1.6518362145602632E9, 0.0, 2022-05-06 12:23:34.560
92.0, -256.5552670103498, -187.2511809314601, -207.6168061401695, -186.02262379601598, 0.1600000075995922, 0.11200000531971455, 1.008000047877431, 0.0, 0.0, 0.0, 0.0, 0.0, 1.6518362145762053E9, 0.0, 2022-05-06 12:23:34.576
92.0, -290.0385913136415, -204.2677257298492, -206.77532865013927, -194.14942639973015, 0.1600000075995922, 0.11200000531971455, 1.008000047877431, 0.0, 0.0, 0.0, 0.0, 0.0, 1.6518362145762053E9, 0.0, 2022-05-06 12:23:34.576
93.0, -226.84550176234916, -76.26216994645074, -113.36384745687246, -149.8503114245832, 0.1600000075995922, 0.11200000531971455, 1.008000047877431, 0.0, 0.0, 0.0, 0.0, 0.0, 1.6518362145771432E9, 0.0, 2022-05-06 12:23:34.577
93.0, -202.75680614775047, -66.15322036622092, -106.57966893725097, -131.59585974086076, 0.1600000075995922, 0.11200000531971455, 1.008000047877431, 0.0, 0.0, 0.0, 0.0, 0.0, 1.6518362145771432E9, 0.0, 2022-05-06 12:23:34.577
94.0, -267.24016118375584, -200.10147717921063, -221.0355671811849, -208.85471302550286, 0.1600000075995922, 0.11200000531971455, 1.008000047877431, 0.0, 0.0, 0.0, 0.0, 0.0, 1.6518362145902195E9, 0.0, 2022-05-06 12:23:34.590
94.0, -290.1133893127553, -216.84126938087866, -225.10083843301982, -215.9530431414023, 0.1600000075995922, 0.11200000531971455, 1.008000047877431, 0.0, 0.0, 0.0, 0.0, 0.0, 1.6518362145902195E9, 0.0, 2022-05-06 12:23:34.590
95.0, -232.07014200044796, -88.54774130089208, -123.22970353998244, -155.3292648596689, 0.1600000075995922, 0.11200000531971455, 1.008000047877431, 0.0, 0.0, 0.0, 0.0, 0.0, 1.6518362146072164E9, 0.0, 2022-05-06 12:23:34.607
95.0, -197.0758981150575, -71.65087330108508, -109.73988439980894, -122.41440534964204, 0.1600000075995922, 0.11200000531971455, 1.008000047877431, 0.0, 0.0, 0.0, 0.0, 0.0, 1.6518362146072164E9, 0.0, 2022-05-06 12:23:34.607
96.0, -239.66587881045416, -180.81855300767347, -198.4316118489951, -174.22323943581432, 0.1600000075995922, 0.11200000531971455, 1.008000047877431, 0.0, 0.0, 0.0, 0.0, 0.0, 1.6518362146081524E9, 0.0, 2022-05-06 12:23:34.608
96.0, -262.65504383808, -194.57016514474526, -208.5779604287818, -200.29034212697297, 0.1600000075995922, 0.11200000531971455, 1.008000047877431, 0.0, 0.0, 0.0, 0.0, 0.0, 1.6518362146081524E9, 0.0, 2022-05-06 12:23:34.608
97.0, -233.06121548870578, -79.7253173054196, -117.78440920449793, -168.13094240799546, 0.1600000075995922, 0.11200000531971455, 1.008000047877431, 0.0, 0.0, 0.0, 0.0, 0.0, 1.6518362146201935E9, 0.0, 2022-05-06 12:23:34.620
97.0, -197.02353951567784, -63.05284330295399, -108.41221991553903, -136.45024988334626, 0.1600000075995922, 0.11200000531971455, 1.008000047877431, 0.0, 0.0, 0.0, 0.0, 0.0, 1.6518362146201935E9, 0.0, 2022-05-06 12:23:34.620
98.0, -258.5411538868211, -183.1410308801569, -207.5756672406569, -187.91501317359507, 0.1600000075995922, 0.11200000531971455, 1.008000047877431, 0.0, 0.0, 0.0, 0.0, 0.0, 1.6518362146522508E9, 0.0, 2022-05-06 12:23:34.652
98.0, -273.4147360105999, -192.80119246570393, -204.52764877676964, -203.353320190683, 0.1600000075995922, 0.11200000531971455, 1.008000047877431, 0.0, 0.0, 0.0, 0.0, 0.0, 1.6518362146522508E9, 0.0, 2022-05-06 12:23:34.652
99.0, -211.29873764654621, -79.32140811020508, -109.68752580042928, -142.8118197079748, 0.1600000075995922, 0.11200000531971455, 1.008000047877431, 0.0, 0.0, 0.0, 0.0, 0.0, 1.6518362146533082E9, 0.0, 2022-05-06 12:23:34.653
99.0, -207.65981498965994, -64.69839928345755, -105.18468625377864, -122.08903405349702, 0.1600000075995922, 0.11200000531971455, 1.008000047877431, 0.0, 0.0, 0.0, 0.0, 0.0, 1.6518362146533082E9, 0.0, 2022-05-06 12:23:34.653
100.0, -251.01273527601734, -178.64567113341764, -199.52740253601223, -182.4622390381992, 0.1600000075995922, 0.11200000531971455, 1.008000047877431, 0.0, 0.0, 0.0, 0.0, 0.0, 1.6518362146542804E9, 0.0, 2022-05-06 12:23:34.654
100.0, -271.9262558282353, -190.38147719437256, -195.75384348072112, -189.47455145511776, 0.1600000075995922, 0.11200000531971455, 1.008000047877431, 0.0, 0.0, 0.0, 0.0, 0.0, 1.6518362146542804E9, 0.0, 2022-05-06 12:23:34.654
0.0, -216.79826053138822, -74.92328576231375, -114.19971509696916, -148.4272794914432, 0.1600000075995922, 0.11200000531971455, 1.008000047877431, 0.0, 0.0, 0.0, 0.0, 0.0, 1.6518362146552918E9, 0.0, 2022-05-06 12:23:34.655
1.0, -203.22990349214524, -63.72976519493386, -113.53775280481204, -146.80042301071808, 0.1600000075995922, 0.11200000531971455, 1.008000047877431, 0.0, 0.0, 0.0, 0.0, 0.0, 1.6518362146651988E9, 0.0, 2022-05-06 12:23:34.665
1.0, -265.2374447574839, -196.13718322617933, -211.82980344025418, -190.65448989113793, 0.1600000075995922, 0.11200000531971455, 1.008000047877431, 0.0, 0.0, 0.0, 0.0, 0.0, 1.6518362146651988E9, 0.0, 2022-05-06 12:23:34.665
2.0, -293.1296186270192, -211.62036904273555, -218.29235056368634, -211.46703314455226, 0.1600000075995922, 0.11200000531971455, 1.008000047877431, 0.0, 0.0, 0.0, 0.0, 0.0, 1.651836214681286E9, 0.0, 2022-05-06 12:23:34.681
2.0, -232.87983034085482, -86.31502102734521, -123.62800288526341, -169.4342975425534, 0.1600000075995922, 0.11200000531971455, 1.008000047877431, 0.0, 0.0, 0.0, 0.0, 0.0, 1.651836214681286E9, 0.0, 2022-05-06 12:23:34.681
3.0, -205.97125015966594, -80.51069629611447, -120.92405521729961, -155.25633681053296, 0.1600000075995922, 0.11200000531971455, 1.008000047877431, 0.0, 0.0, 0.0, 0.0, 0.0, 1.6518362146821342E9, 0.0, 2022-05-06 12:23:34.682
3.0, -253.83822969254106, -189.0388531102799, -208.16470148367807, -193.10038446215913, 0.1600000075995922, 0.11200000531971455, 1.008000047877431, 0.0, 0.0, 0.0, 0.0, 0.0, 1.6518362146821342E9, 0.0, 2022-05-06 12:23:34.682
4.0, -282.25772945582867, -208.27689848234877, -213.65113471867517, -205.44205431593582, 0.1600000075995922, 0.11200000531971455, 1.008000047877431, 0.0, 0.0, 0.0, 0.0, 0.0, 1.651836214695206E9, 0.0, 2022-05-06 12:23:34.695
4.0, -208.93325092457235, -73.83871477516368, -108.64970356272534, -148.37118099210784, 0.1600000075995922, 0.11200000531971455, 1.008000047877431, 0.0, 0.0, 0.0, 0.0, 0.0, 1.651836214695206E9, 0.0, 2022-05-06 12:23:34.695
5.0, -201.9097188077867, -62.45071941008791, -102.63968433393165, -132.1886338838376, 0.1600000075995922, 0.11200000531971455, 1.008000047877431, 0.0, 0.0, 0.0, 0.0, 0.0, 1.6518362147111976E9, 0.0, 2022-05-06 12:23:34.711
5.0, -251.28761792276055, -177.80045374343172, -198.57185809733346, -170.93773732474074, 0.1600000075995922, 0.11200000531971455, 1.008000047877431, 0.0, 0.0, 0.0, 0.0, 0.0, 1.6518362147111976E9, 0.0, 2022-05-06 12:23:34.711
6.0, -266.55388954188675, -188.46664841705933, -198.0744514032267, -190.65822979109362, 0.1600000075995922, 0.11200000531971455, 1.008000047877431, 0.0, 0.0, 0.0, 0.0, 0.0, 1.6518362147121556E9, 0.0, 2022-05-06 12:23:34.712
6.0, -222.15379726793617, -77.36170053342357, -104.88736420730129, -136.78123102942482, 0.1600000075995922, 0.11200000531971455, 1.008000047877431, 0.0, 0.0, 0.0, 0.0, 0.0, 1.6518362147121556E9, 0.0, 2022-05-06 12:23:34.712
7.0, -181.66564034763724, -61.553143420722336, -107.70350887393579, -128.83020372362807, 0.1600000075995922, 0.11200000531971455, 1.008000047877431, 0.0, 0.0, 0.0, 0.0, 0.0, 1.651836214725266E9, 0.0, 2022-05-06 12:23:34.725
7.0, -253.46049979701638, -193.05924556264654, -220.4166137385182, -205.1914810189046, 0.1600000075995922, 0.11200000531971455, 1.008000047877431, 0.0, 0.0, 0.0, 0.0, 0.0, 1.651836214725266E9, 0.0, 2022-05-06 12:23:34.725
8.0, -288.2864481844008, -214.81050370493904, -220.7943436340429, -223.90968029713258, 0.1600000075995922, 0.11200000531971455, 1.008000047877431, 0.0, 0.0, 0.0, 0.0, 0.0, 1.6518362147412543E9, 0.0, 2022-05-06 12:23:34.741
8.0, -235.97272760421038, -83.37171976221725, -120.49396672239527, -159.40014596143737, 0.1600000075995922, 0.11200000531971455, 1.008000047877431, 0.0, 0.0, 0.0, 0.0, 0.0, 1.6518362147412543E9, 0.0, 2022-05-06 12:23:34.741
9.0, -200.67181192245334, -74.14164667157456, -117.67782205576077, -141.72911867080256, 0.1600000075995922, 0.11200000531971455, 1.008000047877431, 0.0, 0.0, 0.0, 0.0, 0.0, 1.6518362147422352E9, 0.0, 2022-05-06 12:23:34.742
9.0, -261.21705230511725, -186.2227084436454, -206.75849910033867, -187.80094622494653, 0.1600000075995922, 0.11200000531971455, 1.008000047877431, 0.0, 0.0, 0.0, 0.0, 0.0, 1.6518362147422352E9, 0.0, 2022-05-06 12:23:34.742
10.0, -277.3958595134318, -199.1852016900666, -198.13802970247343, -198.02209280384704, 0.1600000075995922, 0.11200000531971455, 1.008000047877431, 0.0, 0.0, 0.0, 0.0, 0.0, 1.651836214755278E9, 0.0, 2022-05-06 12:23:34.755
10.0, -215.75108854379505, -76.31078864587471, -102.15349733969197, -124.55175817431882, 0.1600000075995922, 0.11200000531971455, 1.008000047877431, 0.0, 0.0, 0.0, 0.0, 0.0, 1.651836214755278E9, 0.0, 2022-05-06 12:23:34.755
11.0, -189.63162725325674, -54.11074250889942, -98.82124647917226, -116.91862236475572, 0.1600000075995922, 0.11200000531971455, 1.008000047877431, 0.0, 0.0, 0.0, 0.0, 0.0, 1.6518362147712004E9, 0.0, 2022-05-06 12:23:34.771
11.0, -264.4969445662573, -195.8529508295469, -219.5713963485323, -206.4854864035733, 0.1600000075995922, 0.11200000531971455, 1.008000047877431, 0.0, 0.0, 0.0, 0.0, 0.0, 1.6518362147712004E9, 0.0, 2022-05-06 12:23:34.771
12.0, -281.2142973681912, -198.17916860198602, -209.9336741627194, -205.72254681261256, 0.1600000075995922, 0.11200000531971455, 1.008000047877431, 0.0, 0.0, 0.0, 0.0, 0.0, 1.6518362147721503E9, 0.0, 2022-05-06 12:23:34.772
12.0, -224.34537864197046, -79.65799910621718, -115.97616757592186, -159.6507192584686, 0.1600000075995922, 0.11200000531971455, 1.008000047877431, 0.0, 0.0, 0.0, 0.0, 0.0, 1.6518362147721503E9, 0.0, 2022-05-06 12:23:34.772
13.0, -205.42522476613522, -75.0541822607629, -124.41712177591398, -148.13182739494368, 0.1600000075995922, 0.11200000531971455, 1.008000047877431, 0.0, 0.0, 0.0, 0.0, 0.0, 1.651836214802276E9, 0.0, 2022-05-06 12:23:34.802
13.0, -263.22537858132273, -195.8566907295026, -214.58610970759764, -194.89927634084597, 0.1600000075995922, 0.11200000531971455, 1.008000047877431, 0.0, 0.0, 0.0, 0.0, 0.0, 1.651836214802276E9, 0.0, 2022-05-06 12:23:34.802
14.0, -286.38283910695463, -201.10751026729122, -215.46872609714046, -204.2303267302923, 0.1600000075995922, 0.11200000531971455, 1.008000047877431, 0.0, 0.0, 0.0, 0.0, 0.0, 1.6518362148031583E9, 0.0, 2022-05-06 12:23:34.803
14.0, -238.20544787775725, -93.60034614102915, -128.1495419316925, -171.79791431454942, 0.1600000075995922, 0.11200000531971455, 1.008000047877431, 0.0, 0.0, 0.0, 0.0, 0.0, 1.6518362148031583E9, 0.0, 2022-05-06 12:23:34.803
15.0, -201.6853248104453, -64.54506338527426, -112.54293941659853, -140.30047688772902, 0.1600000075995922, 0.11200000531971455, 1.008000047877431, 0.0, 0.0, 0.0, 0.0, 0.0, 1.6518362148041503E9, 0.0, 2022-05-06 12:23:34.804
15.0, -254.35059598647058, -187.12402433296666, -209.40634826896712, -182.27711399039254, 0.1600000075995922, 0.11200000531971455, 1.008000047877431, 0.0, 0.0, 0.0, 0.0, 0.0, 1.6518362148041503E9, 0.0, 2022-05-06 12:23:34.804
16.0, -284.78216192591935, -194.86561724124476, -198.65413589635864, -185.04463995760307, 0.1600000075995922, 0.11200000531971455, 1.008000047877431, 0.0, 0.0, 0.0, 0.0, 0.0, 1.6518362148152184E9, 0.0, 2022-05-06 12:23:34.815
16.0, -215.63889154512435, -66.80396295851097, -102.13479783991352, -141.1943129771389, 0.1600000075995922, 0.11200000531971455, 1.008000047877431, 0.0, 0.0, 0.0, 0.0, 0.0, 1.6518362148152184E9, 0.0, 2022-05-06 12:23:34.815
17.0, -200.92238521948457, -68.8309887344949, -105.89713719533756, -117.5170063576661, 0.1600000075995922, 0.11200000531971455, 1.008000047877431, 0.0, 0.0, 0.0, 0.0, 0.0, 1.6518362148312483E9, 0.0, 2022-05-06 12:23:34.831
17.0, -234.79091921821237, -171.33042682008818, -194.959114740137, -166.7303498745896, 0.1600000075995922, 0.11200000531971455, 1.008000047877431, 0.0, 0.0, 0.0, 0.0, 0.0, 1.6518362148312483E9, 0.0, 2022-05-06 12:23:34.831
18.0, -302.7037625135854, -229.0483028362505, -237.29852213850245, -245.15605194540694, 0.1600000075995922, 0.11200000531971455, 1.008000047877431, 0.0, 0.0, 0.0, 0.0, 0.0, 1.6518362148461945E9, 0.0, 2022-05-06 12:23:34.846
18.0, -243.54976491443813, -107.11634458089247, -137.06546342605725, -177.43020364781842, 0.1600000075995922, 0.11200000531971455, 1.008000047877431, 0.0, 0.0, 0.0, 0.0, 0.0, 1.6518362148461945E9, 0.0, 2022-05-06 12:23:34.846
19.0, -220.5905190864578, -79.83003450417891, -127.43148114020005, -162.04425523011014, 0.1600000075995922, 0.11200000531971455, 1.008000047877431, 0.0, 0.0, 0.0, 0.0, 0.0, 1.651836214847176E9, 0.0, 2022-05-06 12:23:34.847
19.0, -271.3521811850369, -205.60660991398618, -218.85707545699552, -197.05345871532336, 0.1600000075995922, 0.11200000531971455, 1.008000047877431, 0.0, 0.0, 0.0, 0.0, 0.0, 1.651836214847176E9, 0.0, 2022-05-06 12:23:34.847
20.0, -301.2152823312208, -217.39477457432076, -221.30297002801672, -214.18594041233882, 0.1600000075995922, 0.11200000531971455, 1.0240000486373901, 0.0, 0.0, 0.0, 0.0, 0.0, 1.6518362148612137E9, 0.0, 2022-05-06 12:23:34.861
20.0, -245.16166179534048, -86.45713722566143, -125.99535955721512, -170.82180042611435, 0.1600000075995922, 0.11200000531971455, 1.0240000486373901, 0.0, 0.0, 0.0, 0.0, 0.0, 1.6518362148612137E9, 0.0, 2022-05-06 12:23:34.861
21.0, -217.00395502895117, -78.55472861928865, -125.07160426815972, -149.77364347549155, 0.1600000075995922, 0.11200000531971455, 1.0240000486373901, 0.0, 0.0, 0.0, 0.0, 0.0, 1.651836214862151E9, 0.0, 2022-05-06 12:23:34.862
21.0, -262.6082950886339, -189.5549593041651, -204.46220052754506, -181.61141179827973, 0.1600000075995922, 0.11200000531971455, 1.0240000486373901, 0.0, 0.0, 0.0, 0.0, 0.0, 1.651836214862151E9, 0.0, 2022-05-06 12:23:34.862
22.0, -286.04624811094254, -194.75342024257407, -205.41961491620168, -192.04199277469888, 0.1600000075995922, 0.11200000531971455, 1.0240000486373901, 0.0, 0.0, 0.0, 0.0, 0.0, 1.6518362148752365E9, 0.0, 2022-05-06 12:23:34.875
22.0, -230.54239286854863, -78.80530191631988, -117.25147346081212, -155.88837990304455, 0.1600000075995922, 0.11200000531971455, 1.0240000486373901, 0.0, 0.0, 0.0, 0.0, 0.0, 1.6518362148752365E9, 0.0, 2022-05-06 12:23:34.875
23.0, -208.82105392590165, -73.01967668486759, -119.13638303847983, -131.98667928623036, 0.1600000075995922, 0.11200000531971455, 1.0240000486373901, 0.0, 0.0, 0.0, 0.0, 0.0, 1.6518362148912175E9, 0.0, 2022-05-06 12:23:34.891
23.0, -267.5449630301446, -188.27965341927484, -217.89218126842752, -198.27640600083396, 0.1600000075995922, 0.11200000531971455, 1.0240000486373901, 0.0, 0.0, 0.0, 0.0, 0.0, 1.6518362148912175E9, 0.0, 2022-05-06 12:23:34.891
24.0, -291.5065020462498, -201.08881076751277, -214.62724860711023, -215.7866175933741, 0.1600000075995922, 0.11200000531971455, 1.0240000486373901, 0.0, 0.0, 0.0, 0.0, 0.0, 1.6518362148921509E9, 0.0, 2022-05-06 12:23:34.892
24.0, -239.1927814660594, -98.9184838780202, -128.7853249241598, -164.75568269798532, 0.1600000075995922, 0.11200000531971455, 1.0240000486373901, 0.0, 0.0, 0.0, 0.0, 0.0, 1.6518362148921509E9, 0.0, 2022-05-06 12:23:34.892
25.0, -206.70053065102547, -68.81976903462783, -115.5535588809289, -137.80970351723954, 0.1600000075995922, 0.11200000531971455, 1.0240000486373901, 0.0, 0.0, 0.0, 0.0, 0.0, 1.651836214922211E9, 0.0, 2022-05-06 12:23:34.922
25.0, -262.1931661935523, -194.64496314385906, -210.84246985195205, -186.78369343699887, 0.1600000075995922, 0.11200000531971455, 1.0240000486373901, 0.0, 0.0, 0.0, 0.0, 0.0, 1.651836214922211E9, 0.0, 2022-05-06 12:23:34.922
26.0, -278.48791030049324, -194.50284694554284, -197.25167341297492, -181.67499009752646, 0.1600000075995922, 0.11200000531971455, 1.0240000486373901, 0.0, 0.0, 0.0, 0.0, 0.0, 1.6518362149231274E9, 0.0, 2022-05-06 12:23:34.923
26.0, -222.35575186554343, -79.02595601370558, -116.09958427445963, -145.5737358252518, 0.1600000075995922, 0.11200000531971455, 1.0240000486373901, 0.0, 0.0, 0.0, 0.0, 0.0, 1.6518362149231274E9, 0.0, 2022-05-06 12:23:34.923
27.0, -208.23762953281403, -75.77224305225536, -126.39926875242963, -153.10589433601126, 0.1600000075995922, 0.11200000531971455, 1.0240000486373901, 0.0, 0.0, 0.0, 0.0, 0.0, 1.6518362149241512E9, 0.0, 2022-05-06 12:23:34.924
27.0, -261.92015349678695, -203.2953517413698, -224.16773339407519, -211.0032855500467, 0.1600000075995922, 0.11200000531971455, 1.0240000486373901, 0.0, 0.0, 0.0, 0.0, 0.0, 1.6518362149241512E9, 0.0, 2022-05-06 12:23:34.924
28.0, -283.23384334426373, -200.84571727039292, -200.90929556963965, -198.60551719693467, 0.1600000075995922, 0.11200000531971455, 1.0240000486373901, 0.0, 0.0, 0.0, 0.0, 0.0, 1.6518362149522145E9, 0.0, 2022-05-06 12:23:34.952
28.0, -238.3363443762064, -87.23877631640062, -116.33893787162378, -143.569149449002, 0.1600000075995922, 0.11200000531971455, 1.0240000486373901, 0.0, 0.0, 0.0, 0.0, 0.0, 1.6518362149522145E9, 0.0, 2022-05-06 12:23:34.952
29.0, -189.25015745777637, -61.00711802719161, -112.6626162151806, -136.42594053363428, 0.1600000075995922, 0.11200000531971455, 1.0240000486373901, 0.0, 0.0, 0.0, 0.0, 0.0, 1.6518362149531395E9, 0.0, 2022-05-06 12:23:34.953
29.0, -261.5050246017054, -184.04608666943386, -207.1960673951544, -184.28544026659802, 0.1600000075995922, 0.11200000531971455, 1.0240000486373901, 0.0, 0.0, 0.0, 0.0, 0.0, 1.6518362149531395E9, 0.0, 2022-05-06 12:23:34.953
30.0, -288.4622234823182, -203.58332403795794, -214.5262713083066, -217.21899927640334, 0.1600000075995922, 0.11200000531971455, 1.0240000486373901, 0.0, 0.0, 0.0, 0.0, 0.0, 1.6518362149541626E9, 0.0, 2022-05-06 12:23:34.954
30.0, -246.2312731826678, -93.27123494492844, -130.53559810342267, -167.38483236683533, 0.1600000075995922, 0.11200000531971455, 1.0240000486373901, 0.0, 0.0, 0.0, 0.0, 0.0, 1.6518362149541626E9, 0.0, 2022-05-06 12:23:34.954
31.0, -223.38796425331384, -93.94067703699693, -137.09912252565846, -164.93145799590275, 0.1600000075995922, 0.11200000531971455, 1.0240000486373901, 0.0, 0.0, 0.0, 0.0, 0.0, 1.6518362149652283E9, 0.0, 2022-05-06 12:23:34.965
31.0, -277.07422811724246, -207.23720629466698, -233.04999578883871, -209.64944176608697, 0.1600000075995922, 0.11200000531971455, 1.0240000486373901, 0.0, 0.0, 0.0, 0.0, 0.0, 1.6518362149652283E9, 0.0, 2022-05-06 12:23:34.965
32.0, -295.4034778000787, -210.84246985195205, -215.54726399620995, -209.18195427162573, 0.1600000075995922, 0.11200000531971455, 1.0240000486373901, 0.0, 0.0, 0.0, 0.0, 0.0, 1.6518362149812229E9, 0.0, 2022-05-06 12:23:34.981
32.0, -228.65000349096954, -76.5389225431718, -107.93912257114425, -137.31603672308847, 0.1600000075995922, 0.11200000531971455, 1.0240000486373901, 0.0, 0.0, 0.0, 0.0, 0.0, 1.6518362149812229E9, 0.0, 2022-05-06 12:23:34.981
33.0, -190.26741024572402, -55.70393989002332, -96.08363971160725, -100.23492866242304, 0.1600000075995922, 0.11200000531971455, 1.0240000486373901, 0.0, 0.0, 0.0, 0.0, 0.0, 1.6518362149821527E9, 0.0, 2022-05-06 12:23:34.982
33.0, -259.7435317225754, -186.7762136370875, -214.94888000329956, -196.97118091629818, 0.1600000075995922, 0.11200000531971455, 1.0240000486373901, 0.0, 0.0, 0.0, 0.0, 0.0, 1.6518362149821527E9, 0.0, 2022-05-06 12:23:34.982
34.0, -292.9575832290575, -214.10366261331365, -221.17581342952326, -232.01030360115692, 0.1600000075995922, 0.11200000531971455, 1.0240000486373901, 0.0, 0.0, 0.0, 0.0, 0.0, 1.651836214995195E9, 0.0, 2022-05-06 12:23:34.995
34.0, -215.24246214982122, -70.4204462156631, -107.29585977876559, -153.04605593672022, 0.1600000075995922, 0.11200000531971455, 1.0240000486373901, 0.0, 0.0, 0.0, 0.0, 0.0, 1.651836214995195E9, 0.0, 2022-05-06 12:23:34.995
35.0, -214.5131816584617, -79.12319341255352, -121.55235840985551, -147.2753903050907, 0.1600000075995922, 0.11200000531971455, 1.0240000486373901, 0.0, 0.0, 0.0, 0.0, 0.0, 1.6518362150112207E9, 0.0, 2022-05-06 12:23:35.011
35.0, -273.55124235898256, -205.71506701270118, -226.6398072647862, -201.65727556077763, 0.1600000075995922, 0.11200000531971455, 1.0240000486373901, 0.0, 0.0, 0.0, 0.0, 0.0, 1.6518362150112207E9, 0.0, 2022-05-06 12:23:35.011
36.0, -288.08449358679354, -200.591404073406, -208.83788347570226, -203.17567494278774, 0.1600000075995922, 0.11200000531971455, 1.0240000486373901, 0.0, 0.0, 0.0, 0.0, 0.0, 1.6518362150122042E9, 0.0, 2022-05-06 12:23:35.012
36.0, -220.1379911918193, -82.86683326819912, -115.890149876941, -153.55842223064974, 0.1600000075995922, 0.11200000531971455, 1.0240000486373901, 0.0, 0.0, 0.0, 0.0, 0.0, 1.6518362150122042E9, 0.0, 2022-05-06 12:23:35.012
37.0, -207.56444754078984, -74.20896487077698, -113.00668701110408, -136.1192687372677, 0.1600000075995922, 0.11200000531971455, 1.0240000486373901, 0.0, 0.0, 0.0, 0.0, 0.0, 1.6518362150252008E9, 0.0, 2022-05-06 12:23:35.025
37.0, -248.17228125967085, -180.0294341170229, -181.76100779650733, -147.33522870438173, 0.1600000075995922, 0.11200000531971455, 1.0240000486373901, 0.0, 0.0, 0.0, 0.0, 0.0, 1.6518362150252008E9, 0.0, 2022-05-06 12:23:35.025
38.0, -278.8020618967712, -187.76728712534532, -210.13562876032665, -196.60467072064057, 0.1600000075995922, 0.11200000531971455, 1.0240000486373901, 0.0, 0.0, 0.0, 0.0, 0.0, 1.651836215057243E9, 0.0, 2022-05-06 12:23:35.057
38.0, -229.5214001806453, -88.74595599854365, -124.77615217166021, -179.15429752739146, 0.1600000075995922, 0.11200000531971455, 1.0240000486373901, 0.0, 0.0, 0.0, 0.0, 0.0, 1.651836215057243E9, 0.0, 2022-05-06 12:23:35.057
39.0, -200.26790272723883, -75.59272785438225, -117.70026145549491, -142.61921486025676, 0.1600000075995922, 0.11200000531971455, 1.0240000486373901, 0.0, 0.0, 0.0, 0.0, 0.0, 1.65183621505815E9, 0.0, 2022-05-06 12:23:35.058
39.0, -259.3171831276268, -192.12053067376837, -209.4886260679923, -190.5871716919355, 0.1600000075995922, 0.11200000531971455, 1.0240000486373901, 0.0, 0.0, 0.0, 0.0, 0.0, 1.65183621505815E9, 0.0, 2022-05-06 12:23:35.058
40.0, -289.8048475664109, -211.22393964743242, -212.53290463192388, -207.72339328890666, 0.1600000075995922, 0.11200000531971455, 1.0240000486373901, 0.0, 0.0, 0.0, 0.0, 0.0, 1.6518362150591807E9, 0.0, 2022-05-06 12:23:35.059
40.0, -222.770880760625, -83.73822995787486, -120.4079490234144, -160.70163114601746, 0.1600000075995922, 0.11200000531971455, 1.0240000486373901, 0.0, 0.0, 0.0, 0.0, 0.0, 1.6518362150591807E9, 0.0, 2022-05-06 12:23:35.059
41.0, -227.2924198070541, -91.37510566739365, -137.5666100201197, -169.15006514592096, 0.1600000075995922, 0.12800000607967377, 1.0240000486373901, 0.0, 0.0, 0.0, 0.0, 0.0, 1.6518362150601475E9, 0.0, 2022-05-06 12:23:35.060
41.0, -273.7644166564569, -199.16276229033247, -217.2376987761818, -202.9251016457565, 0.1600000075995922, 0.12800000607967377, 1.0240000486373901, 0.0, 0.0, 0.0, 0.0, 0.0, 1.6518362150601475E9, 0.0, 2022-05-06 12:23:35.060
42.0, -281.71544396225363, -206.1563752074726, -207.75331248855218, -209.1221158723347, 0.1600000075995922, 0.12800000607967377, 1.0240000486373901, 0.0, 0.0, 0.0, 0.0, 0.0, 1.6518362150701814E9, 0.0, 2022-05-06 12:23:35.070
42.0, -228.67618279065937, -83.55123496009037, -110.43737574154511, -139.99006519140676, 0.1600000075995922, 0.12800000607967377, 1.0240000486373901, 0.0, 0.0, 0.0, 0.0, 0.0, 1.6518362150701814E9, 0.0, 2022-05-06 12:23:35.070
43.0, -199.17959184013307, -64.0139975915663, -105.8821775955148, -122.43123489944264, 0.1600000075995922, 0.12800000607967377, 1.0240000486373901, 0.0, 0.0, 0.0, 0.0, 0.0, 1.6518362150852628E9, 0.0, 2022-05-06 12:23:35.085
43.0, -249.98239283822477, -170.9115580250509, -192.221507972572, -160.47723714867607, 0.1600000075995922, 0.12800000607967377, 1.0240000486373901, 0.0, 0.0, 0.0, 0.0, 0.0, 1.6518362150852628E9, 0.0, 2022-05-06 12:23:35.085
44.0, -275.5857479348779, -187.38955722982064, -193.79600585391745, -188.93039601156488, 0.1600000075995922, 0.12800000607967377, 1.0240000486373901, 0.0, 0.0, 0.0, 0.0, 0.0, 1.6518362151012557E9, 0.0, 2022-05-06 12:23:35.101
44.0, -220.94954948220402, -88.9479105961509, -127.76059233630076, -167.51198896532878, 0.1600000075995922, 0.12800000607967377, 1.0240000486373901, 0.0, 0.0, 0.0, 0.0, 0.0, 1.6518362151012557E9, 0.0, 2022-05-06 12:23:35.101
45.0, -226.4060635175556, -91.04225457133725, -141.9722121679224, -182.04898009309545, 0.1600000075995922, 0.12800000607967377, 1.0240000486373901, 0.0, 0.0, 0.0, 0.0, 0.0, 1.651836215102172E9, 0.0, 2022-05-06 12:23:35.102
45.0, -275.00232354179025, -204.94838752178475, -228.13576724706218, -216.08954948978499, 0.1600000075995922, 0.12800000607967377, 1.0240000486373901, 0.0, 0.0, 0.0, 0.0, 0.0, 1.651836215102172E9, 0.0, 2022-05-06 12:23:35.102
46.0, -290.89315845351666, -203.99845293303952, -216.680453682784, -213.44170032115653, 0.1600000075995922, 0.12800000607967377, 1.0240000486373901, 0.0, 0.0, 0.0, 0.0, 0.0, 1.6518362151322882E9, 0.0, 2022-05-06 12:23:35.132
46.0, -239.97442055679858, -90.26809528050944, -123.5569447861053, -160.29398205084726, 0.1600000075995922, 0.12800000607967377, 1.0240000486373901, 0.0, 0.0, 0.0, 0.0, 0.0, 1.6518362151322882E9, 0.0, 2022-05-06 12:23:35.132
47.0, -208.22640983294696, -77.03258933732286, -121.23820681357756, -147.1257943068631, 0.1600000075995922, 0.12800000607967377, 1.0240000486373901, 0.0, 0.0, 0.0, 0.0, 0.0, 1.6518362151332128E9, 0.0, 2022-05-06 12:23:35.133
47.0, -263.3525351798162, -197.6294033084996, -212.86949562793598, -192.09061147412285, 0.1600000075995922, 0.12800000607967377, 1.0240000486373901, 0.0, 0.0, 0.0, 0.0, 0.0, 1.6518362151332128E9, 0.0, 2022-05-06 12:23:35.133
48.0, -281.6930045625195, -198.83739099418744, -208.23575958283618, -198.68031519604847, 0.1600000075995922, 0.12800000607967377, 1.0240000486373901, 0.0, 0.0, 0.0, 0.0, 0.0, 1.6518362151341312E9, 0.0, 2022-05-06 12:23:35.134
48.0, -212.63201198074967, -65.18458627769724, -94.85695252614096, -124.26752577768639, 0.1600000075995922, 0.12800000607967377, 1.0240000486373901, 0.0, 0.0, 0.0, 0.0, 0.0, 1.6518362151341312E9, 0.0, 2022-05-06 12:23:35.134
49.0, -197.88932635542005, -65.87646776949987, -102.84911873145029, -113.50035380525514, 0.1600000075995922, 0.12800000607967377, 1.0240000486373901, 0.0, 0.0, 0.0, 0.0, 0.0, 1.6518362151452577E9, 0.0, 2022-05-06 12:23:35.145
49.0, -257.3499957509339, -186.2900266428478, -215.8576756925322, -198.0370524036698, 0.1600000075995922, 0.12800000607967377, 1.0240000486373901, 0.0, 0.0, 0.0, 0.0, 0.0, 1.6518362151452577E9, 0.0, 2022-05-06 12:23:35.145
50.0, -287.1794377975166, -202.62216974934563, -209.5260250675492, -209.54472456732765, 0.1600000075995922, 0.12800000607967377, 1.0240000486373901, 0.0, 0.0, 0.0, 0.0, 0.0, 1.651836215161186E9, 0.0, 2022-05-06 12:23:35.161
50.0, -241.54143863823265, -92.97204294847324, -130.6365754022263, -169.96910323621705, 0.1600000075995922, 0.12800000607967377, 1.0240000486373901, 0.0, 0.0, 0.0, 0.0, 0.0, 1.651836215161186E9, 0.0, 2022-05-06 12:23:35.161
51.0, -215.29856064915657, -88.319607403595, -133.7818312649615, -159.84145415620878, 0.1600000075995922, 0.11200000531971455, 1.0240000486373901, 0.0, 0.0, 0.0, 0.0, 0.0, 1.6518362151622088E9, 0.0, 2022-05-06 12:23:35.162
51.0, -263.2328583812341, -201.9639473571442, -220.72328553488478, -201.54507856210694, 0.1600000075995922, 0.11200000531971455, 1.0240000486373901, 0.0, 0.0, 0.0, 0.0, 0.0, 1.6518362151622088E9, 0.0, 2022-05-06 12:23:35.162
52.0, -282.34000725485384, -202.53615205036476, -210.22164645930752, -202.46509395120665, 0.1600000075995922, 0.11200000531971455, 1.0240000486373901, 0.0, 0.0, 0.0, 0.0, 0.0, 1.6518362151752973E9, 0.0, 2022-05-06 12:23:35.175
52.0, -228.8482181886211, -84.46003064932302, -114.94021528819576, -146.91262000938877, 0.1600000075995922, 0.11200000531971455, 1.0240000486373901, 0.0, 0.0, 0.0, 0.0, 0.0, 1.6518362151752973E9, 0.0, 2022-05-06 12:23:35.175
53.0, -204.9839165713638, -68.311142640654, -115.74803367862478, -138.43426680983976, 0.1600000075995922, 0.11200000531971455, 1.0240000486373901, 0.0, 0.0, 0.0, 0.0, 0.0, 1.6518362151912146E9, 0.0, 2022-05-06 12:23:35.191
53.0, -255.1958133764565, -182.56882618693635, -202.49875305080786, -181.02050760528073, 0.1600000075995922, 0.11200000531971455, 1.0240000486373901, 0.0, 0.0, 0.0, 0.0, 0.0, 1.6518362151912146E9, 0.0, 2022-05-06 12:23:35.191
54.0, -279.96517078299075, -202.038745356258, -202.80168494721875, -186.6266176388599, 0.1600000075995922, 0.11200000531971455, 1.0240000486373901, 0.0, 0.0, 0.0, 0.0, 0.0, 1.6518362151921563E9, 0.0, 2022-05-06 12:23:35.192
54.0, -234.69742171932012, -82.75837616948411, -120.3331510243006, -168.79477465013042, 0.1600000075995922, 0.11200000531971455, 1.0240000486373901, 0.0, 0.0, 0.0, 0.0, 0.0, 1.6518362151921563E9, 0.0, 2022-05-06 12:23:35.192
55.0, -203.67121168691665, -64.15611378988251, -114.20719489688054, -141.2317119766958, 0.1600000075995922, 0.11200000531971455, 1.0240000486373901, 0.0, 0.0, 0.0, 0.0, 0.0, 1.651836215205222E9, 0.0, 2022-05-06 12:23:35.205
55.0, -257.46967254951596, -190.04862609831616, -210.3375833579339, -184.28544026659802, 0.1600000075995922, 0.11200000531971455, 1.0240000486373901, 0.0, 0.0, 0.0, 0.0, 0.0, 1.651836215205222E9, 0.0, 2022-05-06 12:23:35.205
56.0, -275.873720231466, -195.75945333065465, -196.99362031603232, -192.28508627181873, 0.1600000075995922, 0.11200000531971455, 1.0240000486373901, 0.0, 0.0, 0.0, 0.0, 0.0, 1.6518362152212205E9, 0.0, 2022-05-06 12:23:35.221
56.0, -219.28155410196632, -67.22657165350392, -98.96710257744417, -130.53559810342267, 0.1600000075995922, 0.11200000531971455, 1.0240000486373901, 0.0, 0.0, 0.0, 0.0, 0.0, 1.6518362152212205E9, 0.0, 2022-05-06 12:23:35.221
57.0, -211.34174649603665, -78.97359741432592, -130.20648690732196, -165.15211209328845, 0.1600000075995922, 0.11200000531971455, 1.0240000486373901, 0.0, 0.0, 0.0, 0.0, 0.0, 1.6518362152221627E9, 0.0, 2022-05-06 12:23:35.222
57.0, -266.3855940438807, -198.61299699684605, -219.4965983494185, -204.98204662138596, 0.1600000075995922, 0.11200000531971455, 1.0240000486373901, 0.0, 0.0, 0.0, 0.0, 0.0, 1.6518362152221627E9, 0.0, 2022-05-06 12:23:35.222
58.0, -261.7107190992683, -196.03246602742, -198.20908780163154, -185.57944565126672, 0.1600000075995922, 0.11200000531971455, 1.0240000486373901, 0.0, 0.0, 0.0, 0.0, 0.0, 1.6518362152352667E9, 0.0, 2022-05-06 12:23:35.235
58.0, -219.60692539811134, -73.21041158260778, -107.04528648173437, -137.65636761905625, 0.1600000075995922, 0.11200000531971455, 1.0240000486373901, 0.0, 0.0, 0.0, 0.0, 0.0, 1.6518362152352667E9, 0.0, 2022-05-06 12:23:35.235
59.0, -202.69509779848158, -66.78152355877683, -109.01995365833864, -131.7809847886674, 0.1600000075995922, 0.11200000531971455, 1.0240000486373901, 0.0, 0.0, 0.0, 0.0, 0.0, 1.6518362152982168E9, 0.0, 2022-05-06 12:23:35.298
59.0, -265.02801035996526, -195.95018822839484, -220.74198503466323, -205.50189271522686, 0.1600000075995922, 0.11200000531971455, 1.0240000486373901, 0.0, 0.0, 0.0, 0.0, 0.0, 1.6518362152982168E9, 0.0, 2022-05-06 12:23:35.298
60.0, -284.0566213345155, -199.57041138550267, -207.5663174907677, -211.77370494091883, 0.1600000075995922, 0.11200000531971455, 1.0240000486373901, 0.0, 0.0, 0.0, 0.0, 0.0, 1.6518362152991471E9, 0.0, 2022-05-06 12:23:35.299
60.0, -226.31256601866335, -80.18906489992514, -116.79894556617364, -154.48965731961653, 0.1600000075995922, 0.11200000531971455, 1.0240000486373901, 0.0, 0.0, 0.0, 0.0, 0.0, 1.6518362152991471E9, 0.0, 2022-05-06 12:23:35.299
61.0, -209.52415511757135, -76.23225074680522, -123.64296248508617, -151.00033066095784, 0.1600000075995922, 0.11200000531971455, 1.0240000486373901, 0.0, 0.0, 0.0, 0.0, 0.0, 1.6518362153001444E9, 0.0, 2022-05-06 12:23:35.300
61.0, -260.28955711610615, -191.7764598778449, -211.0107653499581, -195.86791042936966, 0.1600000075995922, 0.11200000531971455, 1.0240000486373901, 0.0, 0.0, 0.0, 0.0, 0.0, 1.6518362153001444E9, 0.0, 2022-05-06 12:23:35.300
62.0, -289.75622886698693, -202.35663685249165, -214.25325861154124, -200.66246217256412, 0.1600000075995922, 0.11200000531971455, 1.0240000486373901, 0.0, 0.0, 0.0, 0.0, 0.0, 1.651836215301149E9, 0.0, 2022-05-06 12:23:35.301
62.0, -204.66976497508585, -63.32585599971935, -95.3580991202034, -131.6388685903512, 0.1600000075995922, 0.11200000531971455, 1.0240000486373901, 0.0, 0.0, 0.0, 0.0, 0.0, 1.651836215301149E9, 0.0, 2022-05-06 12:23:35.301
63.0, -185.17366650607437, -67.66040004836395, -113.42929570609704, -139.33558269916102, 0.1600000075995922, 0.11200000531971455, 1.0240000486373901, 0.0, 0.0, 0.0, 0.0, 0.0, 1.651836215313187E9, 0.0, 2022-05-06 12:23:35.313
63.0, -273.77563635632396, -198.9645475926809, -221.05987653089687, -204.20414743060246, 0.1600000075995922, 0.11200000531971455, 1.0240000486373901, 0.0, 0.0, 0.0, 0.0, 0.0, 1.651836215313187E9, 0.0, 2022-05-06 12:23:35.313
64.0, -296.01682139281183, -206.68370110122487, -214.72074610600248, -198.27266610087827, 0.1600000075995922, 0.11200000531971455, 1.0240000486373901, 0.0, 0.0, 0.0, 0.0, 0.0, 1.6518362153141437E9, 0.0, 2022-05-06 12:23:35.314
64.0, -246.39582878071815, -95.55631381785497, -129.97835301002488, -175.4031778718345, 0.1600000075995922, 0.11200000531971455, 1.0240000486373901, 0.0, 0.0, 0.0, 0.0, 0.0, 1.6518362153141437E9, 0.0, 2022-05-06 12:23:35.314
65.0, -202.07053450588137, -71.51997680263594, -118.41832224698737, -138.37068851059303, 0.1600000075995922, 0.11200000531971455, 1.0240000486373901, 0.0, 0.0, 0.0, 0.0, 0.0, 1.6518362153151584E9, 0.0, 2022-05-06 12:23:35.315
65.0, -258.61782183591276, -183.9226699708961, -201.58621746161953, -172.0223083118908, 0.1600000075995922, 0.11200000531971455, 1.0240000486373901, 0.0, 0.0, 0.0, 0.0, 0.0, 1.6518362153151584E9, 0.0, 2022-05-06 12:23:35.315
66.0, -271.3895801845938, -195.95392812835053, -202.25191965373233, -196.56353182112798, 0.1600000075995922, 0.11200000531971455, 1.0240000486373901, 0.0, 0.0, 0.0, 0.0, 0.0, 1.6518362153262036E9, 0.0, 2022-05-06 12:23:35.326
66.0, -216.33451293688267, -82.93415146740153, -108.39539036573842, -150.30470926919952, 0.1600000075995922, 0.11200000531971455, 1.0240000486373901, 0.0, 0.0, 0.0, 0.0, 0.0, 1.6518362153262036E9, 0.0, 2022-05-06 12:23:35.326
67.0, -200.85880692023784, -82.95659086713567, -119.04288553958759, -137.24123872397467, 0.1600000075995922, 0.11200000531971455, 1.0240000486373901, 0.0, 0.0, 0.0, 0.0, 0.0, 1.6518362153271513E9, 0.0, 2022-05-06 12:23:35.327
67.0, -267.2083720341325, -199.65268918452784, -215.2742512994446, -186.1441705445759, 0.1600000075995922, 0.11200000531971455, 1.0240000486373901, 0.0, 0.0, 0.0, 0.0, 0.0, 1.6518362153271513E9, 0.0, 2022-05-06 12:23:35.327
68.0, -293.5559672219679, -210.32262375811115, -223.35243520373479, -228.36390114435926, 0.1600000075995922, 0.11200000531971455, 1.0240000486373901, 0.0, 0.0, 0.0, 0.0, 0.0, 1.65183621534229E9, 0.0, 2022-05-06 12:23:35.342
68.0, -228.91553638782352, -84.81158124515787, -119.17752193799242, -168.5816003526561, 0.1600000075995922, 0.11200000531971455, 1.0240000486373901, 0.0, 0.0, 0.0, 0.0, 0.0, 1.65183621534229E9, 0.0, 2022-05-06 12:23:35.342
69.0, -195.40229288488626, -71.50501720281318, -116.06218527490273, -143.44199285050854, 0.1600000075995922, 0.11200000531971455, 1.0240000486373901, 0.0, 0.0, 0.0, 0.0, 0.0, 1.6518362153431647E9, 0.0, 2022-05-06 12:23:35.343
69.0, -269.5682489061728, -200.01545948022977, -219.76213124627247, -198.85983039392158, 0.1600000075995922, 0.11200000531971455, 1.0240000486373901, 0.0, 0.0, 0.0, 0.0, 0.0, 1.6518362153431647E9, 0.0, 2022-05-06 12:23:35.343
70.0, -283.2076640445739, -202.51371265063062, -213.12754872487858, -211.31743714632466, 0.1600000075995922, 0.11200000531971455, 1.0240000486373901, 0.0, 0.0, 0.0, 0.0, 0.0, 1.6518362153551924E9, 0.0, 2022-05-06 12:23:35.355
70.0, -221.53297387529165, -71.41525960387662, -104.89484400721267, -148.1580066946335, 0.1600000075995922, 0.11200000531971455, 1.0240000486373901, 0.0, 0.0, 0.0, 0.0, 0.0, 1.6518362153551924E9, 0.0, 2022-05-06 12:23:35.355
71.0, -198.71210434567183, -78.87636001547799, -118.44076164672151, -143.25873775267974, 0.1600000075995922, 0.11200000531971455, 1.0240000486373901, 0.0, 0.0, 0.0, 0.0, 0.0, 1.651836215372208E9, 0.0, 2022-05-06 12:23:35.372
71.0, -256.17192726489156, -193.68754875520244, -204.51455912692472, -186.57425903948024, 0.1600000075995922, 0.11200000531971455, 1.0240000486373901, 0.0, 0.0, 0.0, 0.0, 0.0, 1.651836215372208E9, 0.0, 2022-05-06 12:23:35.372
72.0, -290.1339587625116, -197.09085771488026, -200.81205817079172, -189.8466715007089, 0.1600000075995922, 0.11200000531971455, 1.0240000486373901, 0.0, 0.0, 0.0, 0.0, 0.0, 1.6518362153731625E9, 0.0, 2022-05-06 12:23:35.373
72.0, -214.35236596036702, -66.73664475930855, -105.63908409839496, -135.15063464874402, 0.1600000075995922, 0.11200000531971455, 1.0240000486373901, 0.0, 0.0, 0.0, 0.0, 0.0, 1.6518362153731625E9, 0.0, 2022-05-06 12:23:35.373
73.0, -200.32400122657418, -74.62035386590287, -119.13264313852414, -144.5639628372155, 0.1600000075995922, 0.11200000531971455, 1.0240000486373901, 0.0, 0.0, 0.0, 0.0, 0.0, 1.6518362153852212E9, 0.0, 2022-05-06 12:23:35.385
73.0, -245.34491689316928, -191.75776037806645, -214.72822590591386, -200.4792070747353, 0.1600000075995922, 0.11200000531971455, 1.0240000486373901, 0.0, 0.0, 0.0, 0.0, 0.0, 1.6518362153852212E9, 0.0, 2022-05-06 12:23:35.385
74.0, -299.1134585561231, -222.69047291157767, -224.9381527849473, -219.10764875402674, 0.1600000075995922, 0.11200000531971455, 1.0240000486373901, 0.0, 0.0, 0.0, 0.0, 0.0, 1.6518362154012313E9, 0.0, 2022-05-06 12:23:35.401
74.0, -237.3714501876384, -85.85127343283966, -117.09439766267315, -156.4231855967082, 0.1600000075995922, 0.11200000531971455, 1.0240000486373901, 0.0, 0.0, 0.0, 0.0, 0.0, 1.6518362154012313E9, 0.0, 2022-05-06 12:23:35.401
75.0, -223.3318657539785, -92.71772975148633, -136.40724103385583, -157.45165808452293, 0.1600000075995922, 0.11200000531971455, 1.0240000486373901, 0.0, 0.0, 0.0, 0.0, 0.0, 1.651836215402136E9, 0.0, 2022-05-06 12:23:35.402
75.0, -258.87587493285537, -195.92026902874932, -207.3344436935149, -185.00350105809048, 0.1600000075995922, 0.11200000531971455, 1.0240000486373901, 0.0, 0.0, 0.0, 0.0, 0.0, 1.651836215402136E9, 0.0, 2022-05-06 12:23:35.402
76.0, -284.97289682365954, -201.50019976263866, -205.03440522076562, -195.13862993801013, 0.1600000075995922, 0.11200000531971455, 1.0240000486373901, 0.0, 0.0, 0.0, 0.0, 0.0, 1.6518362154152842E9, 0.0, 2022-05-06 12:23:35.415
76.0, -205.60473996400833, -62.375921410974115, -101.3643784490414, -140.16958038927987, 0.1600000075995922, 0.11200000531971455, 1.0240000486373901, 0.0, 0.0, 0.0, 0.0, 0.0, 1.6518362154152842E9, 0.0, 2022-05-06 12:23:35.415
77.0, -204.3556133788079, -78.02366282558069, -113.24230070831254, -128.76662542438135, 0.1600000075995922, 0.11200000531971455, 1.0240000486373901, 0.0, 0.0, 0.0, 0.0, 0.0, 1.6518362154312575E9, 0.0, 2022-05-06 12:23:35.431
77.0, -248.47147325612605, -181.25986120244488, -198.04827210353687, -165.58968038810417, 0.1600000075995922, 0.11200000531971455, 1.0240000486373901, 0.0, 0.0, 0.0, 0.0, 0.0, 1.6518362154312575E9, 0.0, 2022-05-06 12:23:35.431
78.0, -284.1800380330533, -198.9234086931683, -214.12984191300347, -220.9028007327579, 0.1600000075995922, 0.11200000531971455, 1.0240000486373901, 0.0, 0.0, 0.0, 0.0, 0.0, 1.651836215432224E9, 0.0, 2022-05-06 12:23:35.432
78.0, -217.33306622505188, -72.76910338783637, -106.92934958310798, -149.73624447593465, 0.1600000075995922, 0.11200000531971455, 1.0240000486373901, 0.0, 0.0, 0.0, 0.0, 0.0, 1.651836215432224E9, 0.0, 2022-05-06 12:23:35.432
79.0, -181.85637524537742, -67.33876865217462, -110.848764736671, -133.57613676739857, 0.1600000075995922, 0.11200000531971455, 1.0240000486373901, 0.0, 0.0, 0.0, 0.0, 0.0, 1.6518362154451911E9, 0.0, 2022-05-06 12:23:35.445
79.0, -266.6174678411335, -202.45761415129527, -225.85816817404702, -207.65233518974856, 0.1600000075995922, 0.11200000531971455, 1.0240000486373901, 0.0, 0.0, 0.0, 0.0, 0.0, 1.6518362154451911E9, 0.0, 2022-05-06 12:23:35.445
80.0, -304.0613461975008, -213.76707161730155, -222.10330861853436, -216.1980065885, 0.1600000075995922, 0.11200000531971455, 1.0240000486373901, 0.0, 0.0, 0.0, 0.0, 0.0, 1.6518362154772227E9, 0.0, 2022-05-06 12:23:35.477
80.0, -220.28384729009122, -78.67814531782642, -111.67154272692278, -152.58978814212605, 0.1600000075995922, 0.11200000531971455, 1.0240000486373901, 0.0, 0.0, 0.0, 0.0, 0.0, 1.6518362154772227E9, 0.0, 2022-05-06 12:23:35.477
81.0, -213.6604844685644, -83.57367435982451, -124.27500557759777, -142.0170909673907, 0.1600000075995922, 0.11200000531971455, 1.0240000486373901, 0.0, 0.0, 0.0, 0.0, 0.0, 1.651836215478133E9, 0.0, 2022-05-06 12:23:35.478
81.0, -258.62530163582414, -194.2186145489104, -212.21501313569024, -191.58198508014902, 0.1600000075995922, 0.11200000531971455, 1.0240000486373901, 0.0, 0.0, 0.0, 0.0, 0.0, 1.651836215478133E9, 0.0, 2022-05-06 12:23:35.478
82.0, -271.84958787914366, -190.85644448874518, -196.60467072064057, -196.12222362635657, 0.1600000075995922, 0.11200000531971455, 1.0240000486373901, 0.0, 0.0, 0.0, 0.0, 0.0, 1.651836215479147E9, 0.0, 2022-05-06 12:23:35.479
82.0, -225.83385882433504, -75.73484405269846, -113.46669470565394, -154.70657151704654, 0.1600000075995922, 0.11200000531971455, 1.0240000486373901, 0.0, 0.0, 0.0, 0.0, 0.0, 1.651836215479147E9, 0.0, 2022-05-06 12:23:35.479
83.0, -201.26645601540804, -84.93499794369563, -120.90161581756547, -149.3809539801441, 0.1600000075995922, 0.11200000531971455, 1.0240000486373901, 0.0, 0.0, 0.0, 0.0, 0.0, 1.651836215480137E9, 0.0, 2022-05-06 12:23:35.480
83.0, -266.2023389460519, -202.09110395563766, -220.32685613958165, -197.91363570513204, 0.1600000075995922, 0.11200000531971455, 1.0240000486373901, 0.0, 0.0, 0.0, 0.0, 0.0, 1.651836215480137E9, 0.0, 2022-05-06 12:23:35.480
84.0, -278.3083951026201, -198.35494389990345, -203.84511703485623, -199.51431288616732, 0.1600000075995922, 0.11200000531971455, 1.0240000486373901, 0.0, 0.0, 0.0, 0.0, 0.0, 1.651836215490201E9, 0.0, 2022-05-06 12:23:35.490
84.0, -222.78584036044776, -79.36254700971767, -113.84442460117862, -149.1976988823153, 0.1600000075995922, 0.11200000531971455, 1.0240000486373901, 0.0, 0.0, 0.0, 0.0, 0.0, 1.651836215490201E9, 0.0, 2022-05-06 12:23:35.490
85.0, -204.69968417473137, -77.9077259269543, -116.55959196900949, -145.70089242374524, 0.1600000075995922, 0.11200000531971455, 1.0240000486373901, 0.0, 0.0, 0.0, 0.0, 0.0, 1.6518362155052545E9, 0.0, 2022-05-06 12:23:35.505
85.0, -260.0838626185432, -200.72978037176654, -215.95117319142446, -195.11993043823168, 0.1600000075995922, 0.11200000531971455, 1.0240000486373901, 0.0, 0.0, 0.0, 0.0, 0.0, 1.6518362155052545E9, 0.0, 2022-05-06 12:23:35.505
86.0, -281.5882873637602, -198.79251219471917, -202.71566724823788, -185.80009974865243, 0.1600000075995922, 0.11200000531971455, 1.0240000486373901, 0.0, 0.0, 0.0, 0.0, 0.0, 1.6518362155212743E9, 0.0, 2022-05-06 12:23:35.521
86.0, -229.04643288627267, -85.35012683877721, -117.28887246036902, -146.3516350160353, 0.1600000075995922, 0.11200000531971455, 1.0240000486373901, 0.0, 0.0, 0.0, 0.0, 0.0, 1.6518362155212743E9, 0.0, 2022-05-06 12:23:35.521
87.0, -209.96920321229845, -89.84922648547217, -131.3434164938517, -144.61258153663948, 0.1600000075995922, 0.11200000531971455, 1.0240000486373901, 0.0, 0.0, 0.0, 0.0, 0.0, 1.6518362155221632E9, 0.0, 2022-05-06 12:23:35.522
87.0, -275.85502073168755, -203.31779114110395, -223.6104883006774, -212.6787607301958, 0.1600000075995922, 0.11200000531971455, 1.0240000486373901, 0.0, 0.0, 0.0, 0.0, 0.0, 1.6518362155221632E9, 0.0, 2022-05-06 12:23:35.522
88.0, -291.8094339426607, -206.67996120126918, -212.20005353586748, -220.68962643528357, 0.1600000075995922, 0.11200000531971455, 1.0240000486373901, 0.0, 0.0, 0.0, 0.0, 0.0, 1.6518362155352316E9, 0.0, 2022-05-06 12:23:35.535
88.0, -232.09071145020425, -82.49284327263013, -113.13384360959753, -159.77787585696205, 0.1600000075995922, 0.11200000531971455, 1.0240000486373901, 0.0, 0.0, 0.0, 0.0, 0.0, 1.6518362155352316E9, 0.0, 2022-05-06 12:23:35.535
89.0, -203.353320190683, -83.03512876620516, -125.23241996625438, -141.6094418722205, 0.1600000075995922, 0.11200000531971455, 1.0240000486373901, 0.0, 0.0, 0.0, 0.0, 0.0, 1.6518362155512817E9, 0.0, 2022-05-06 12:23:35.551
89.0, -261.95381259638816, -194.24853374855593, -219.52277764910832, -192.12801047367975, 0.1600000075995922, 0.11200000531971455, 1.0240000486373901, 0.0, 0.0, 0.0, 0.0, 0.0, 1.6518362155512817E9, 0.0, 2022-05-06 12:23:35.551
90.0, -299.1807767553255, -210.60685615474358, -212.71989962970838, -215.87637519231066, 0.1600000075995922, 0.11200000531971455, 1.008000047877431, 0.0, 0.0, 0.0, 0.0, 0.0, 1.6518362155521636E9, 0.0, 2022-05-06 12:23:35.552
90.0, -231.95607505179942, -79.07083481317386, -111.5144669287838, -146.7181452116929, 0.1600000075995922, 0.11200000531971455, 1.008000047877431, 0.0, 0.0, 0.0, 0.0, 0.0, 1.6518362155521636E9, 0.0, 2022-05-06 12:23:35.552
91.0, -214.41968415956944, -85.12199294148013, -133.2657250710763, -153.56590203056112, 0.1600000075995922, 0.11200000531971455, 1.008000047877431, 0.0, 0.0, 0.0, 0.0, 0.0, 1.6518362155651815E9, 0.0, 2022-05-06 12:23:35.565
91.0, -283.0992069458589, -210.16928785992786, -225.17750638211146, -204.56691772630438, 0.1600000075995922, 0.11200000531971455, 1.008000047877431, 0.0, 0.0, 0.0, 0.0, 0.0, 1.6518362155651815E9, 0.0, 2022-05-06 12:23:35.565
92.0, -279.9539510831237, -192.43468227004632, -192.59923786809668, -195.5612386330031, 0.1600000075995922, 0.11200000531971455, 1.008000047877431, 0.0, 0.0, 0.0, 0.0, 0.0, 1.6518362155811963E9, 0.0, 2022-05-06 12:23:35.581
92.0, -227.29989960696548, -85.19679094059393, -119.52533263387159, -160.08828755328432, 0.1600000075995922, 0.11200000531971455, 1.008000047877431, 0.0, 0.0, 0.0, 0.0, 0.0, 1.6518362155811963E9, 0.0, 2022-05-06 12:23:35.581
93.0, -206.7641089502722, -71.43021920369938, -113.08522491017357, -136.77375122951344, 0.1600000075995922, 0.11200000531971455, 1.008000047877431, 0.0, 0.0, 0.0, 0.0, 0.0, 1.6518362155821311E9, 0.0, 2022-05-06 12:23:35.582
93.0, -282.2016309564933, -215.36026899842545, -232.1262404997833, -208.4900727798231, 0.1600000075995922, 0.11200000531971455, 1.008000047877431, 0.0, 0.0, 0.0, 0.0, 0.0, 1.6518362155821311E9, 0.0, 2022-05-06 12:23:35.582
94.0, -284.41565173026174, -189.7793533015065, -189.61479770345613, -185.10073845693842, 0.1600000075995922, 0.11200000531971455, 1.008000047877431, 0.0, 0.0, 0.0, 0.0, 0.0, 1.6518362155952296E9, 0.0, 2022-05-06 12:23:35.595
94.0, -213.87365876603872, -64.74327808292583, -93.8023007386364, -127.21082704281434, 0.1600000075995922, 0.11200000531971455, 1.008000047877431, 0.0, 0.0, 0.0, 0.0, 0.0, 1.6518362155952296E9, 0.0, 2022-05-06 12:23:35.595
95.0, -203.59641368780285, -81.21005758782849, -127.44270084006712, -144.54526333743706, 0.1600000075995922, 0.11200000531971455, 1.008000047877431, 0.0, 0.0, 0.0, 0.0, 0.0, 1.6518362156112068E9, 0.0, 2022-05-06 12:23:35.611
95.0, -270.9744512895122, -186.44710244098678, -213.99146561464295, -186.21148874377832, 0.1600000075995922, 0.11200000531971455, 1.008000047877431, 0.0, 0.0, 0.0, 0.0, 0.0, 1.6518362156112068E9, 0.0, 2022-05-06 12:23:35.611
96.0, -313.2914192881435, -217.72762567037717, -230.5704421182163, -236.81233514426276, 0.1600000075995922, 0.11200000531971455, 1.008000047877431, 0.0, 0.0, 0.0, 0.0, 0.0, 1.651836215612177E9, 0.0, 2022-05-06 12:23:35.612
96.0, -253.5988760953769, -105.8485184959136, -136.87846842827275, -178.68307013297454, 0.1600000075995922, 0.11200000531971455, 1.008000047877431, 0.0, 0.0, 0.0, 0.0, 0.0, 1.651836215612177E9, 0.0, 2022-05-06 12:23:35.612
97.0, -220.35490538924932, -86.88348582061008, -133.28442457085475, -159.6469793585129, 0.1600000075995922, 0.11200000531971455, 1.008000047877431, 0.0, 0.0, 0.0, 0.0, 0.0, 1.6518362156252184E9, 0.0, 2022-05-06 12:23:35.625
97.0, -263.95091917272657, -203.7104806364514, -224.13781419442967, -203.98349333321676, 0.1600000075995922, 0.11200000531971455, 1.008000047877431, 0.0, 0.0, 0.0, 0.0, 0.0, 1.6518362156252184E9, 0.0, 2022-05-06 12:23:35.625
98.0, -294.27402801346034, -194.09519785037264, -199.77236598310992, -196.93378191674128, 0.1600000075995922, 0.11200000531971455, 1.008000047877431, 0.0, 0.0, 0.0, 0.0, 0.0, 1.6518362156411939E9, 0.0, 2022-05-06 12:23:35.641
98.0, -222.33705236576498, -72.55218919040635, -105.33241230202839, -140.35283548710868, 0.1600000075995922, 0.11200000531971455, 1.008000047877431, 0.0, 0.0, 0.0, 0.0, 0.0, 1.6518362156411939E9, 0.0, 2022-05-06 12:23:35.641
99.0, -208.89959182497114, -79.6093804067932, -122.13952270289883, -140.26307788817212, 0.1600000075995922, 0.11200000531971455, 1.008000047877431, 0.0, 0.0, 0.0, 0.0, 0.0, 1.6518362156421375E9, 0.0, 2022-05-06 12:23:35.642
99.0, -273.7644166564569, -202.87648294633254, -220.41287383856252, -191.38377038249746, 0.1600000075995922, 0.11200000531971455, 1.008000047877431, 0.0, 0.0, 0.0, 0.0, 0.0, 1.6518362156421375E9, 0.0, 2022-05-06 12:23:35.642
100.0, -279.7258171858266, -184.4761751643382, -190.97238138737157, -191.39125018240884, 0.1600000075995922, 0.11200000531971455, 1.0240000486373901, 0.0, 0.0, 0.0, 0.0, 0.0, 1.6518362156572318E9, 0.0, 2022-05-06 12:23:35.657
100.0, -221.91444367077202, -73.2777297818102, -108.90027685975656, -142.70523255923763, 0.1600000075995922, 0.11200000531971455, 1.0240000486373901, 0.0, 0.0, 0.0, 0.0, 0.0, 1.6518362156572318E9, 0.0, 2022-05-06 12:23:35.657
0.0, -221.92753332061693, -87.33040386531502, -129.2808616682887, -153.5864714803174, 0.1600000075995922, 0.11200000531971455, 1.0240000486373901, 0.0, 0.0, 0.0, 0.0, 0.0, 1.6518362156712222E9, 0.0, 2022-05-06 12:23:35.671
1.0, -275.83445128193125, -202.1677719047293, -225.68426282610744, -202.71753719821572, 0.1600000075995922, 0.12800000607967377, 1.0240000486373901, 0.0, 0.0, 0.0, 0.0, 0.0, 1.651836215672146E9, 0.0, 2022-05-06 12:23:35.672
1.0, -288.72214652923867, -199.168372140266, -209.2810616204515, -199.78919553291053, 0.1600000075995922, 0.12800000607967377, 1.0240000486373901, 0.0, 0.0, 0.0, 0.0, 0.0, 1.651836215672146E9, 0.0, 2022-05-06 12:23:35.672
2.0, -230.37970722047612, -83.12675631511956, -114.24646384641528, -135.1375449988991, 0.1600000075995922, 0.12800000607967377, 1.0240000486373901, 0.0, 0.0, 0.0, 0.0, 0.0, 1.6518362156862147E9, 0.0, 2022-05-06 12:23:35.686
2.0, -200.60262377327308, -70.6654096627608, -115.87706022709608, -124.68078472279012, 0.1600000075995922, 0.12800000607967377, 1.0240000486373901, 0.0, 0.0, 0.0, 0.0, 0.0, 1.6518362156862147E9, 0.0, 2022-05-06 12:23:35.686
3.0, -268.335951870773, -196.430765372701, -224.11350484471768, -208.86593272536993, 0.1600000075995922, 0.12800000607967377, 1.0240000486373901, 0.0, 0.0, 0.0, 0.0, 0.0, 1.6518362156871476E9, 0.0, 2022-05-06 12:23:35.687
3.0, -296.02243124274537, -210.9116580011323, -219.60318549815565, -222.74844136089087, 0.1600000075995922, 0.12800000607967377, 1.0240000486373901, 0.0, 0.0, 0.0, 0.0, 0.0, 1.6518362156871476E9, 0.0, 2022-05-06 12:23:35.687
4.0, -230.39840672025457, -71.91453624796122, -103.43441307451576, -131.206910145469, 0.1600000075995922, 0.12800000607967377, 1.0240000486373901, 0.0, 0.0, 0.0, 0.0, 0.0, 1.6518362157001896E9, 0.0, 2022-05-06 12:23:35.700
4.0, -217.33867607498541, -88.3364369533956, -138.6979297567159, -161.90400898177177, 0.1600000075995922, 0.12800000607967377, 1.0240000486373901, 0.0, 0.0, 0.0, 0.0, 0.0, 1.6518362157001896E9, 0.0, 2022-05-06 12:23:35.700
5.0, -285.8536432632245, -209.19878382142633, -224.38651754148304, -205.69823746290058, 0.1600000075995922, 0.12800000607967377, 1.0240000486373901, 0.0, 0.0, 0.0, 0.0, 0.0, 1.6518362157162912E9, 0.0, 2022-05-06 12:23:35.716
5.0, -276.6273100725375, -179.93032676819712, -188.06460917182267, -185.87676769774407, 0.1600000075995922, 0.12800000607967377, 1.0240000486373901, 0.0, 0.0, 0.0, 0.0, 0.0, 1.6518362157162912E9, 0.0, 2022-05-06 12:23:35.716
6.0, -234.10464757634327, -91.88934191130102, -132.88612522557378, -174.27559803519398, 0.1600000075995922, 0.12800000607967377, 1.0240000486373901, 0.0, 0.0, 0.0, 0.0, 0.0, 1.651836215717178E9, 0.0, 2022-05-06 12:23:35.717
6.0, -219.28716395189986, -92.4166678050533, -134.40826450753957, -157.42360883485526, 0.1600000075995922, 0.12800000607967377, 1.0240000486373901, 0.0, 0.0, 0.0, 0.0, 0.0, 1.651836215717178E9, 0.0, 2022-05-06 12:23:35.717
7.0, -278.75531314732507, -198.52884924784303, -219.31521320156753, -202.41460530180484, 0.1600000075995922, 0.12800000607967377, 1.0240000486373901, 0.0, 0.0, 0.0, 0.0, 0.0, 1.6518362157302113E9, 0.0, 2022-05-06 12:23:35.730
7.0, -293.2025466761552, -200.51847602427006, -207.40737174265087, -198.79064224474132, 0.1600000075995922, 0.12800000607967377, 1.0240000486373901, 0.0, 0.0, 0.0, 0.0, 0.0, 1.6518362157302113E9, 0.0, 2022-05-06 12:23:35.730
8.0, -222.7129123113118, -66.140130716376, -103.90564046893269, -129.57257386483252, 0.1600000075995922, 0.12800000607967377, 1.0240000486373901, 0.0, 0.0, 0.0, 0.0, 0.0, 1.6518362157462192E9, 0.0, 2022-05-06 12:23:35.746
8.0, -205.0456249206327, -86.93397447001189, -131.52480164170265, -149.2594072315842, 0.1600000075995922, 0.12800000607967377, 1.0240000486373901, 0.0, 0.0, 0.0, 0.0, 0.0, 1.6518362157462192E9, 0.0, 2022-05-06 12:23:35.746
9.0, -262.3259326419793, -188.2740435693413, -203.40567879006267, -185.76831059902906, 0.1600000075995922, 0.12800000607967377, 1.0240000486373901, 0.0, 0.0, 0.0, 0.0, 0.0, 1.651836215747161E9, 0.0, 2022-05-06 12:23:35.747
9.0, -283.49750629113987, -197.66119245812297, -202.55672150012106, -200.92612511944026, 0.1600000075995922, 0.12800000607967377, 1.0240000486373901, 0.0, 0.0, 0.0, 0.0, 0.0, 1.651836215747161E9, 0.0, 2022-05-06 12:23:35.747
10.0, -215.2705113994889, -60.608818681910634, -99.47385902144015, -142.92775660660118, 0.1600000075995922, 0.12800000607967377, 1.0240000486373901, 0.0, 0.0, 0.0, 0.0, 0.0, 1.651836215760233E9, 0.0, 2022-05-06 12:23:35.760
10.0, -216.9721658793278, -85.1126431915909, -131.40512484312057, -159.4506346108392, 0.1600000075995922, 0.12800000607967377, 1.0240000486373901, 0.0, 0.0, 0.0, 0.0, 0.0, 1.651836215760233E9, 0.0, 2022-05-06 12:23:35.760
11.0, -283.3366905930452, -210.51896850578487, -234.60392422042787, -215.8819850422442, 0.1600000075995922, 0.12800000607967377, 1.0240000486373901, 0.0, 0.0, 0.0, 0.0, 0.0, 1.651836215776307E9, 0.0, 2022-05-06 12:23:35.776
11.0, -289.1634547240101, -203.58519398793578, -212.59087308123708, -213.30893387272954, 0.1600000075995922, 0.12800000607967377, 1.0240000486373901, 0.0, 0.0, 0.0, 0.0, 0.0, 1.651836215776307E9, 0.0, 2022-05-06 12:23:35.776
12.0, -224.82221588632092, -80.39288944751024, -111.07876858394593, -149.90640992391855, 0.1600000075995922, 0.12800000607967377, 1.0240000486373901, 0.0, 0.0, 0.0, 0.0, 0.0, 1.6518362157772255E9, 0.0, 2022-05-06 12:23:35.777
12.0, -211.16784114809707, -79.15872246213257, -111.89780667424202, -110.3868870921433, 0.1600000075995922, 0.12800000607967377, 1.0240000486373901, 0.0, 0.0, 0.0, 0.0, 0.0, 1.6518362157772255E9, 0.0, 2022-05-06 12:23:35.777
13.0, -258.16716389125213, -181.62824134808034, -207.23159644473344, -171.96059996262193, 0.1600000075995922, 0.12800000607967377, 1.0240000486373901, 0.0, 0.0, 0.0, 0.0, 0.0, 1.6518362157902484E9, 0.0, 2022-05-06 12:23:35.790
13.0, -290.4088414092548, -198.16233905218542, -207.78510163817555, -227.94316239934415, 0.1600000075995922, 0.12800000607967377, 1.0240000486373901, 0.0, 0.0, 0.0, 0.0, 0.0, 1.6518362157902484E9, 0.0, 2022-05-06 12:23:35.790
14.0, -216.85622898070142, -76.75770669057965, -115.33851463347673, -148.71712173800915, 0.1600000075995922, 0.12800000607967377, 1.0240000486373901, 0.0, 0.0, 0.0, 0.0, 0.0, 1.6518362158062956E9, 0.0, 2022-05-06 12:23:35.806
14.0, -203.68430133676156, -83.25017301365733, -132.81506712641567, -152.65523639135063, 0.1600000075995922, 0.12800000607967377, 1.0240000486373901, 0.0, 0.0, 0.0, 0.0, 0.0, 1.6518362158062956E9, 0.0, 2022-05-06 12:23:35.806
15.0, -282.0875640078448, -205.5823005642742, -231.22679456043988, -207.8748592371121, 0.1600000075995922, 0.12800000607967377, 1.0240000486373901, 0.0, 0.0, 0.0, 0.0, 0.0, 1.6518362158071764E9, 0.0, 2022-05-06 12:23:35.807
15.0, -302.87766786152497, -203.55153488833457, -207.42233134247363, -210.36563260760158, 0.1600000075995922, 0.12800000607967377, 1.0240000486373901, 0.0, 0.0, 0.0, 0.0, 0.0, 1.6518362158071764E9, 0.0, 2022-05-06 12:23:35.807
16.0, -242.15291228098795, -92.3044708063826, -125.27916871570051, -164.24144645407796, 0.1600000075995922, 0.12800000607967377, 1.0240000486373901, 0.0, 0.0, 0.0, 0.0, 0.0, 1.651836215820254E9, 0.0, 2022-05-06 12:23:35.820
16.0, -210.18050755979493, -79.5214927578345, -123.7981683332473, -141.0316273290664, 0.1600000075995922, 0.12800000607967377, 1.0240000486373901, 0.0, 0.0, 0.0, 0.0, 0.0, 1.651836215820254E9, 0.0, 2022-05-06 12:23:35.820
17.0, -265.4824082045816, -193.76795660424978, -216.76086153183132, -193.62210050597787, 0.1600000075995922, 0.12800000607967377, 1.0240000486373901, 0.0, 0.0, 0.0, 0.0, 0.0, 1.6518362158361862E9, 0.0, 2022-05-06 12:23:35.836
17.0, -292.2750514871441, -207.56818744074553, -206.7678488502279, -205.90393196046352, 0.1600000075995922, 0.12800000607967377, 1.0240000486373901, 0.0, 0.0, 0.0, 0.0, 0.0, 1.6518362158361862E9, 0.0, 2022-05-06 12:23:35.836
18.0, -217.05818357830867, -74.86905721295625, -104.43296636268497, -140.24624833837152, 0.1600000075995922, 0.12800000607967377, 1.0240000486373901, 0.0, 0.0, 0.0, 0.0, 0.0, 1.6518362158371975E9, 0.0, 2022-05-06 12:23:35.837
18.0, -191.50718708103523, -81.26428613718599, -130.82918024994433, -152.53555959276855, 0.1600000075995922, 0.12800000607967377, 1.0240000486373901, 0.0, 0.0, 0.0, 0.0, 0.0, 1.6518362158371975E9, 0.0, 2022-05-06 12:23:35.837
19.0, -286.10421656025574, -206.43873765412718, -227.7711270013824, -212.70680997986346, 0.1600000075995922, 0.12800000607967377, 1.0240000486373901, 0.0, 0.0, 0.0, 0.0, 0.0, 1.6518362158501968E9, 0.0, 2022-05-06 12:23:35.850
19.0, -288.4603535323404, -199.0187761420384, -201.7676026094705, -204.99887617118657, 0.1600000075995922, 0.12800000607967377, 1.0240000486373901, 0.0, 0.0, 0.0, 0.0, 0.0, 1.6518362158501968E9, 0.0, 2022-05-06 12:23:35.850
20.0, -226.29947636881843, -84.75735269580036, -111.52755657862872, -137.16457077488303, 0.1600000075995922, 0.12800000607967377, 1.008000047877431, 0.0, 0.0, 0.0, 0.0, 0.0, 1.6518362158822303E9, 0.0, 2022-05-06 12:23:35.882
20.0, -205.94320090999827, -82.21796062588692, -128.00181588344276, -131.3228470440954, 0.1600000075995922, 0.12800000607967377, 1.008000047877431, 0.0, 0.0, 0.0, 0.0, 0.0, 1.6518362158822303E9, 0.0, 2022-05-06 12:23:35.882
21.0, -263.186109631788, -189.0930816596374, -215.78848754335195, -200.40253912564367, 0.1600000075995922, 0.12800000607967377, 1.008000047877431, 0.0, 0.0, 0.0, 0.0, 0.0, 1.6518362158831508E9, 0.0, 2022-05-06 12:23:35.883
21.0, -284.810211175587, -195.71270458120853, -204.4715502774343, -212.63575188070536, 0.1600000075995922, 0.12800000607967377, 1.008000047877431, 0.0, 0.0, 0.0, 0.0, 0.0, 1.6518362158831508E9, 0.0, 2022-05-06 12:23:35.883
22.0, -228.77529013948515, -75.64695640373975, -113.25165045820177, -154.43542877025902, 0.1600000075995922, 0.12800000607967377, 1.008000047877431, 0.0, 0.0, 0.0, 0.0, 0.0, 1.65183621588415E9, 0.0, 2022-05-06 12:23:35.884
22.0, -199.1104036909528, -79.98150045238435, -123.81312793307006, -137.62831836938858, 0.1600000075995922, 0.12800000607967377, 1.008000047877431, 0.0, 0.0, 0.0, 0.0, 0.0, 1.65183621588415E9, 0.0, 2022-05-06 12:23:35.884
23.0, -268.7286413661204, -200.44741792511195, -221.08044598065317, -198.8691801438108, 0.1600000075995922, 0.12800000607967377, 1.008000047877431, 0.0, 0.0, 0.0, 0.0, 0.0, 1.6518362158851323E9, 0.0, 2022-05-06 12:23:35.885
23.0, -284.02857208484784, -199.0187761420384, -205.64213896356523, -211.22954949736595, 0.1600000075995922, 0.12800000607967377, 1.008000047877431, 0.0, 0.0, 0.0, 0.0, 0.0, 1.6518362158851323E9, 0.0, 2022-05-06 12:23:35.885
24.0, -220.56246983679011, -74.76434001419693, -104.14873396605253, -146.6639166623354, 0.1600000075995922, 0.12800000607967377, 1.008000047877431, 0.0, 0.0, 0.0, 0.0, 0.0, 1.6518362159112256E9, 0.0, 2022-05-06 12:23:35.911
24.0, -208.40405508084223, -96.72129265405238, -130.6908039515838, -139.71892244461924, 0.1600000075995922, 0.12800000607967377, 1.008000047877431, 0.0, 0.0, 0.0, 0.0, 0.0, 1.6518362159112256E9, 0.0, 2022-05-06 12:23:35.911
25.0, -271.3241319353692, -193.03119631297886, -217.83047291915864, -190.15521324705333, 0.1600000075995922, 0.12800000607967377, 1.008000047877431, 0.0, 0.0, 0.0, 0.0, 0.0, 1.6518362159121356E9, 0.0, 2022-05-06 12:23:35.912
25.0, -289.35792952170596, -202.26874920353293, -210.4740897063166, -222.18745636753738, 0.1600000075995922, 0.12800000607967377, 1.008000047877431, 0.0, 0.0, 0.0, 0.0, 0.0, 1.6518362159121356E9, 0.0, 2022-05-06 12:23:35.912
26.0, -209.61204276653007, -67.11998450476676, -100.57712950836867, -137.40766427200288, 0.1600000075995922, 0.12800000607967377, 1.008000047877431, 0.0, 0.0, 0.0, 0.0, 0.0, 1.6518362159262154E9, 0.0, 2022-05-06 12:23:35.926
26.0, -203.61324323760346, -76.54079249314964, -110.98527108505368, -132.14562503434718, 0.1600000075995922, 0.12800000607967377, 1.008000047877431, 0.0, 0.0, 0.0, 0.0, 0.0, 1.6518362159262154E9, 0.0, 2022-05-06 12:23:35.926
27.0, -269.86557095265016, -194.12324710004032, -220.9233701825142, -198.85796044394374, 0.1600000075995922, 0.12800000607967377, 1.008000047877431, 0.0, 0.0, 0.0, 0.0, 0.0, 1.6518362159272535E9, 0.0, 2022-05-06 12:23:35.927
27.0, -291.51211189618334, -201.56938791181892, -208.6901574274525, -206.8725660489872, 0.1600000075995922, 0.12800000607967377, 1.008000047877431, 0.0, 0.0, 0.0, 0.0, 0.0, 1.6518362159272535E9, 0.0, 2022-05-06 12:23:35.927
28.0, -221.69939942331985, -71.56298565212637, -107.35756812803447, -145.3998304773122, 0.1600000075995922, 0.12800000607967377, 1.008000047877431, 0.0, 0.0, 0.0, 0.0, 0.0, 1.6518362159402776E9, 0.0, 2022-05-06 12:23:35.940
28.0, -203.81145793525502, -81.25680633727461, -122.86693324428052, -145.37365117762238, 0.1600000075995922, 0.12800000607967377, 1.008000047877431, 0.0, 0.0, 0.0, 0.0, 0.0, 1.6518362159402776E9, 0.0, 2022-05-06 12:23:35.940
29.0, -265.71428200183436, -197.74347025714815, -219.15065760351717, -197.48915706016123, 0.1600000075995922, 0.12800000607967377, 1.008000047877431, 0.0, 0.0, 0.0, 0.0, 0.0, 1.651836215956302E9, 0.0, 2022-05-06 12:23:35.956
29.0, -269.08393186191097, -186.16847989428788, -190.65261994116008, -195.62294698227197, 0.1600000075995922, 0.12800000607967377, 1.008000047877431, 0.0, 0.0, 0.0, 0.0, 0.0, 1.651836215956302E9, 0.0, 2022-05-06 12:23:35.956
30.0, -223.976998496335, -81.13712953869253, -114.81866853963584, -156.3315580477938, 0.1600000075995922, 0.12800000607967377, 1.008000047877431, 0.0, 0.0, 0.0, 0.0, 0.0, 1.6518362159712377E9, 0.0, 2022-05-06 12:23:35.971
30.0, -210.68165415385738, -84.54791829828173, -126.5432549007237, -141.37943802494556, 0.1600000075995922, 0.12800000607967377, 1.008000047877431, 0.0, 0.0, 0.0, 0.0, 0.0, 1.6518362159712377E9, 0.0, 2022-05-06 12:23:35.971
31.0, -256.31217351322994, -183.91706012096256, -202.93819129560143, -178.03793739061803, 0.1600000075995922, 0.12800000607967377, 1.008000047877431, 0.0, 0.0, 0.0, 0.0, 0.0, 1.6518362159721324E9, 0.0, 2022-05-06 12:23:35.972
31.0, -278.5683181495406, -186.239537993446, -202.14907240495086, -200.2828623270616, 0.1600000075995922, 0.12800000607967377, 1.008000047877431, 0.0, 0.0, 0.0, 0.0, 0.0, 1.6518362159721324E9, 0.0, 2022-05-06 12:23:35.972
32.0, -233.02755638910457, -80.5948440451175, -120.2789224749431, -163.28403206542134, 0.1600000075995922, 0.12800000607967377, 1.008000047877431, 0.0, 0.0, 0.0, 0.0, 0.0, 1.6518362159862213E9, 0.0, 2022-05-06 12:23:35.986
32.0, -207.88420898700133, -78.30976517219096, -129.40801826678216, -147.30343955475837, 0.1600000075995922, 0.12800000607967377, 1.008000047877431, 0.0, 0.0, 0.0, 0.0, 0.0, 1.6518362159862213E9, 0.0, 2022-05-06 12:23:35.986
33.0, -258.79546708380803, -193.56600200664252, -216.6262251334265, -199.25812973920256, 0.1600000075995922, 0.12800000607967377, 1.008000047877431, 0.0, 0.0, 0.0, 0.0, 0.0, 1.6518362159871576E9, 0.0, 2022-05-06 12:23:35.987
33.0, -278.13074985472485, -197.39939946122468, -205.7281566625461, -199.4675641367212, 0.1600000075995922, 0.12800000607967377, 1.008000047877431, 0.0, 0.0, 0.0, 0.0, 0.0, 1.6518362159871576E9, 0.0, 2022-05-06 12:23:35.987
34.0, -221.79663682216778, -66.61135811079293, -104.62744116038084, -149.09859153348953, 0.1600000075995922, 0.12800000607967377, 1.008000047877431, 0.0, 0.0, 0.0, 0.0, 0.0, 1.6518362160002432E9, 0.0, 2022-05-06 12:23:36.000
34.0, -192.77127326605842, -67.97642159461975, -108.57677551358938, -126.73398979846388, 0.1600000075995922, 0.12800000607967377, 1.008000047877431, 0.0, 0.0, 0.0, 0.0, 0.0, 1.6518362160002432E9, 0.0, 2022-05-06 12:23:36.000
35.0, -259.1844166791998, -176.39612131007016, -190.55538254231215, -168.92006129864603, 0.1600000075995922, 0.12800000607967377, 1.008000047877431, 0.0, 0.0, 0.0, 0.0, 0.0, 1.6518362160162764E9, 0.0, 2022-05-06 12:23:36.016
35.0, -280.79729852313176, -188.92478616163135, -201.34499391447753, -200.19684462808073, 0.1600000075995922, 0.12800000607967377, 1.008000047877431, 0.0, 0.0, 0.0, 0.0, 0.0, 1.6518362160162764E9, 0.0, 2022-05-06 12:23:36.016
36.0, -229.28765643341467, -84.2636859016493, -119.6132202828303, -157.94719482865185, 0.1600000075995922, 0.12800000607967377, 1.008000047877431, 0.0, 0.0, 0.0, 0.0, 0.0, 1.6518362160312564E9, 0.0, 2022-05-06 12:23:36.031
36.0, -206.9641935979016, -81.93372822925448, -127.32863389141858, -138.23044226225466, 0.1600000075995922, 0.12800000607967377, 1.008000047877431, 0.0, 0.0, 0.0, 0.0, 0.0, 1.6518362160312564E9, 0.0, 2022-05-06 12:23:36.031
37.0, -266.4847013927065, -198.69714474584907, -221.49557487573475, -213.82877996657044, 0.1600000075995922, 0.12800000607967377, 1.008000047877431, 0.0, 0.0, 0.0, 0.0, 0.0, 1.6518362160321653E9, 0.0, 2022-05-06 12:23:36.032
37.0, -287.6300957421772, -206.63695235177875, -214.60293925739825, -218.35779881291091, 0.1600000075995922, 0.12800000607967377, 1.008000047877431, 0.0, 0.0, 0.0, 0.0, 0.0, 1.6518362160321653E9, 0.0, 2022-05-06 12:23:36.032
38.0, -232.1711192992516, -102.03195059113204, -130.10737955849618, -173.98014593869448, 0.1600000075995922, 0.12800000607967377, 1.008000047877431, 0.0, 0.0, 0.0, 0.0, 0.0, 1.6518362160461895E9, 0.0, 2022-05-06 12:23:36.046
38.0, -206.1114964080043, -91.27973821852356, -133.09181972313672, -150.2953595193103, 0.1600000075995922, 0.12800000607967377, 1.008000047877431, 0.0, 0.0, 0.0, 0.0, 0.0, 1.6518362160461895E9, 0.0, 2022-05-06 12:23:36.046
39.0, -253.26789494929835, -191.80076922755688, -214.617898857221, -190.63392044138163, 0.1600000075995922, 0.12800000607967377, 1.008000047877431, 0.0, 0.0, 0.0, 0.0, 0.0, 1.651836216047155E9, 0.0, 2022-05-06 12:23:36.047
39.0, -270.4489953457378, -182.1967061413452, -185.82066919840872, -178.2361520882696, 0.1600000075995922, 0.12800000607967377, 1.008000047877431, 0.0, 0.0, 0.0, 0.0, 0.0, 1.651836216047155E9, 0.0, 2022-05-06 12:23:36.047
40.0, -193.53421285701916, -56.83525962661952, -86.17477477900684, -117.70587130542845, 0.1600000075995922, 0.12800000607967377, 1.008000047877431, 0.0, 0.0, 0.0, 0.0, 0.0, 1.6518362160602543E9, 0.0, 2022-05-06 12:23:36.060
40.0, -199.54423208581284, -68.2943130908534, -114.13800674770027, -147.8457250483334, 0.1600000075995922, 0.12800000607967377, 1.008000047877431, 0.0, 0.0, 0.0, 0.0, 0.0, 1.6518362160602543E9, 0.0, 2022-05-06 12:23:36.060
41.0, -258.7992069837637, -183.7151055233553, -201.84614050853997, -182.82126943394542, 0.1600000075995922, 0.11200000531971455, 1.008000047877431, 0.0, 0.0, 0.0, 0.0, 0.0, 1.651836216076258E9, 0.0, 2022-05-06 12:23:36.076
41.0, -273.5194532093592, -185.07642910722643, -204.6548053752631, -204.90163877233863, 0.1600000075995922, 0.11200000531971455, 1.008000047877431, 0.0, 0.0, 0.0, 0.0, 0.0, 1.651836216076258E9, 0.0, 2022-05-06 12:23:36.076
42.0, -202.73436674801633, -69.24424767959863, -102.54805678501725, -146.31236606650054, 0.1600000075995922, 0.11200000531971455, 1.008000047877431, 0.0, 0.0, 0.0, 0.0, 0.0, 1.651836216077177E9, 0.0, 2022-05-06 12:23:36.077
42.0, -231.10898771183565, -88.66554814949632, -137.912550766021, -166.4891263274476, 0.1600000075995922, 0.11200000531971455, 1.008000047877431, 0.0, 0.0, 0.0, 0.0, 0.0, 1.651836216077177E9, 0.0, 2022-05-06 12:23:36.077
43.0, -265.1084182090126, -193.77169650420547, -213.97089616488665, -194.30650219786912, 0.1600000075995922, 0.11200000531971455, 1.008000047877431, 0.0, 0.0, 0.0, 0.0, 0.0, 1.6518362160902753E9, 0.0, 2022-05-06 12:23:36.090
43.0, -290.28168481076136, -203.22242369223386, -202.29866840317845, -207.21663684491068, 0.1600000075995922, 0.11200000531971455, 1.008000047877431, 0.0, 0.0, 0.0, 0.0, 0.0, 1.6518362160902753E9, 0.0, 2022-05-06 12:23:36.090
44.0, -225.69735247595236, -80.0001999521628, -109.92313949763775, -148.23093474376947, 0.1600000075995922, 0.11200000531971455, 1.008000047877431, 0.0, 0.0, 0.0, 0.0, 0.0, 1.6518362161062632E9, 0.0, 2022-05-06 12:23:36.106
44.0, -199.61529018497095, -72.56901874020696, -118.90263929124922, -137.37026527244598, 0.1600000075995922, 0.11200000531971455, 1.008000047877431, 0.0, 0.0, 0.0, 0.0, 0.0, 1.6518362161062632E9, 0.0, 2022-05-06 12:23:36.106
45.0, -260.63923776196316, -197.73599045723677, -213.15185807459056, -193.4949439074844, 0.1600000075995922, 0.11200000531971455, 1.008000047877431, 0.0, 0.0, 0.0, 0.0, 0.0, 1.651836216107226E9, 0.0, 2022-05-06 12:23:36.107
45.0, -272.0758518264629, -181.01863765530288, -185.93286619707942, -186.6434471886605, 0.1600000075995922, 0.11200000531971455, 1.008000047877431, 0.0, 0.0, 0.0, 0.0, 0.0, 1.651836216107226E9, 0.0, 2022-05-06 12:23:36.107
46.0, -218.94309315597638, -71.52558665256947, -109.59028840158135, -152.04563269857317, 0.1600000075995922, 0.11200000531971455, 1.008000047877431, 0.0, 0.0, 0.0, 0.0, 0.0, 1.651836216120273E9, 0.0, 2022-05-06 12:23:36.120
46.0, -197.36013051168993, -69.16944968048483, -115.757383428514, -144.48355498816818, 0.1600000075995922, 0.11200000531971455, 1.008000047877431, 0.0, 0.0, 0.0, 0.0, 0.0, 1.651836216120273E9, 0.0, 2022-05-06 12:23:36.120
47.0, -260.67663676152006, -192.0139435250312, -206.97354334779084, -190.36838754452765, 0.1600000075995922, 0.11200000531971455, 1.008000047877431, 0.0, 0.0, 0.0, 0.0, 0.0, 1.651836216136202E9, 0.0, 2022-05-06 12:23:36.136
47.0, -271.35405113501474, -187.67565957643092, -186.84914168622345, -183.42713322676718, 0.1600000075995922, 0.11200000531971455, 1.008000047877431, 0.0, 0.0, 0.0, 0.0, 0.0, 1.651836216136202E9, 0.0, 2022-05-06 12:23:36.136
48.0, -207.54761799098924, -71.08801835775375, -106.35901483986527, -129.9465638604015, 0.1600000075995922, 0.11200000531971455, 1.008000047877431, 0.0, 0.0, 0.0, 0.0, 0.0, 1.6518362161371405E9, 0.0, 2022-05-06 12:23:36.137
48.0, -204.80253142351285, -75.02987291105092, -129.7259097630158, -152.35604439489543, 0.1600000075995922, 0.11200000531971455, 1.008000047877431, 0.0, 0.0, 0.0, 0.0, 0.0, 1.6518362161371405E9, 0.0, 2022-05-06 12:23:36.137
49.0, -258.9600226818584, -197.18996506370604, -216.52898773457855, -199.65081923455, 0.1600000075995922, 0.11200000531971455, 1.008000047877431, 0.0, 0.0, 0.0, 0.0, 0.0, 1.651836216150284E9, 0.0, 2022-05-06 12:23:36.150
49.0, -279.8249245346524, -190.07293544802815, -198.0912809530273, -200.56335482373834, 0.1600000075995922, 0.11200000531971455, 1.008000047877431, 0.0, 0.0, 0.0, 0.0, 0.0, 1.651836216150284E9, 0.0, 2022-05-06 12:23:36.150
50.0, -215.27799119940028, -64.584332334809, -96.32486325874925, -141.61505172215402, 0.1600000075995922, 0.11200000531971455, 1.008000047877431, 0.0, 0.0, 0.0, 0.0, 0.0, 1.6518362161662252E9, 0.0, 2022-05-06 12:23:36.166
50.0, -193.62023055600002, -65.71752202138305, -110.06899559590966, -129.1387454699725, 0.1600000075995922, 0.11200000531971455, 1.008000047877431, 0.0, 0.0, 0.0, 0.0, 0.0, 1.6518362161662252E9, 0.0, 2022-05-06 12:23:36.166
51.0, -231.74477070430294, -181.78157724626362, -201.36369341425598, -178.6737203830853, 0.1600000075995922, 0.11200000531971455, 1.008000047877431, 0.0, 0.0, 0.0, 0.0, 0.0, 1.6518362161671405E9, 0.0, 2022-05-06 12:23:36.167
51.0, -276.05884527927265, -194.21674459893256, -194.48975729569793, -203.7647091858089, 0.1600000075995922, 0.11200000531971455, 1.008000047877431, 0.0, 0.0, 0.0, 0.0, 0.0, 1.6518362161671405E9, 0.0, 2022-05-06 12:23:36.167
52.0, -239.06375491758808, -82.95472091715783, -116.56520181894302, -156.39139644708484, 0.1600000075995922, 0.11200000531971455, 1.008000047877431, 0.0, 0.0, 0.0, 0.0, 0.0, 1.6518362161972194E9, 0.0, 2022-05-06 12:23:36.197
52.0, -211.13792194845155, -82.58821072150022, -132.62807212863117, -146.97806825861335, 0.1600000075995922, 0.11200000531971455, 1.008000047877431, 0.0, 0.0, 0.0, 0.0, 0.0, 1.6518362161972194E9, 0.0, 2022-05-06 12:23:36.197
53.0, -265.23931470746174, -199.40772573743016, -221.74988807272166, -202.0593148060143, 0.1600000075995922, 0.11200000531971455, 1.008000047877431, 0.0, 0.0, 0.0, 0.0, 0.0, 1.651836216198173E9, 0.0, 2022-05-06 12:23:36.198
53.0, -276.65722927218303, -192.26451682206243, -190.08041524793953, -186.74442448746413, 0.1600000075995922, 0.11200000531971455, 1.008000047877431, 0.0, 0.0, 0.0, 0.0, 0.0, 1.651836216198173E9, 0.0, 2022-05-06 12:23:36.198
54.0, -212.4169677332975, -70.7738667614758, -101.53454389702529, -131.99602903611958, 0.1600000075995922, 0.11200000531971455, 1.008000047877431, 0.0, 0.0, 0.0, 0.0, 0.0, 1.6518362161991284E9, 0.0, 2022-05-06 12:23:36.199
54.0, -204.95212742174044, -77.56552508100867, -127.36603289097548, -151.98205439932644, 0.1600000075995922, 0.11200000531971455, 1.008000047877431, 0.0, 0.0, 0.0, 0.0, 0.0, 1.6518362161991284E9, 0.0, 2022-05-06 12:23:36.199
55.0, -266.27900689514354, -195.574328282848, -214.44960335921496, -199.00381654221565, 0.1600000075995922, 0.11200000531971455, 1.008000047877431, 0.0, 0.0, 0.0, 0.0, 0.0, 1.6518362162101812E9, 0.0, 2022-05-06 12:23:36.210
55.0, -285.3824158688076, -194.20926479902118, -202.7287568980828, -213.52958797011524, 0.1600000075995922, 0.11200000531971455, 1.008000047877431, 0.0, 0.0, 0.0, 0.0, 0.0, 1.6518362162101812E9, 0.0, 2022-05-06 12:23:36.210
56.0, -218.89073455659673, -67.8081260966137, -98.84555582888424, -143.3615850014612, 0.1600000075995922, 0.11200000531971455, 1.008000047877431, 0.0, 0.0, 0.0, 0.0, 0.0, 1.651836216226296E9, 0.0, 2022-05-06 12:23:36.226
56.0, -208.9276410746388, -77.89463627710938, -124.28435532748699, -138.68297015689313, 0.1600000075995922, 0.11200000531971455, 1.008000047877431, 0.0, 0.0, 0.0, 0.0, 0.0, 1.651836216226296E9, 0.0, 2022-05-06 12:23:36.226
57.0, -278.28782565286383, -207.19419744517654, -237.12087689060718, -214.53188115824014, 0.1600000075995922, 0.11200000531971455, 1.008000047877431, 0.0, 0.0, 0.0, 0.0, 0.0, 1.6518362162272425E9, 0.0, 2022-05-06 12:23:36.227
57.0, -289.7506190170534, -204.64358567539603, -207.53078844118863, -208.23762953281403, 0.1600000075995922, 0.11200000531971455, 1.008000047877431, 0.0, 0.0, 0.0, 0.0, 0.0, 1.6518362162272425E9, 0.0, 2022-05-06 12:23:36.227
58.0, -223.603008500766, -71.94819534756243, -106.03738344367594, -146.31610596645623, 0.1600000075995922, 0.11200000531971455, 1.008000047877431, 0.0, 0.0, 0.0, 0.0, 0.0, 1.651836216240213E9, 0.0, 2022-05-06 12:23:36.240
58.0, -214.39163490990177, -90.09045003261417, -136.34927258454263, -151.0022006109357, 0.1600000075995922, 0.11200000531971455, 1.008000047877431, 0.0, 0.0, 0.0, 0.0, 0.0, 1.651836216240213E9, 0.0, 2022-05-06 12:23:36.240
59.0, -274.35719079943374, -202.03687540628016, -223.86293154768646, -205.34294696711004, 0.1600000075995922, 0.11200000531971455, 1.008000047877431, 0.0, 0.0, 0.0, 0.0, 0.0, 1.6518362162562096E9, 0.0, 2022-05-06 12:23:36.256
59.0, -277.95123465685174, -195.27139638643712, -198.97015744261444, -191.123847335577, 0.1600000075995922, 0.11200000531971455, 1.008000047877431, 0.0, 0.0, 0.0, 0.0, 0.0, 1.6518362162562096E9, 0.0, 2022-05-06 12:23:36.256
60.0, -201.9714271570556, -74.56612531654537, -109.41825300361961, -149.7343745259568, 0.1600000075995922, 0.11200000531971455, 1.008000047877431, 0.0, 0.0, 0.0, 0.0, 0.0, 1.65183621625722E9, 0.0, 2022-05-06 12:23:36.257
60.0, -222.312743016053, -85.72598678432405, -131.689357239753, -160.16495550237596, 0.1600000075995922, 0.11200000531971455, 1.008000047877431, 0.0, 0.0, 0.0, 0.0, 0.0, 1.65183621625722E9, 0.0, 2022-05-06 12:23:36.257
61.0, -293.2362057757564, -209.12398582231253, -231.57834515627474, -209.20252372138202, 0.1600000075995922, 0.11200000531971455, 1.008000047877431, 0.0, 0.0, 0.0, 0.0, 0.0, 1.6518362162702165E9, 0.0, 2022-05-06 12:23:36.270
61.0, -295.4913654490374, -195.26765648648143, -206.730449850671, -210.59750640485436, 0.1600000075995922, 0.11200000531971455, 1.008000047877431, 0.0, 0.0, 0.0, 0.0, 0.0, 1.6518362162702165E9, 0.0, 2022-05-06 12:23:36.270
62.0, -248.08065371075645, -98.41172743402421, -131.01991514768451, -172.7833779528737, 0.1600000075995922, 0.11200000531971455, 1.008000047877431, 0.0, 0.0, 0.0, 0.0, 0.0, 1.6518362162862852E9, 0.0, 2022-05-06 12:23:36.286
62.0, -212.7909577288665, -85.98777978122234, -125.14453231729567, -145.0295803816989, 0.1600000075995922, 0.11200000531971455, 1.008000047877431, 0.0, 0.0, 0.0, 0.0, 0.0, 1.6518362162862852E9, 0.0, 2022-05-06 12:23:36.286
63.0, -267.20276218419895, -192.40289312042296, -209.4381374185905, -176.96458610333502, 0.1600000075995922, 0.11200000531971455, 1.008000047877431, 0.0, 0.0, 0.0, 0.0, 0.0, 1.6518362162871726E9, 0.0, 2022-05-06 12:23:36.287
63.0, -291.7589452932589, -197.15256606414914, -205.51872226502746, -206.04604815877974, 0.1600000075995922, 0.11200000531971455, 1.008000047877431, 0.0, 0.0, 0.0, 0.0, 0.0, 1.6518362162871726E9, 0.0, 2022-05-06 12:23:36.287
64.0, -229.66912622889504, -81.5597382336855, -119.70671778172255, -160.9690339928493, 0.1600000075995922, 0.11200000531971455, 1.008000047877431, 0.0, 0.0, 0.0, 0.0, 0.0, 1.6518362163002667E9, 0.0, 2022-05-06 12:23:36.300
64.0, -227.5299034542404, -98.88295482844114, -142.04140031710267, -167.34556341730058, 0.1600000075995922, 0.11200000531971455, 1.008000047877431, 0.0, 0.0, 0.0, 0.0, 0.0, 1.6518362163002667E9, 0.0, 2022-05-06 12:23:36.300
65.0, -269.9141896520741, -196.056775377132, -218.2194225145504, -195.49205048382282, 0.1600000075995922, 0.11200000531971455, 1.008000047877431, 0.0, 0.0, 0.0, 0.0, 0.0, 1.6518362163162177E9, 0.0, 2022-05-06 12:23:36.316
65.0, -284.51101917913184, -190.96303163748235, -199.0935741411522, -202.82225439697504, 0.1600000075995922, 0.11200000531971455, 1.008000047877431, 0.0, 0.0, 0.0, 0.0, 0.0, 1.6518362163162177E9, 0.0, 2022-05-06 12:23:36.316
