%OpenBCI Raw EEG Data
%Number of channels = 4
%Sample Rate = 200 Hz
%Board = OpenBCI_GUI$BoardGanglionBLE
Sample Index, EXG Channel 0, EXG Channel 1, EXG Channel 2, EXG Channel 3, Accel Channel 0, Accel Channel 1, Accel Channel 2, Other, Other, Other, Other, Other, Timestamp, Other, Timestamp (Formatted)
0.0, -260.29329701606184, -191.31645218329504, -207.13996889581904, -188.15062687080353, 0.0, 0.0, 0.0, 0.0, 0.0, 0.0, 0.0, 0.0, 1.6518362380681071E9, 0.0, 2022-05-06 12:23:58.068
1.0, -280.9412846714258, -221.37028822721913, -222.21924551716074, -216.24475533794612, 0.0, 0.11200000531971455, 0.0, 0.0, 0.0, 0.0, 0.0, 0.0, 1.6518362380811236E9, 0.0, 2022-05-06 12:23:58.081
1.0, -247.6748745655641, -91.44242386659607, -125.50917256297544, -163.24289316590875, 0.0, 0.11200000531971455, 0.0, 0.0, 0.0, 0.0, 0.0, 0.0, 1.6518362380811236E9, 0.0, 2022-05-06 12:23:58.081
2.0, -215.48929554689676, -61.02955742692575, -110.99088093498722, -140.44820293597877, 0.1600000075995922, 0.11200000531971455, 0.0, 0.0, 0.0, 0.0, 0.0, 0.0, 1.651836238098092E9, 0.0, 2022-05-06 12:23:58.098
2.0, -263.03838358353823, -196.28677922440693, -208.5947899785824, -197.28720246255398, 0.1600000075995922, 0.11200000531971455, 0.0, 0.0, 0.0, 0.0, 0.0, 0.0, 1.651836238098092E9, 0.0, 2022-05-06 12:23:58.098
3.0, -299.26679445430636, -230.0206768247299, -229.3175756330602, -213.44357027113438, 0.1600000075995922, 0.11200000531971455, 0.0, 0.0, 0.0, 0.0, 0.0, 0.0, 1.6518362380990925E9, 0.0, 2022-05-06 12:23:58.099
3.0, -220.14921089168638, -82.62373977107927, -114.79061928996816, -137.8826315663755, 0.1600000075995922, 0.11200000531971455, 0.0, 0.0, 0.0, 0.0, 0.0, 0.0, 1.6518362380990925E9, 0.0, 2022-05-06 12:23:58.099
4.0, -205.71319706272334, -50.82711034780368, -96.57356660580263, -120.64169277064502, 0.1600000075995922, 0.11200000531971455, 0.0, 0.0, 0.0, 0.0, 0.0, 0.0, 1.65183623811125E9, 0.0, 2022-05-06 12:23:58.111
4.0, -257.6716271471232, -183.26070767873898, -203.0447784443386, -190.36090774461627, 0.1600000075995922, 0.11200000531971455, 0.0, 0.0, 0.0, 0.0, 0.0, 0.0, 1.65183623811125E9, 0.0, 2022-05-06 12:23:58.111
5.0, -298.7619079602882, -222.36510161543265, -227.7243782519363, -224.79416663665324, 0.1600000075995922, 0.11200000531971455, 0.0, 0.0, 0.0, 0.0, 0.0, 0.0, 1.6518362381262443E9, 0.0, 2022-05-06 12:23:58.126
5.0, -245.8610230870545, -100.85201215511188, -140.66324718343094, -175.95855301525444, 0.1600000075995922, 0.11200000531971455, 0.0, 0.0, 0.0, 0.0, 0.0, 0.0, 1.6518362381262443E9, 0.0, 2022-05-06 12:23:58.126
6.0, -215.79596734326333, -65.03499027946964, -115.87519027711824, -151.86611750070006, 0.1600000075995922, 0.11200000531971455, 0.0, 0.0, 0.0, 0.0, 0.0, 0.0, 1.65183623812718E9, 0.0, 2022-05-06 12:23:58.127
6.0, -249.88515543937683, -186.4396226410754, -194.58138484461233, -173.01899165008217, 0.1600000075995922, 0.11200000531971455, 0.0, 0.0, 0.0, 0.0, 0.0, 0.0, 1.65183623812718E9, 0.0, 2022-05-06 12:23:58.127
7.0, -308.05929925013334, -226.77070376323536, -226.8268022625707, -209.68123091571033, 0.1600000075995922, 0.11200000531971455, 0.0, 0.0, 0.0, 0.0, 0.0, 0.0, 1.6518362381411555E9, 0.0, 2022-05-06 12:23:58.141
7.0, -241.08517084363848, -86.9882030193694, -130.0456712092273, -171.83344336412847, 0.1600000075995922, 0.11200000531971455, 0.0, 0.0, 0.0, 0.0, 0.0, 0.0, 1.6518362381411555E9, 0.0, 2022-05-06 12:23:58.141
8.0, -197.66493235807866, -55.898414687719196, -103.34652542555705, -136.93643687758595, 0.1600000075995922, 0.11200000531971455, 0.0, 0.0, 0.0, 0.0, 0.0, 0.0, 1.6518362381562057E9, 0.0, 2022-05-06 12:23:58.156
8.0, -260.36061521526426, -194.19617514917627, -209.71675996528938, -196.12035367637873, 0.1600000075995922, 0.11200000531971455, 0.0, 0.0, 0.0, 0.0, 0.0, 0.0, 1.6518362381562057E9, 0.0, 2022-05-06 12:23:58.156
9.0, -287.9124581888318, -226.76696386327967, -230.91825281409547, -214.88717165403068, 0.1600000075995922, 0.11200000531971455, 0.0, 0.0, 0.0, 0.0, 0.0, 0.0, 1.6518362381570776E9, 0.0, 2022-05-06 12:23:58.157
9.0, -243.13089611940086, -80.04694870160893, -121.58975740941241, -157.28149263653904, 0.1600000075995922, 0.11200000531971455, 0.0, 0.0, 0.0, 0.0, 0.0, 0.0, 1.6518362381570776E9, 0.0, 2022-05-06 12:23:58.157
10.0, -214.08683306351304, -60.92484022816643, -109.31166585488245, -143.6233779983595, 0.1600000075995922, 0.11200000531971455, 1.008000047877431, 0.0, 0.0, 0.0, 0.0, 0.0, 1.651836238171134E9, 0.0, 2022-05-06 12:23:58.171
10.0, -265.66005345247686, -188.5938050155528, -209.24927247082815, -188.3825006680563, 0.1600000075995922, 0.11200000531971455, 1.008000047877431, 0.0, 0.0, 0.0, 0.0, 0.0, 1.651836238171134E9, 0.0, 2022-05-06 12:23:58.171
11.0, -283.03562864661217, -207.49899929156527, -212.98169262660667, -202.36972650233656, 0.1600000075995922, 0.06400000303983688, 1.008000047877431, 0.0, 0.0, 0.0, 0.0, 0.0, 1.6518362381861365E9, 0.0, 2022-05-06 12:23:58.186
11.0, -215.75856834370643, -75.23369745863602, -100.12647156370804, -119.82265468034893, 0.1600000075995922, 0.06400000303983688, 1.008000047877431, 0.0, 0.0, 0.0, 0.0, 0.0, 1.6518362381861365E9, 0.0, 2022-05-06 12:23:58.186
12.0, -207.63924553990364, -66.08964206697419, -112.3709040186368, -139.5842860462144, 0.0800000037997961, 0.06400000303983688, 1.008000047877431, 0.0, 0.0, 0.0, 0.0, 0.0, 1.6518362381871088E9, 0.0, 2022-05-06 12:23:58.187
12.0, -260.14370101783425, -184.76414746092632, -210.40864145709202, -210.18985730968416, 0.0800000037997961, 0.06400000303983688, 1.008000047877431, 0.0, 0.0, 0.0, 0.0, 0.0, 1.6518362381871088E9, 0.0, 2022-05-06 12:23:58.187
13.0, -274.3254016498104, -191.27531328378245, -206.56776420259848, -204.21723708044738, 0.0800000037997961, 0.06400000303983688, 1.008000047877431, 0.0, 0.0, 0.0, 0.0, 0.0, 1.651836238201242E9, 0.0, 2022-05-06 12:23:58.201
13.0, -234.76473991852254, -87.08170051826164, -116.39503637095913, -149.28184663131833, 0.0800000037997961, 0.06400000303983688, 1.008000047877431, 0.0, 0.0, 0.0, 0.0, 0.0, 1.651836238201242E9, 0.0, 2022-05-06 12:23:58.201
14.0, -208.05063453502953, -88.5440014009364, -117.87229685345665, -139.8049401436001, 0.0800000037997961, 0.06400000303983688, 1.008000047877431, 0.0, 0.0, 0.0, 0.0, 0.0, 1.6518362382331908E9, 0.0, 2022-05-06 12:23:58.233
14.0, -274.84898764360696, -190.6283105914481, -213.85308931628242, -198.9103190433234, 0.0800000037997961, 0.06400000303983688, 1.008000047877431, 0.0, 0.0, 0.0, 0.0, 0.0, 1.6518362382331908E9, 0.0, 2022-05-06 12:23:58.233
15.0, -288.7240164792165, -190.7031085905619, -208.51625207951292, -205.4327045660466, 0.0800000037997961, 0.06400000303983688, 1.008000047877431, 0.0, 0.0, 0.0, 0.0, 0.0, 1.6518362382342248E9, 0.0, 2022-05-06 12:23:58.234
15.0, -228.36203119438142, -83.16602526465431, -115.93876857636496, -146.8097727606073, 0.0800000037997961, 0.06400000303983688, 1.008000047877431, 0.0, 0.0, 0.0, 0.0, 0.0, 1.6518362382342248E9, 0.0, 2022-05-06 12:23:58.234
16.0, -221.7723274724558, -91.19559046952054, -132.33448998210952, -152.93946878798306, 0.0800000037997961, 0.06400000303983688, 1.008000047877431, 0.0, 0.0, 0.0, 0.0, 0.0, 1.6518362382352085E9, 0.0, 2022-05-06 12:23:58.235
16.0, -265.4206998553127, -192.6702959672548, -218.9056941564195, -199.14593274053186, 0.0800000037997961, 0.06400000303983688, 1.008000047877431, 0.0, 0.0, 0.0, 0.0, 0.0, 1.6518362382352085E9, 0.0, 2022-05-06 12:23:58.235
17.0, -266.2060788460076, -185.07829905720428, -200.50538637442514, -198.67470534611493, 0.0800000037997961, 0.06400000303983688, 1.008000047877431, 0.0, 0.0, 0.0, 0.0, 0.0, 1.6518362382360947E9, 0.0, 2022-05-06 12:23:58.236
17.0, -235.43044211063534, -92.25772205693647, -130.1877874075435, -163.73282006010413, 0.0800000037997961, 0.06400000303983688, 1.008000047877431, 0.0, 0.0, 0.0, 0.0, 0.0, 1.6518362382360947E9, 0.0, 2022-05-06 12:23:58.236
18.0, -232.67413584329188, -100.04419376468286, -135.10575584927574, -160.82317789457738, 0.0800000037997961, 0.06400000303983688, 1.008000047877431, 0.0, 0.0, 0.0, 0.0, 0.0, 1.6518362382461495E9, 0.0, 2022-05-06 12:23:58.246
18.0, -259.4518195260316, -181.4767753998749, -201.57499776175246, -171.96433986257762, 0.0800000037997961, 0.06400000303983688, 1.008000047877431, 0.0, 0.0, 0.0, 0.0, 0.0, 1.6518362382461495E9, 0.0, 2022-05-06 12:23:58.246
19.0, -280.0287490822375, -197.23671381315216, -218.65138095943257, -212.3552593840286, 0.0800000037997961, 0.06400000303983688, 1.008000047877431, 0.0, 0.0, 0.0, 0.0, 0.0, 1.6518362382612412E9, 0.0, 2022-05-06 12:23:58.261
19.0, -238.75521317124367, -97.07845309982076, -128.55345112690702, -170.9283875748515, 0.0800000037997961, 0.06400000303983688, 1.008000047877431, 0.0, 0.0, 0.0, 0.0, 0.0, 1.6518362382612412E9, 0.0, 2022-05-06 12:23:58.261
20.0, -217.52006122283638, -92.80748735042289, -131.13772199628875, -155.82667155377567, 0.0800000037997961, 0.06400000303983688, 0.5120000243186951, 0.0, 0.0, 0.0, 0.0, 0.0, 1.6518362382761996E9, 0.0, 2022-05-06 12:23:58.276
20.0, -250.4536202326417, -179.11689852783456, -201.47028056299314, -178.69241988286376, 0.0800000037997961, 0.06400000303983688, 0.5120000243186951, 0.0, 0.0, 0.0, 0.0, 0.0, 1.6518362382761996E9, 0.0, 2022-05-06 12:23:58.276
21.0, -275.48851053602993, -184.60333176283166, -204.5930970259942, -201.64418591093272, 0.0800000037997961, 0.0800000037997961, 0.5120000243186951, 0.0, 0.0, 0.0, 0.0, 0.0, 1.6518362382771149E9, 0.0, 2022-05-06 12:23:58.277
21.0, -231.9598149517551, -89.74824918666855, -121.91512870555744, -154.76453996635973, 0.0800000037997961, 0.0800000037997961, 0.5120000243186951, 0.0, 0.0, 0.0, 0.0, 0.0, 1.6518362382771149E9, 0.0, 2022-05-06 12:23:58.277
22.0, -205.70571726281196, -78.07976132491603, -113.73222760250792, -136.48390898294747, 0.12800000607967377, 0.0800000037997961, 0.5120000243186951, 0.0, 0.0, 0.0, 0.0, 0.0, 1.6518362382911825E9, 0.0, 2022-05-06 12:23:58.291
22.0, -235.63613660819829, -178.1033856398426, -203.50478613888845, -186.48637139052153, 0.12800000607967377, 0.0800000037997961, 0.5120000243186951, 0.0, 0.0, 0.0, 0.0, 0.0, 1.6518362382911825E9, 0.0, 2022-05-06 12:23:58.291
23.0, -292.5424543339759, -194.94415514031425, -205.8235241114162, -198.30819515045732, 0.12800000607967377, 0.0800000037997961, 0.5120000243186951, 0.0, 0.0, 0.0, 0.0, 0.0, 1.6518362383061588E9, 0.0, 2022-05-06 12:23:58.306
23.0, -230.12352407351136, -88.79083479801193, -116.75406676670536, -147.42311635334045, 0.12800000607967377, 0.0800000037997961, 0.5120000243186951, 0.0, 0.0, 0.0, 0.0, 0.0, 1.6518362383061588E9, 0.0, 2022-05-06 12:23:58.306
24.0, -226.04329322185367, -96.33047310868278, -138.98777200328186, -165.38959574047476, 0.12800000607967377, 0.0800000037997961, 0.5120000243186951, 0.0, 0.0, 0.0, 0.0, 0.0, 1.651836238307098E9, 0.0, 2022-05-06 12:23:58.307
24.0, -259.410680626519, -190.85644448874518, -214.28317781118676, -200.03228903003037, 0.12800000607967377, 0.0800000037997961, 0.5120000243186951, 0.0, 0.0, 0.0, 0.0, 0.0, 1.651836238307098E9, 0.0, 2022-05-06 12:23:58.307
25.0, -281.4349514655769, -195.28074613632634, -206.7846784000285, -200.7279104217887, 0.12800000607967377, 0.0800000037997961, 0.5120000243186951, 0.0, 0.0, 0.0, 0.0, 0.0, 1.6518362383211355E9, 0.0, 2022-05-06 12:23:58.321
25.0, -240.1090569552034, -89.766948686447, -120.46030762279406, -164.39478235226125, 0.12800000607967377, 0.0800000037997961, 0.5120000243186951, 0.0, 0.0, 0.0, 0.0, 0.0, 1.6518362383211355E9, 0.0, 2022-05-06 12:23:58.321
26.0, -212.0224082879722, -94.56524032959715, -123.64670238504186, -154.9290955644101, 0.12800000607967377, 0.0800000037997961, 0.5120000243186951, 0.0, 0.0, 0.0, 0.0, 0.0, 1.651836238336168E9, 0.0, 2022-05-06 12:23:58.336
26.0, -247.71975336503237, -185.87489774776623, -207.81315088784322, -184.9043937092647, 0.12800000607967377, 0.0800000037997961, 0.5120000243186951, 0.0, 0.0, 0.0, 0.0, 0.0, 1.651836238336168E9, 0.0, 2022-05-06 12:23:58.336
27.0, -281.55836816411465, -182.1761366915889, -201.02897236822173, -197.06654836516827, 0.12800000607967377, 0.0800000037997961, 0.5120000243186951, 0.0, 0.0, 0.0, 0.0, 0.0, 1.6518362383371563E9, 0.0, 2022-05-06 12:23:58.337
27.0, -233.06308543868363, -85.16313184099272, -116.86252386542037, -151.854897800833, 0.12800000607967377, 0.0800000037997961, 0.5120000243186951, 0.0, 0.0, 0.0, 0.0, 0.0, 1.6518362383371563E9, 0.0, 2022-05-06 12:23:58.337
28.0, -223.15983035601676, -96.05746041191742, -135.2291725478135, -162.24059997778386, 0.12800000607967377, 0.0800000037997961, 0.5120000243186951, 0.0, 0.0, 0.0, 0.0, 0.0, 1.6518362383512032E9, 0.0, 2022-05-06 12:23:58.351
28.0, -256.1644474649802, -183.26070767873898, -202.97746024513617, -183.05688313115388, 0.12800000607967377, 0.0800000037997961, 0.5120000243186951, 0.0, 0.0, 0.0, 0.0, 0.0, 1.6518362383512032E9, 0.0, 2022-05-06 12:23:58.351
29.0, -263.3861942794174, -173.97453608876094, -193.35843755910173, -167.65597511362284, 0.12800000607967377, 0.0800000037997961, 0.5120000243186951, 0.0, 0.0, 0.0, 0.0, 0.0, 1.6518362383661551E9, 0.0, 2022-05-06 12:23:58.366
29.0, -245.3785759927705, -98.03960738843307, -135.02347805025056, -177.94817979168147, 0.12800000607967377, 0.0800000037997961, 0.5120000243186951, 0.0, 0.0, 0.0, 0.0, 0.0, 1.6518362383661551E9, 0.0, 2022-05-06 12:23:58.366
30.0, -222.0640396689996, -98.03212758852169, -134.2717581591569, -166.16375503130257, 0.12800000607967377, 0.0800000037997961, 0.7680000364780426, 0.0, 0.0, 0.0, 0.0, 0.0, 1.6518362383671186E9, 0.0, 2022-05-06 12:23:58.367
30.0, -263.61806807667017, -191.08831828599796, -214.8628623043187, -200.88498621992767, 0.12800000607967377, 0.0800000037997961, 0.7680000364780426, 0.0, 0.0, 0.0, 0.0, 0.0, 1.6518362383671186E9, 0.0, 2022-05-06 12:23:58.367
31.0, -276.40478602517396, -190.50115399295464, -197.1843552137725, -178.87567498069257, 0.12800000607967377, 0.09600000455975533, 0.7680000364780426, 0.0, 0.0, 0.0, 0.0, 0.0, 1.6518362383811495E9, 0.0, 2022-05-06 12:23:58.381
31.0, -222.78584036044776, -84.71434384630993, -118.87085014162585, -156.42131564673036, 0.12800000607967377, 0.09600000455975533, 0.7680000364780426, 0.0, 0.0, 0.0, 0.0, 0.0, 1.6518362383811495E9, 0.0, 2022-05-06 12:23:58.381
32.0, -198.82056144438684, -90.03248158330098, -134.342816258315, -162.68190817255527, 0.144000006839633, 0.09600000455975533, 0.7680000364780426, 0.0, 0.0, 0.0, 0.0, 0.0, 1.6518362383961656E9, 0.0, 2022-05-06 12:23:58.396
32.0, -265.8732277499512, -185.60188505100086, -209.45870686834678, -193.7230778047815, 0.144000006839633, 0.09600000455975533, 0.7680000364780426, 0.0, 0.0, 0.0, 0.0, 0.0, 1.6518362383961656E9, 0.0, 2022-05-06 12:23:58.396
33.0, -282.4970830529928, -189.8130124011077, -204.20414743060246, -197.28720246255398, 0.144000006839633, 0.09600000455975533, 0.7680000364780426, 0.0, 0.0, 0.0, 0.0, 0.0, 1.6518362383971632E9, 0.0, 2022-05-06 12:23:58.397
33.0, -226.49208121653646, -83.3156212628819, -114.8878566888161, -152.15408979728818, 0.144000006839633, 0.09600000455975533, 0.7680000364780426, 0.0, 0.0, 0.0, 0.0, 0.0, 1.6518362383971632E9, 0.0, 2022-05-06 12:23:58.397
34.0, -220.67653678543866, -89.18726419331506, -123.66540188482031, -144.02354729361832, 0.144000006839633, 0.09600000455975533, 0.7680000364780426, 0.0, 0.0, 0.0, 0.0, 0.0, 1.6518362384111972E9, 0.0, 2022-05-06 12:23:58.411
34.0, -257.02462445478886, -182.59500548662618, -208.65836827782914, -192.51509011909366, 0.144000006839633, 0.09600000455975533, 0.7680000364780426, 0.0, 0.0, 0.0, 0.0, 0.0, 1.6518362384111972E9, 0.0, 2022-05-06 12:23:58.411
35.0, -278.44677140098065, -192.01207357505336, -208.58357027871534, -207.78884153813124, 0.144000006839633, 0.09600000455975533, 0.7680000364780426, 0.0, 0.0, 0.0, 0.0, 0.0, 1.6518362384262033E9, 0.0, 2022-05-06 12:23:58.426
35.0, -234.21497462503612, -93.74246233934537, -126.09633685601875, -166.16749493125826, 0.144000006839633, 0.09600000455975533, 0.7680000364780426, 0.0, 0.0, 0.0, 0.0, 0.0, 1.6518362384262033E9, 0.0, 2022-05-06 12:23:58.426
36.0, -216.18491693865508, -103.11091172834858, -137.47311252122745, -167.0052325213328, 0.144000006839633, 0.09600000455975533, 0.7680000364780426, 0.0, 0.0, 0.0, 0.0, 0.0, 1.6518362384271111E9, 0.0, 2022-05-06 12:23:58.427
36.0, -257.9670792436227, -188.64616361493245, -210.25530555890873, -190.11033444758505, 0.144000006839633, 0.09600000455975533, 0.7680000364780426, 0.0, 0.0, 0.0, 0.0, 0.0, 1.6518362384271111E9, 0.0, 2022-05-06 12:23:58.427
37.0, -265.92184644937515, -182.2920735902153, -198.50079999817535, -190.82465533912182, 0.144000006839633, 0.09600000455975533, 0.7680000364780426, 0.0, 0.0, 0.0, 0.0, 0.0, 1.6518362384411447E9, 0.0, 2022-05-06 12:23:58.441
37.0, -232.1468099495396, -81.3147747865878, -118.34352424787357, -155.1086107622832, 0.144000006839633, 0.09600000455975533, 0.7680000364780426, 0.0, 0.0, 0.0, 0.0, 0.0, 1.6518362384411447E9, 0.0, 2022-05-06 12:23:58.441
38.0, -212.96486307680607, -89.10498639428988, -115.85649077733979, -143.55979969911277, 0.144000006839633, 0.09600000455975533, 0.7680000364780426, 0.0, 0.0, 0.0, 0.0, 0.0, 1.651836238456217E9, 0.0, 2022-05-06 12:23:58.456
38.0, -255.14719467703253, -176.33441296080127, -194.94415514031425, -165.0417850445956, 0.144000006839633, 0.09600000455975533, 0.7680000364780426, 0.0, 0.0, 0.0, 0.0, 0.0, 1.651836238456217E9, 0.0, 2022-05-06 12:23:58.456
39.0, -281.29283526726067, -187.56159262778237, -197.28533251257613, -195.93335867859423, 0.144000006839633, 0.09600000455975533, 0.7680000364780426, 0.0, 0.0, 0.0, 0.0, 0.0, 1.6518362384571033E9, 0.0, 2022-05-06 12:23:58.457
39.0, -229.2184682842344, -90.08858008263633, -116.51097326958552, -162.36775657627732, 0.144000006839633, 0.09600000455975533, 0.7680000364780426, 0.0, 0.0, 0.0, 0.0, 0.0, 1.6518362384571033E9, 0.0, 2022-05-06 12:23:58.457
40.0, -215.582793045789, -89.71832998702303, -127.90270853461698, -153.1115041859448, 0.144000006839633, 0.09600000455975533, 0.8960000425577164, 0.0, 0.0, 0.0, 0.0, 0.0, 1.6518362384712048E9, 0.0, 2022-05-06 12:23:58.471
40.0, -261.4227468026802, -193.82218515360728, -217.59298927197233, -205.79173496179283, 0.144000006839633, 0.09600000455975533, 0.8960000425577164, 0.0, 0.0, 0.0, 0.0, 0.0, 1.6518362384712048E9, 0.0, 2022-05-06 12:23:58.471
41.0, -269.15312001109123, -185.59440525108948, -202.36411665240303, -191.21734483446926, 0.144000006839633, 0.11200000531971455, 0.8960000425577164, 0.0, 0.0, 0.0, 0.0, 0.0, 1.6518362384861414E9, 0.0, 2022-05-06 12:23:58.486
41.0, -226.0358134219423, -86.86478632083163, -124.86590977059677, -163.4074487639591, 0.144000006839633, 0.11200000531971455, 0.8960000425577164, 0.0, 0.0, 0.0, 0.0, 0.0, 1.6518362384861414E9, 0.0, 2022-05-06 12:23:58.486
42.0, -232.09819125011563, -99.25507487403229, -139.2346054003574, -178.7522582821548, 0.1600000075995922, 0.11200000531971455, 0.8960000425577164, 0.0, 0.0, 0.0, 0.0, 0.0, 1.6518362384871476E9, 0.0, 2022-05-06 12:23:58.487
42.0, -262.5671561891213, -199.54797198576853, -220.96637903200462, -206.85760644916445, 0.1600000075995922, 0.11200000531971455, 0.8960000425577164, 0.0, 0.0, 0.0, 0.0, 0.0, 1.6518362384871476E9, 0.0, 2022-05-06 12:23:58.487
43.0, -285.8405536133796, -205.94694080995396, -215.9025544920005, -205.23822976835072, 0.1600000075995922, 0.11200000531971455, 0.8960000425577164, 0.0, 0.0, 0.0, 0.0, 0.0, 1.6518362385012014E9, 0.0, 2022-05-06 12:23:58.501
43.0, -236.3354978999123, -105.87843769555911, -136.37358193425462, -170.24398588296026, 0.1600000075995922, 0.11200000531971455, 0.8960000425577164, 0.0, 0.0, 0.0, 0.0, 0.0, 1.6518362385012014E9, 0.0, 2022-05-06 12:23:58.501
44.0, -219.71538249682635, -87.1340591176413, -126.7059405487962, -148.3319120425731, 0.1600000075995922, 0.11200000531971455, 0.8960000425577164, 0.0, 0.0, 0.0, 0.0, 0.0, 1.6518362385161636E9, 0.0, 2022-05-06 12:23:58.516
44.0, -253.75969179347157, -181.33465920155868, -203.98349333321676, -179.51145797315985, 0.1600000075995922, 0.11200000531971455, 0.8960000425577164, 0.0, 0.0, 0.0, 0.0, 0.0, 1.6518362385161636E9, 0.0, 2022-05-06 12:23:58.516
45.0, -258.84969563316554, -169.79332793829963, -188.64990351488814, -186.84540178626776, 0.1600000075995922, 0.11200000531971455, 0.8960000425577164, 0.0, 0.0, 0.0, 0.0, 0.0, 1.651836238517102E9, 0.0, 2022-05-06 12:23:58.517
45.0, -229.6298572793603, -80.23768359934911, -106.12527109263465, -149.4015234299004, 0.1600000075995922, 0.11200000531971455, 0.8960000425577164, 0.0, 0.0, 0.0, 0.0, 0.0, 1.651836238517102E9, 0.0, 2022-05-06 12:23:58.517
46.0, -213.45105007104576, -87.5043092132546, -121.87772970600054, -151.6230240035802, 0.1600000075995922, 0.11200000531971455, 0.8960000425577164, 0.0, 0.0, 0.0, 0.0, 0.0, 1.65183623853118E9, 0.0, 2022-05-06 12:23:58.531
46.0, -257.3836548505351, -186.5518196397461, -211.35857604583725, -190.74985734000802, 0.1600000075995922, 0.11200000531971455, 0.8960000425577164, 0.0, 0.0, 0.0, 0.0, 0.0, 1.65183623853118E9, 0.0, 2022-05-06 12:23:58.531
47.0, -270.4546051956713, -180.47448221175, -200.12391657894477, -194.96846449002624, 0.1600000075995922, 0.11200000531971455, 0.8960000425577164, 0.0, 0.0, 0.0, 0.0, 0.0, 1.6518362385461788E9, 0.0, 2022-05-06 12:23:58.546
47.0, -241.32078454084694, -91.47982286615297, -125.41567506408319, -166.05903783254325, 0.1600000075995922, 0.11200000531971455, 0.8960000425577164, 0.0, 0.0, 0.0, 0.0, 0.0, 1.6518362385461788E9, 0.0, 2022-05-06 12:23:58.546
48.0, -209.90188501309603, -88.57392060058191, -130.0830702087842, -157.69662153162062, 0.1600000075995922, 0.11200000531971455, 0.8960000425577164, 0.0, 0.0, 0.0, 0.0, 0.0, 1.65183623854712E9, 0.0, 2022-05-06 12:23:58.547
48.0, -239.47327396273613, -177.362885448616, -199.892042781692, -180.43521326221526, 0.1600000075995922, 0.11200000531971455, 0.8960000425577164, 0.0, 0.0, 0.0, 0.0, 0.0, 1.65183623854712E9, 0.0, 2022-05-06 12:23:58.547
49.0, -256.7553516579792, -167.75508246244863, -171.90637141326442, -157.41986893489957, 0.1600000075995922, 0.11200000531971455, 0.8960000425577164, 0.0, 0.0, 0.0, 0.0, 0.0, 1.6518362385611637E9, 0.0, 2022-05-06 12:23:58.561
49.0, -224.61465143878013, -82.71349737001583, -120.22843382554129, -154.6336434679106, 0.1600000075995922, 0.11200000531971455, 0.8960000425577164, 0.0, 0.0, 0.0, 0.0, 0.0, 1.6518362385611637E9, 0.0, 2022-05-06 12:23:58.561
50.0, -211.3641858957708, -87.91569820838049, -125.86072315881029, -159.5590917095542, 0.1600000075995922, 0.11200000531971455, 0.9600000455975533, 0.0, 0.0, 0.0, 0.0, 0.0, 1.6518362385761354E9, 0.0, 2022-05-06 12:23:58.576
50.0, -260.2820773161948, -183.27566727856174, -207.80567108793184, -202.92697159573436, 0.1600000075995922, 0.11200000531971455, 0.9600000455975533, 0.0, 0.0, 0.0, 0.0, 0.0, 1.6518362385761354E9, 0.0, 2022-05-06 12:23:58.576
51.0, -279.5089029883966, -193.0704652625136, -209.4138280688785, -202.77363569755107, 0.1600000075995922, 0.11200000531971455, 0.9600000455975533, 0.0, 0.0, 0.0, 0.0, 0.0, 1.651836238577158E9, 0.0, 2022-05-06 12:23:58.577
51.0, -230.74808736611158, -95.42167741945013, -122.92116179363802, -159.18136181402951, 0.1600000075995922, 0.11200000531971455, 0.9600000455975533, 0.0, 0.0, 0.0, 0.0, 0.0, 1.651836238577158E9, 0.0, 2022-05-06 12:23:58.577
52.0, -208.3161674318835, -98.72026918036863, -132.7159597775899, -148.41418984159827, 0.1600000075995922, 0.11200000531971455, 0.9600000455975533, 0.0, 0.0, 0.0, 0.0, 0.0, 1.6518362385911627E9, 0.0, 2022-05-06 12:23:58.591
52.0, -264.7101188637316, -185.75148104922846, -209.8252170640044, -196.12409357633442, 0.1600000075995922, 0.11200000531971455, 0.9600000455975533, 0.0, 0.0, 0.0, 0.0, 0.0, 1.6518362385911627E9, 0.0, 2022-05-06 12:23:58.591
53.0, -281.5471484642476, -190.65074999118224, -208.07494388474151, -202.14159260503948, 0.1600000075995922, 0.11200000531971455, 0.9600000455975533, 0.0, 0.0, 0.0, 0.0, 0.0, 1.6518362386061752E9, 0.0, 2022-05-06 12:23:58.606
53.0, -220.97572878189385, -89.3555596913211, -121.84407060639933, -163.4859866630286, 0.1600000075995922, 0.11200000531971455, 0.9600000455975533, 0.0, 0.0, 0.0, 0.0, 0.0, 1.6518362386061752E9, 0.0, 2022-05-06 12:23:58.606
54.0, -214.71887615602463, -96.30055390903726, -123.68410138459876, -150.97602131124586, 0.1600000075995922, 0.11200000531971455, 0.9600000455975533, 0.0, 0.0, 0.0, 0.0, 0.0, 1.6518362386071107E9, 0.0, 2022-05-06 12:23:58.607
54.0, -252.0804767133668, -180.85595200723037, -197.35265071177855, -170.2252863831818, 0.1600000075995922, 0.11200000531971455, 0.9600000455975533, 0.0, 0.0, 0.0, 0.0, 0.0, 1.6518362386071107E9, 0.0, 2022-05-06 12:23:58.607
55.0, -275.1668791398406, -181.37579810107127, -195.84173112967983, -190.66383964102715, 0.1600000075995922, 0.11200000531971455, 0.9600000455975533, 0.0, 0.0, 0.0, 0.0, 0.0, 1.651836238621208E9, 0.0, 2022-05-06 12:23:58.621
55.0, -220.94954948220402, -77.55991523107514, -106.90317028341815, -148.41418984159827, 0.1600000075995922, 0.11200000531971455, 0.9600000455975533, 0.0, 0.0, 0.0, 0.0, 0.0, 1.651836238621208E9, 0.0, 2022-05-06 12:23:58.621
56.0, -197.84444755595177, -81.63266628282145, -130.87592899939045, -155.8191917538643, 0.1600000075995922, 0.11200000531971455, 0.9600000455975533, 0.0, 0.0, 0.0, 0.0, 0.0, 1.6518362386361592E9, 0.0, 2022-05-06 12:23:58.636
56.0, -248.40415505692363, -184.659430262167, -202.20704085426405, -191.62125402968377, 0.1600000075995922, 0.11200000531971455, 0.9600000455975533, 0.0, 0.0, 0.0, 0.0, 0.0, 1.6518362386361592E9, 0.0, 2022-05-06 12:23:58.636
57.0, -280.2344435798004, -186.69393583806232, -199.39089618762955, -194.9796841898933, 0.1600000075995922, 0.11200000531971455, 0.9600000455975533, 0.0, 0.0, 0.0, 0.0, 0.0, 1.651836238637096E9, 0.0, 2022-05-06 12:23:58.637
57.0, -218.87016510684043, -83.69709105836228, -108.55620606383309, -132.57197362929583, 0.1600000075995922, 0.11200000531971455, 0.9600000455975533, 0.0, 0.0, 0.0, 0.0, 0.0, 1.651836238637096E9, 0.0, 2022-05-06 12:23:58.637
58.0, -210.63116550445557, -90.948757072445, -131.87448228755966, -155.68081545550376, 0.1600000075995922, 0.11200000531971455, 0.9600000455975533, 0.0, 0.0, 0.0, 0.0, 0.0, 1.6518362386511996E9, 0.0, 2022-05-06 12:23:58.651
58.0, -266.5688491417095, -194.8917965409346, -216.4523197854869, -209.1314656222239, 0.1600000075995922, 0.11200000531971455, 0.9600000455975533, 0.0, 0.0, 0.0, 0.0, 0.0, 1.6518362386511996E9, 0.0, 2022-05-06 12:23:58.651
59.0, -264.5418233657256, -183.2532278788276, -191.97093467554078, -184.02177731972188, 0.1600000075995922, 0.11200000531971455, 0.9600000455975533, 0.0, 0.0, 0.0, 0.0, 0.0, 1.6518362386661403E9, 0.0, 2022-05-06 12:23:58.666
59.0, -229.5214001806453, -86.9508040198125, -119.5589917334728, -167.72703321278095, 0.1600000075995922, 0.11200000531971455, 0.9600000455975533, 0.0, 0.0, 0.0, 0.0, 0.0, 1.6518362386661403E9, 0.0, 2022-05-06 12:23:58.666
60.0, -209.52789501752704, -92.7289494513534, -131.8183837882243, -157.1169370384887, 0.1600000075995922, 0.11200000531971455, 0.9760000463575125, 0.0, 0.0, 0.0, 0.0, 0.0, 1.651836238667109E9, 0.0, 2022-05-06 12:23:58.667
60.0, -266.1200611470267, -195.04513243911788, -222.62689461233094, -196.73743716906756, 0.1600000075995922, 0.11200000531971455, 0.9760000463575125, 0.0, 0.0, 0.0, 0.0, 0.0, 1.651836238667109E9, 0.0, 2022-05-06 12:23:58.667
61.0, -278.15505920443684, -189.52878000447527, -206.72857990069315, -199.759276333265, 0.1600000075995922, 0.11200000531971455, 0.9760000463575125, 0.0, 0.0, 0.0, 0.0, 0.0, 1.6518362386971786E9, 0.0, 2022-05-06 12:23:58.697
61.0, -233.8484644293785, -90.27183518046513, -120.11623682687059, -158.64655612036586, 0.1600000075995922, 0.11200000531971455, 0.9760000463575125, 0.0, 0.0, 0.0, 0.0, 0.0, 1.6518362386971786E9, 0.0, 2022-05-06 12:23:58.697
62.0, -211.51378189399838, -94.62507872888818, -132.7159597775899, -148.5525661399588, 0.1600000075995922, 0.11200000531971455, 0.9760000463575125, 0.0, 0.0, 0.0, 0.0, 0.0, 1.6518362386981485E9, 0.0, 2022-05-06 12:23:58.698
62.0, -273.786856056191, -197.4461482106708, -219.20862605283037, -200.21180422790349, 0.1600000075995922, 0.11200000531971455, 0.9760000463575125, 0.0, 0.0, 0.0, 0.0, 0.0, 1.6518362386981485E9, 0.0, 2022-05-06 12:23:58.698
63.0, -266.44543244317174, -185.89359724754468, -195.7744129304774, -183.1578604299575, 0.1600000075995922, 0.11200000531971455, 0.9760000463575125, 0.0, 0.0, 0.0, 0.0, 0.0, 1.651836238699088E9, 0.0, 2022-05-06 12:23:58.699
63.0, -215.82214664295316, -78.93993831472471, -111.78373972559348, -154.39054997079074, 0.1600000075995922, 0.11200000531971455, 0.9760000463575125, 0.0, 0.0, 0.0, 0.0, 0.0, 1.651836238699088E9, 0.0, 2022-05-06 12:23:58.699
64.0, -234.75726011861116, -97.7291956921108, -135.7078797421418, -163.21671386621892, 0.1600000075995922, 0.11200000531971455, 0.9760000463575125, 0.0, 0.0, 0.0, 0.0, 0.0, 1.6518362387112863E9, 0.0, 2022-05-06 12:23:58.711
64.0, -267.7880565272644, -186.80239293677732, -214.92270070360973, -189.44089235551655, 0.1600000075995922, 0.11200000531971455, 0.9760000463575125, 0.0, 0.0, 0.0, 0.0, 0.0, 1.6518362387112863E9, 0.0, 2022-05-06 12:23:58.711
65.0, -280.96372407115996, -186.85475153615698, -206.87817589892074, -203.99284308310598, 0.1600000075995922, 0.11200000531971455, 0.9760000463575125, 0.0, 0.0, 0.0, 0.0, 0.0, 1.651836238726236E9, 0.0, 2022-05-06 12:23:58.726
65.0, -229.5587991802022, -93.37969204364344, -125.74852616013959, -162.7080874722451, 0.1600000075995922, 0.11200000531971455, 0.9760000463575125, 0.0, 0.0, 0.0, 0.0, 0.0, 1.651836238726236E9, 0.0, 2022-05-06 12:23:58.726
66.0, -204.5800073761493, -83.55497486004606, -121.82537110662088, -133.70516331586987, 0.1600000075995922, 0.11200000531971455, 0.9760000463575125, 0.0, 0.0, 0.0, 0.0, 0.0, 1.6518362387272215E9, 0.0, 2022-05-06 12:23:58.727
66.0, -266.9802381368354, -192.87225056486204, -216.28028438752517, -194.56081539485604, 0.1600000075995922, 0.11200000531971455, 0.9760000463575125, 0.0, 0.0, 0.0, 0.0, 0.0, 1.6518362387272215E9, 0.0, 2022-05-06 12:23:58.727
67.0, -267.18967253435403, -180.03691391693428, -190.01122709875926, -181.0485568549484, 0.1600000075995922, 0.11200000531971455, 0.9760000463575125, 0.0, 0.0, 0.0, 0.0, 0.0, 1.6518362387412505E9, 0.0, 2022-05-06 12:23:58.741
67.0, -237.49486688617617, -86.61047312384471, -120.10127722704783, -168.69566730130464, 0.1600000075995922, 0.11200000531971455, 0.9760000463575125, 0.0, 0.0, 0.0, 0.0, 0.0, 1.6518362387412505E9, 0.0, 2022-05-06 12:23:58.741
68.0, -227.69258910231292, -102.89773743087426, -137.2300190241076, -156.79530564229935, 0.1600000075995922, 0.11200000531971455, 0.9760000463575125, 0.0, 0.0, 0.0, 0.0, 0.0, 1.6518362387561653E9, 0.0, 2022-05-06 12:23:58.756
68.0, -269.542069606483, -196.3690570234321, -212.28607123484835, -198.5737280473113, 0.1600000075995922, 0.11200000531971455, 0.9760000463575125, 0.0, 0.0, 0.0, 0.0, 0.0, 1.6518362387561653E9, 0.0, 2022-05-06 12:23:58.756
69.0, -278.89929929561913, -181.70864919712767, -203.24299314199015, -200.97474381886423, 0.1600000075995922, 0.11200000531971455, 0.9760000463575125, 0.0, 0.0, 0.0, 0.0, 0.0, 1.6518362387572105E9, 0.0, 2022-05-06 12:23:58.757
69.0, -231.69054215494543, -85.19679094059393, -116.7054480672814, -157.79011903051287, 0.1600000075995922, 0.11200000531971455, 0.9760000463575125, 0.0, 0.0, 0.0, 0.0, 0.0, 1.6518362387572105E9, 0.0, 2022-05-06 12:23:58.757
70.0, -225.26913393102586, -102.43024993641302, -139.7881105937995, -162.84272387064993, 0.1600000075995922, 0.11200000531971455, 0.9920000471174717, 0.0, 0.0, 0.0, 0.0, 0.0, 1.6518362387872093E9, 0.0, 2022-05-06 12:23:58.787
70.0, -260.2035394171253, -183.72819517320022, -202.06866455590352, -178.303470287472, 0.1600000075995922, 0.11200000531971455, 0.9920000471174717, 0.0, 0.0, 0.0, 0.0, 0.0, 1.6518362387872093E9, 0.0, 2022-05-06 12:23:58.787
71.0, -264.9793916605413, -176.49896855885163, -193.54543255688623, -183.76746412273496, 0.1600000075995922, 0.11200000531971455, 0.9920000471174717, 0.0, 0.0, 0.0, 0.0, 0.0, 1.6518362387882047E9, 0.0, 2022-05-06 12:23:58.788
71.0, -232.46096154581755, -92.56439385330305, -118.18270854977891, -154.82811826560646, 0.1600000075995922, 0.11200000531971455, 0.9920000471174717, 0.0, 0.0, 0.0, 0.0, 0.0, 1.6518362387882047E9, 0.0, 2022-05-06 12:23:58.788
72.0, -226.0732124214992, -81.75608298135921, -119.6674488321878, -146.79855306074023, 0.1600000075995922, 0.11200000531971455, 0.9920000471174717, 0.0, 0.0, 0.0, 0.0, 0.0, 1.6518362387890947E9, 0.0, 2022-05-06 12:23:58.789
72.0, -272.58634817041457, -195.116190538276, -219.36570185096934, -196.25872997473925, 0.1600000075995922, 0.11200000531971455, 0.9920000471174717, 0.0, 0.0, 0.0, 0.0, 0.0, 1.6518362387890947E9, 0.0, 2022-05-06 12:23:58.789
73.0, -288.6529583800584, -205.66644831327721, -210.31514395819977, -209.00056912377477, 0.1600000075995922, 0.11200000531971455, 0.9920000471174717, 0.0, 0.0, 0.0, 0.0, 0.0, 1.6518362388012006E9, 0.0, 2022-05-06 12:23:58.801
73.0, -229.8168522771448, -77.86284712748602, -109.83151194872335, -140.96804902981967, 0.1600000075995922, 0.11200000531971455, 0.9920000471174717, 0.0, 0.0, 0.0, 0.0, 0.0, 1.6518362388012006E9, 0.0, 2022-05-06 12:23:58.801
74.0, -213.7352824676782, -74.93824536213651, -124.7798920716159, -147.1837627561763, 0.1600000075995922, 0.11200000531971455, 0.9920000471174717, 0.0, 0.0, 0.0, 0.0, 0.0, 1.6518362388161936E9, 0.0, 2022-05-06 12:23:58.816
74.0, -252.57788340747356, -195.224647636991, -213.1537280245684, -205.17839136905968, 0.1600000075995922, 0.11200000531971455, 0.9920000471174717, 0.0, 0.0, 0.0, 0.0, 0.0, 1.6518362388161936E9, 0.0, 2022-05-06 12:23:58.816
75.0, -285.0701342225075, -194.4093494466506, -203.48608663911, -201.1318196170032, 0.1600000075995922, 0.11200000531971455, 0.9920000471174717, 0.0, 0.0, 0.0, 0.0, 0.0, 1.6518362388171003E9, 0.0, 2022-05-06 12:23:58.817
75.0, -218.3278796132654, -72.96731808548793, -99.98435536539182, -129.30330106802285, 0.1600000075995922, 0.11200000531971455, 0.9920000471174717, 0.0, 0.0, 0.0, 0.0, 0.0, 1.6518362388171003E9, 0.0, 2022-05-06 12:23:58.817
76.0, -222.87559795938432, -70.77573671145365, -119.21866083750501, -142.5500267110765, 0.1600000075995922, 0.11200000531971455, 0.9920000471174717, 0.0, 0.0, 0.0, 0.0, 0.0, 1.6518362388312092E9, 0.0, 2022-05-06 12:23:58.831
76.0, -271.80844897963107, -197.20679461350664, -219.6761135472916, -204.800661473535, 0.1600000075995922, 0.11200000531971455, 0.9920000471174717, 0.0, 0.0, 0.0, 0.0, 0.0, 1.6518362388312092E9, 0.0, 2022-05-06 12:23:58.831
77.0, -306.7465943656862, -211.8260635402985, -223.14300080621615, -224.2219619434327, 0.1600000075995922, 0.11200000531971455, 0.9920000471174717, 0.0, 0.0, 0.0, 0.0, 0.0, 1.651836238846158E9, 0.0, 2022-05-06 12:23:58.846
77.0, -228.94545558746904, -89.71085018711165, -122.36391670024022, -160.52772579807788, 0.1600000075995922, 0.11200000531971455, 0.9920000471174717, 0.0, 0.0, 0.0, 0.0, 0.0, 1.651836238846158E9, 0.0, 2022-05-06 12:23:58.846
78.0, -207.4672101419419, -68.07178904348984, -109.42012295359746, -134.5429009059444, 0.1600000075995922, 0.11200000531971455, 0.9920000471174717, 0.0, 0.0, 0.0, 0.0, 0.0, 1.6518362388471003E9, 0.0, 2022-05-06 12:23:58.847
78.0, -264.62036126479506, -191.02847988670692, -208.39657528093085, -177.13288160134107, 0.1600000075995922, 0.11200000531971455, 0.9920000471174717, 0.0, 0.0, 0.0, 0.0, 0.0, 1.6518362388471003E9, 0.0, 2022-05-06 12:23:58.847
79.0, -282.51952245272696, -190.32537869503722, -197.82387810619548, -192.7619235161692, 0.1600000075995922, 0.11200000531971455, 0.9920000471174717, 0.0, 0.0, 0.0, 0.0, 0.0, 1.6518362388611689E9, 0.0, 2022-05-06 12:23:58.861
79.0, -231.09963796194643, -82.19739117613062, -123.0408385922201, -159.3309578122571, 0.1600000075995922, 0.11200000531971455, 0.9920000471174717, 0.0, 0.0, 0.0, 0.0, 0.0, 1.6518362388611689E9, 0.0, 2022-05-06 12:23:58.861
80.0, -212.99852217640728, -79.43734500883147, -121.5934973093681, -152.8534510890022, 0.1600000075995922, 0.11200000531971455, 1.008000047877431, 0.0, 0.0, 0.0, 0.0, 0.0, 1.651836238876221E9, 0.0, 2022-05-06 12:23:58.876
80.0, -275.0135432416573, -198.1829085019417, -221.14215432992205, -198.15859915222973, 0.1600000075995922, 0.11200000531971455, 1.008000047877431, 0.0, 0.0, 0.0, 0.0, 0.0, 1.651836238876221E9, 0.0, 2022-05-06 12:23:58.876
81.0, -299.49118845164776, -213.5239781201817, -217.84730246895924, -216.44670993555337, 0.1600000075995922, 0.11200000531971455, 1.008000047877431, 0.0, 0.0, 0.0, 0.0, 0.0, 1.6518362388771555E9, 0.0, 2022-05-06 12:23:58.877
81.0, -240.86825664620847, -90.73932267492637, -122.53969199815765, -162.31165807694197, 0.1600000075995922, 0.11200000531971455, 1.008000047877431, 0.0, 0.0, 0.0, 0.0, 0.0, 1.6518362388771555E9, 0.0, 2022-05-06 12:23:58.877
82.0, -213.6941435681656, -77.78804912837222, -126.54138495074585, -147.4455557530746, 0.1600000075995922, 0.11200000531971455, 1.008000047877431, 0.0, 0.0, 0.0, 0.0, 0.0, 1.651836238891229E9, 0.0, 2022-05-06 12:23:58.891
82.0, -268.7155517162755, -199.57041138550267, -218.6065021599643, -196.16149257589132, 0.1600000075995922, 0.11200000531971455, 1.008000047877431, 0.0, 0.0, 0.0, 0.0, 0.0, 1.651836238891229E9, 0.0, 2022-05-06 12:23:58.891
83.0, -294.9546898053959, -212.3085106345825, -222.1257480182685, -215.1788838505745, 0.1600000075995922, 0.11200000531971455, 1.008000047877431, 0.0, 0.0, 0.0, 0.0, 0.0, 1.6518362389061656E9, 0.0, 2022-05-06 12:23:58.906
83.0, -226.38736401777714, -77.16348583577201, -115.20948808500543, -146.94814905896783, 0.1600000075995922, 0.11200000531971455, 1.008000047877431, 0.0, 0.0, 0.0, 0.0, 0.0, 1.6518362389061656E9, 0.0, 2022-05-06 12:23:58.906
84.0, -195.73888388089836, -59.185786748770624, -105.31371280224994, -115.25623683445156, 0.1600000075995922, 0.11200000531971455, 1.008000047877431, 0.0, 0.0, 0.0, 0.0, 0.0, 1.6518362389071074E9, 0.0, 2022-05-06 12:23:58.907
84.0, -251.8934817155823, -185.2204152555205, -210.73027285328135, -196.47938407212496, 0.1600000075995922, 0.11200000531971455, 1.008000047877431, 0.0, 0.0, 0.0, 0.0, 0.0, 1.6518362389071074E9, 0.0, 2022-05-06 12:23:58.907
85.0, -291.106332750991, -206.39572880463675, -200.58766417345032, -199.81911473255605, 0.1600000075995922, 0.11200000531971455, 1.008000047877431, 0.0, 0.0, 0.0, 0.0, 0.0, 1.6518362389212391E9, 0.0, 2022-05-06 12:23:58.921
85.0, -227.5168138043955, -75.93679865030572, -99.61410526977852, -137.38522487226874, 0.1600000075995922, 0.11200000531971455, 1.008000047877431, 0.0, 0.0, 0.0, 0.0, 0.0, 1.6518362389212391E9, 0.0, 2022-05-06 12:23:58.921
86.0, -206.82020744960755, -72.36893409257755, -120.43786822305992, -139.13175815157592, 0.1600000075995922, 0.11200000531971455, 1.008000047877431, 0.0, 0.0, 0.0, 0.0, 0.0, 1.6518362389361467E9, 0.0, 2022-05-06 12:23:58.936
86.0, -278.71230429783463, -207.59249679045752, -225.29344328073785, -213.5819465694949, 0.1600000075995922, 0.11200000531971455, 1.008000047877431, 0.0, 0.0, 0.0, 0.0, 0.0, 1.6518362389361467E9, 0.0, 2022-05-06 12:23:58.936
87.0, -290.6126659568399, -207.54761799098924, -216.94972647959366, -208.37974573113024, 0.1600000075995922, 0.11200000531971455, 1.008000047877431, 0.0, 0.0, 0.0, 0.0, 0.0, 1.6518362389371188E9, 0.0, 2022-05-06 12:23:58.937
87.0, -243.04861832037568, -91.6555981640704, -127.0425315448083, -165.98049993347377, 0.1600000075995922, 0.11200000531971455, 1.008000047877431, 0.0, 0.0, 0.0, 0.0, 0.0, 1.6518362389371188E9, 0.0, 2022-05-06 12:23:58.937
88.0, -214.71139635611326, -83.84668705658987, -128.14206213178113, -150.75536721386015, 0.1600000075995922, 0.11200000531971455, 1.008000047877431, 0.0, 0.0, 0.0, 0.0, 0.0, 1.6518362389512231E9, 0.0, 2022-05-06 12:23:58.951
88.0, -276.30380872637033, -207.3381835934706, -226.96143866097555, -207.6542051397264, 0.1600000075995922, 0.11200000531971455, 1.008000047877431, 0.0, 0.0, 0.0, 0.0, 0.0, 1.6518362389512231E9, 0.0, 2022-05-06 12:23:58.951
89.0, -304.4390760930255, -214.2644783114083, -220.973858831916, -220.08189269248396, 0.1600000075995922, 0.11200000531971455, 1.008000047877431, 0.0, 0.0, 0.0, 0.0, 0.0, 1.6518362389662273E9, 0.0, 2022-05-06 12:23:58.966
89.0, -233.12292383797467, -82.69105797028169, -114.35305099515244, -154.38307017087936, 0.1600000075995922, 0.11200000531971455, 1.008000047877431, 0.0, 0.0, 0.0, 0.0, 0.0, 1.6518362389662273E9, 0.0, 2022-05-06 12:23:58.966
90.0, -217.12363182753325, -75.41321265650913, -116.29031917219982, -138.70540955662727, 0.1600000075995922, 0.11200000531971455, 1.008000047877431, 0.0, 0.0, 0.0, 0.0, 0.0, 1.6518362389671168E9, 0.0, 2022-05-06 12:23:58.967
90.0, -265.2299649575725, -190.83774498896673, -212.95551332691684, -188.33388196863234, 0.1600000075995922, 0.11200000531971455, 1.008000047877431, 0.0, 0.0, 0.0, 0.0, 0.0, 1.6518362389671168E9, 0.0, 2022-05-06 12:23:58.967
91.0, -285.52640201710165, -198.8560904939659, -205.40091541642323, -185.5663560014218, 0.1600000075995922, 0.11200000531971455, 1.008000047877431, 0.0, 0.0, 0.0, 0.0, 0.0, 1.6518362389811883E9, 0.0, 2022-05-06 12:23:58.981
91.0, -230.16092307306826, -79.27278941078112, -119.28971893666312, -149.8465715246275, 0.1600000075995922, 0.11200000531971455, 1.008000047877431, 0.0, 0.0, 0.0, 0.0, 0.0, 1.6518362389811883E9, 0.0, 2022-05-06 12:23:58.981
92.0, -208.18153103347868, -77.63097333023325, -124.05809138016775, -161.84043068252504, 0.1600000075995922, 0.11200000531971455, 1.008000047877431, 0.0, 0.0, 0.0, 0.0, 0.0, 1.6518362389961581E9, 0.0, 2022-05-06 12:23:58.996
92.0, -274.5759749468416, -203.77405893569812, -222.72787191113457, -209.44935711845756, 0.1600000075995922, 0.11200000531971455, 1.008000047877431, 0.0, 0.0, 0.0, 0.0, 0.0, 1.6518362389961581E9, 0.0, 2022-05-06 12:23:58.996
93.0, -292.721969531849, -209.40634826896712, -214.4552132091485, -206.38637905474752, 0.1600000075995922, 0.11200000531971455, 1.008000047877431, 0.0, 0.0, 0.0, 0.0, 0.0, 1.6518362389971137E9, 0.0, 2022-05-06 12:23:58.997
93.0, -218.33909931313246, -78.67066551791504, -109.22938805585727, -141.57017292268574, 0.1600000075995922, 0.11200000531971455, 1.008000047877431, 0.0, 0.0, 0.0, 0.0, 0.0, 1.6518362389971137E9, 0.0, 2022-05-06 12:23:58.997
94.0, -204.80814127344638, -73.6816389770247, -117.74888015491888, -137.60961886961013, 0.1600000075995922, 0.11200000531971455, 1.008000047877431, 0.0, 0.0, 0.0, 0.0, 0.0, 1.6518362390111537E9, 0.0, 2022-05-06 12:23:59.011
94.0, -265.73859135154635, -196.47377422219142, -214.11488231318071, -181.29913015197963, 0.1600000075995922, 0.11200000531971455, 1.008000047877431, 0.0, 0.0, 0.0, 0.0, 0.0, 1.6518362390111537E9, 0.0, 2022-05-06 12:23:59.011
95.0, -288.33880678378046, -205.1952209188603, -213.65113471867517, -212.69933017995209, 0.1600000075995922, 0.11200000531971455, 1.008000047877431, 0.0, 0.0, 0.0, 0.0, 0.0, 1.6518362390261679E9, 0.0, 2022-05-06 12:23:59.026
95.0, -216.82817973103374, -69.07034233165905, -108.2532741674222, -143.810372996144, 0.1600000075995922, 0.11200000531971455, 1.008000047877431, 0.0, 0.0, 0.0, 0.0, 0.0, 1.6518362390261679E9, 0.0, 2022-05-06 12:23:59.026
96.0, -210.3581528076902, -75.11402066005394, -119.76094633108005, -146.1029316689819, 0.1600000075995922, 0.11200000531971455, 1.008000047877431, 0.0, 0.0, 0.0, 0.0, 0.0, 1.651836239027106E9, 0.0, 2022-05-06 12:23:59.027
96.0, -277.0854478171095, -204.80253142351285, -221.02995733125135, -201.3524737143889, 0.1600000075995922, 0.11200000531971455, 1.008000047877431, 0.0, 0.0, 0.0, 0.0, 0.0, 1.651836239027106E9, 0.0, 2022-05-06 12:23:59.027
97.0, -284.89061902463436, -213.50901852035895, -217.7837241697125, -211.97752948850393, 0.1600000075995922, 0.11200000531971455, 1.008000047877431, 0.0, 0.0, 0.0, 0.0, 0.0, 1.651836239041204E9, 0.0, 2022-05-06 12:23:59.041
97.0, -238.80009197071195, -92.72146965144202, -127.77929183607921, -168.24313940666616, 0.1600000075995922, 0.11200000531971455, 1.008000047877431, 0.0, 0.0, 0.0, 0.0, 0.0, 1.651836239041204E9, 0.0, 2022-05-06 12:23:59.041
98.0, -220.4745821878314, -77.01014993758872, -121.2980452128686, -139.71892244461924, 0.1600000075995922, 0.11200000531971455, 1.008000047877431, 0.0, 0.0, 0.0, 0.0, 0.0, 1.6518362390562031E9, 0.0, 2022-05-06 12:23:59.056
98.0, -261.6471408000216, -185.9197765472345, -205.83474381128326, -184.0180374197662, 0.1600000075995922, 0.11200000531971455, 1.008000047877431, 0.0, 0.0, 0.0, 0.0, 0.0, 1.6518362390562031E9, 0.0, 2022-05-06 12:23:59.056
99.0, -280.215744080022, -193.00688696326688, -200.98783346870914, -203.51039598882198, 0.1600000075995922, 0.11200000531971455, 1.008000047877431, 0.0, 0.0, 0.0, 0.0, 0.0, 1.6518362390571465E9, 0.0, 2022-05-06 12:23:59.057
99.0, -228.33959179464728, -77.02884943736717, -115.78169277822599, -151.4846477052197, 0.1600000075995922, 0.11200000531971455, 1.008000047877431, 0.0, 0.0, 0.0, 0.0, 0.0, 1.6518362390571465E9, 0.0, 2022-05-06 12:23:59.057
100.0, -205.3205075673759, -77.43275863258168, -125.38575586443767, -145.257714278996, 0.1600000075995922, 0.11200000531971455, 1.008000047877431, 0.0, 0.0, 0.0, 0.0, 0.0, 1.6518362390711555E9, 0.0, 2022-05-06 12:23:59.071
100.0, -273.7270176569, -206.0815772083588, -225.84320857422426, -208.15161183383316, 0.1600000075995922, 0.11200000531971455, 1.008000047877431, 0.0, 0.0, 0.0, 0.0, 0.0, 1.6518362390711555E9, 0.0, 2022-05-06 12:23:59.071
0.0, -281.8108114111237, -199.23008048953488, -209.8383067138493, -202.43517475156114, 0.1600000075995922, 0.11200000531971455, 1.008000047877431, 0.0, 0.0, 0.0, 0.0, 0.0, 1.6518362390721002E9, 0.0, 2022-05-06 12:23:59.072
1.0, -218.43820666195825, -66.25419766502455, -101.09697560220957, -138.13507481338456, 0.1600000075995922, 0.11200000531971455, 1.008000047877431, 0.0, 0.0, 0.0, 0.0, 0.0, 1.6518362390862062E9, 0.0, 2022-05-06 12:23:59.086
1.0, -202.2631393535994, -71.69201220059767, -108.00831072032452, -123.01839919248596, 0.1600000075995922, 0.11200000531971455, 1.008000047877431, 0.0, 0.0, 0.0, 0.0, 0.0, 1.6518362390862062E9, 0.0, 2022-05-06 12:23:59.086
2.0, -252.729349355679, -175.2124429740943, -197.51159645989537, -161.36359343817458, 0.1600000075995922, 0.11200000531971455, 1.008000047877431, 0.0, 0.0, 0.0, 0.0, 0.0, 1.65183623910118E9, 0.0, 2022-05-06 12:23:59.101
2.0, -275.0004535918124, -187.02678693411872, -195.39855298493057, -191.94475537585095, 0.1600000075995922, 0.11200000531971455, 1.008000047877431, 0.0, 0.0, 0.0, 0.0, 0.0, 1.65183623910118E9, 0.0, 2022-05-06 12:23:59.101
3.0, -217.5668099722825, -71.7181915002875, -112.74676396418363, -156.19131179945543, 0.1600000075995922, 0.11200000531971455, 1.008000047877431, 0.0, 0.0, 0.0, 0.0, 0.0, 1.6518362391020765E9, 0.0, 2022-05-06 12:23:59.102
3.0, -207.7495725885965, -85.69793753465638, -129.11630607023835, -159.51982276001945, 0.1600000075995922, 0.11200000531971455, 1.008000047877431, 0.0, 0.0, 0.0, 0.0, 0.0, 1.6518362391020765E9, 0.0, 2022-05-06 12:23:59.102
4.0, -280.299891829025, -213.35568262217566, -230.12726397346705, -212.33468993427232, 0.1600000075995922, 0.11200000531971455, 1.008000047877431, 0.0, 0.0, 0.0, 0.0, 0.0, 1.6518362391162167E9, 0.0, 2022-05-06 12:23:59.116
4.0, -278.39628275157884, -208.79300467623398, -215.89694464206696, -211.4483336447738, 0.1600000075995922, 0.11200000531971455, 1.008000047877431, 0.0, 0.0, 0.0, 0.0, 0.0, 1.6518362391162167E9, 0.0, 2022-05-06 12:23:59.116
5.0, -241.19175799237564, -79.9085724032484, -116.17999212350696, -158.92891856702045, 0.1600000075995922, 0.11200000531971455, 1.008000047877431, 0.0, 0.0, 0.0, 0.0, 0.0, 1.6518362391311493E9, 0.0, 2022-05-06 12:23:59.131
5.0, -193.38835675874725, -68.61033463710919, -114.58305484242737, -140.80536338174716, 0.1600000075995922, 0.11200000531971455, 1.008000047877431, 0.0, 0.0, 0.0, 0.0, 0.0, 1.6518362391311493E9, 0.0, 2022-05-06 12:23:59.131
6.0, -268.69124236656353, -193.90072305267677, -211.29312779661268, -184.33779886597767, 0.1600000075995922, 0.11200000531971455, 1.008000047877431, 0.0, 0.0, 0.0, 0.0, 0.0, 1.6518362391321037E9, 0.0, 2022-05-06 12:23:59.132
6.0, -288.72214652923867, -202.29305855324492, -207.54948794096708, -201.92280845763162, 0.1600000075995922, 0.11200000531971455, 1.008000047877431, 0.0, 0.0, 0.0, 0.0, 0.0, 1.6518362391321037E9, 0.0, 2022-05-06 12:23:59.132
7.0, -225.7571908752434, -89.63605218799785, -117.95270470250398, -157.58629448292777, 0.1600000075995922, 0.11200000531971455, 1.008000047877431, 0.0, 0.0, 0.0, 0.0, 0.0, 1.651836239146137E9, 0.0, 2022-05-06 12:23:59.146
7.0, -207.3755825930275, -85.81387443328276, -133.00580202415586, -156.49050379591063, 0.1600000075995922, 0.11200000531971455, 1.008000047877431, 0.0, 0.0, 0.0, 0.0, 0.0, 1.651836239146137E9, 0.0, 2022-05-06 12:23:59.146
8.0, -272.2927660238929, -198.82617129432037, -217.0675333281979, -196.75426671886817, 0.1600000075995922, 0.11200000531971455, 1.008000047877431, 0.0, 0.0, 0.0, 0.0, 0.0, 1.6518362391611493E9, 0.0, 2022-05-06 12:23:59.161
8.0, -289.54118461953476, -199.64894928457215, -201.206617616117, -196.76922631869093, 0.1600000075995922, 0.11200000531971455, 1.008000047877431, 0.0, 0.0, 0.0, 0.0, 0.0, 1.6518362391611493E9, 0.0, 2022-05-06 12:23:59.161
9.0, -228.18812584644184, -79.66173900617287, -116.22487092297524, -150.1999920704402, 0.1600000075995922, 0.11200000531971455, 1.008000047877431, 0.0, 0.0, 0.0, 0.0, 0.0, 1.651836239162089E9, 0.0, 2022-05-06 12:23:59.162
9.0, -199.89952258160338, -72.28665629355237, -124.67330492287874, -146.22073851758614, 0.1600000075995922, 0.11200000531971455, 1.008000047877431, 0.0, 0.0, 0.0, 0.0, 0.0, 1.651836239162089E9, 0.0, 2022-05-06 12:23:59.162
10.0, -263.7396148252301, -196.86272381758317, -215.59401274565607, -191.8549977769144, 0.1600000075995922, 0.11200000531971455, 1.008000047877431, 0.0, 0.0, 0.0, 0.0, 0.0, 1.651836239176195E9, 0.0, 2022-05-06 12:23:59.176
10.0, -292.1254554889165, -203.54218513844535, -206.73418975062668, -206.2984914057888, 0.1600000075995922, 0.11200000531971455, 1.008000047877431, 0.0, 0.0, 0.0, 0.0, 0.0, 1.651836239176195E9, 0.0, 2022-05-06 12:23:59.176
11.0, -221.74801812274382, -75.22621765872464, -111.7930894754827, -143.07174275489524, 0.1600000075995922, 0.11200000531971455, 1.008000047877431, 0.0, 0.0, 0.0, 0.0, 0.0, 1.6518362391912143E9, 0.0, 2022-05-06 12:23:59.191
11.0, -201.29076536512002, -73.9808309734799, -113.39376665651798, -120.1872949260287, 0.1600000075995922, 0.11200000531971455, 1.008000047877431, 0.0, 0.0, 0.0, 0.0, 0.0, 1.6518362391912143E9, 0.0, 2022-05-06 12:23:59.191
12.0, -251.8018541666679, -187.32223903061822, -209.71862991526723, -188.19737562024966, 0.1600000075995922, 0.11200000531971455, 1.008000047877431, 0.0, 0.0, 0.0, 0.0, 0.0, 1.6518362391921067E9, 0.0, 2022-05-06 12:23:59.192
12.0, -293.4194608735852, -201.64605586091056, -211.2819080967456, -216.41492078593, 0.1600000075995922, 0.11200000531971455, 1.008000047877431, 0.0, 0.0, 0.0, 0.0, 0.0, 1.6518362391921067E9, 0.0, 2022-05-06 12:23:59.192
13.0, -203.47486693924293, -72.41755279200152, -110.17745269462466, -155.6864253054373, 0.1600000075995922, 0.11200000531971455, 1.008000047877431, 0.0, 0.0, 0.0, 0.0, 0.0, 1.6518362392061496E9, 0.0, 2022-05-06 12:23:59.206
13.0, -202.81290464708582, -73.39366668043658, -117.41789900884032, -134.61956885503605, 0.1600000075995922, 0.11200000531971455, 1.008000047877431, 0.0, 0.0, 0.0, 0.0, 0.0, 1.6518362392061496E9, 0.0, 2022-05-06 12:23:59.206
14.0, -271.6682027312927, -195.06757183885202, -213.3949515717104, -184.53601356362924, 0.1600000075995922, 0.11200000531971455, 1.008000047877431, 0.0, 0.0, 0.0, 0.0, 0.0, 1.651836239221161E9, 0.0, 2022-05-06 12:23:59.221
14.0, -293.0753900776617, -217.46583267347887, -227.97308159898967, -230.6863790168427, 0.1600000075995922, 0.11200000531971455, 1.008000047877431, 0.0, 0.0, 0.0, 0.0, 0.0, 1.651836239221161E9, 0.0, 2022-05-06 12:23:59.221
15.0, -228.40504004387185, -73.65919957729056, -109.92687939759344, -144.3059097402729, 0.1600000075995922, 0.11200000531971455, 1.008000047877431, 0.0, 0.0, 0.0, 0.0, 0.0, 1.6518362392221246E9, 0.0, 2022-05-06 12:23:59.222
15.0, -208.10112318443134, -75.84330115141347, -119.19435148779303, -132.521484979894, 0.1600000075995922, 0.11200000531971455, 1.008000047877431, 0.0, 0.0, 0.0, 0.0, 0.0, 1.6518362392221246E9, 0.0, 2022-05-06 12:23:59.222
16.0, -262.5802458389662, -194.49910704558715, -212.68063068017364, -193.7399073545821, 0.1600000075995922, 0.11200000531971455, 1.008000047877431, 0.0, 0.0, 0.0, 0.0, 0.0, 1.651836239236146E9, 0.0, 2022-05-06 12:23:59.236
16.0, -293.0454708780162, -212.4207076332532, -219.01602120511234, -214.87408200418577, 0.1600000075995922, 0.11200000531971455, 1.008000047877431, 0.0, 0.0, 0.0, 0.0, 0.0, 1.651836239236146E9, 0.0, 2022-05-06 12:23:59.236
17.0, -222.8251093099825, -67.77259704703465, -109.05548270791769, -150.2037319703959, 0.1600000075995922, 0.11200000531971455, 1.008000047877431, 0.0, 0.0, 0.0, 0.0, 0.0, 1.651836239251263E9, 0.0, 2022-05-06 12:23:59.251
17.0, -194.12885694997385, -71.73689100006595, -110.86185438651592, -132.91043457528576, 0.1600000075995922, 0.11200000531971455, 1.008000047877431, 0.0, 0.0, 0.0, 0.0, 0.0, 1.651836239251263E9, 0.0, 2022-05-06 12:23:59.251
18.0, -261.6714501497336, -194.00544025143608, -213.85495926626027, -195.16854913765565, 0.1600000075995922, 0.11200000531971455, 1.008000047877431, 0.0, 0.0, 0.0, 0.0, 0.0, 1.651836239252223E9, 0.0, 2022-05-06 12:23:59.252
18.0, -273.3810769109987, -193.31729865958914, -200.05098852980882, -193.06298546260223, 0.1600000075995922, 0.11200000531971455, 1.008000047877431, 0.0, 0.0, 0.0, 0.0, 0.0, 1.651836239252223E9, 0.0, 2022-05-06 12:23:59.252
19.0, -217.61542867170647, -74.48197756754234, -109.48183130286634, -141.01853767922148, 0.1600000075995922, 0.11200000531971455, 1.008000047877431, 0.0, 0.0, 0.0, 0.0, 0.0, 1.6518362392661333E9, 0.0, 2022-05-06 12:23:59.266
19.0, -191.68670227890834, -71.89770669816062, -121.03812216594815, -139.3468023990281, 0.1600000075995922, 0.11200000531971455, 1.008000047877431, 0.0, 0.0, 0.0, 0.0, 0.0, 1.6518362392661333E9, 0.0, 2022-05-06 12:23:59.266
20.0, -255.07426662789658, -197.7042013076134, -215.6164521453902, -192.113050873857, 0.1600000075995922, 0.11200000531971455, 1.008000047877431, 0.0, 0.0, 0.0, 0.0, 0.0, 1.6518362392812405E9, 0.0, 2022-05-06 12:23:59.281
20.0, -299.5641165007837, -197.0758981150575, -204.48276997730136, -192.34118477115408, 0.1600000075995922, 0.11200000531971455, 1.008000047877431, 0.0, 0.0, 0.0, 0.0, 0.0, 1.6518362392812405E9, 0.0, 2022-05-06 12:23:59.281
21.0, -226.2770369690843, -77.19714493537322, -120.798768568784, -174.93195047741756, 0.1600000075995922, 0.12800000607967377, 1.008000047877431, 0.0, 0.0, 0.0, 0.0, 0.0, 1.6518362392821825E9, 0.0, 2022-05-06 12:23:59.282
21.0, -222.25664451671764, -85.18183134077117, -128.4319043783471, -164.69584429869428, 0.1600000075995922, 0.12800000607967377, 1.008000047877431, 0.0, 0.0, 0.0, 0.0, 0.0, 1.6518362392821825E9, 0.0, 2022-05-06 12:23:59.282
22.0, -265.6245244028978, -203.73665993614122, -219.66676379740238, -204.7800920237787, 0.1600000075995922, 0.12800000607967377, 1.008000047877431, 0.0, 0.0, 0.0, 0.0, 0.0, 1.6518362392961447E9, 0.0, 2022-05-06 12:23:59.296
22.0, -275.35574408760294, -198.69527479587123, -207.01468224730343, -208.75560567667708, 0.1600000075995922, 0.12800000607967377, 1.008000047877431, 0.0, 0.0, 0.0, 0.0, 0.0, 1.6518362392961447E9, 0.0, 2022-05-06 12:23:59.296
23.0, -241.47599038900807, -84.28799525136128, -122.69863774627447, -161.21399743994698, 0.1600000075995922, 0.12800000607967377, 1.008000047877431, 0.0, 0.0, 0.0, 0.0, 0.0, 1.6518362393112404E9, 0.0, 2022-05-06 12:23:59.311
23.0, -212.20005353586748, -79.17929191188887, -120.48461697250605, -138.0864561139606, 0.1600000075995922, 0.12800000607967377, 1.008000047877431, 0.0, 0.0, 0.0, 0.0, 0.0, 1.6518362393112404E9, 0.0, 2022-05-06 12:23:59.311
24.0, -267.5430930801667, -194.21487464895472, -211.023854999803, -191.58572498010471, 0.1600000075995922, 0.12800000607967377, 1.008000047877431, 0.0, 0.0, 0.0, 0.0, 0.0, 1.6518362393122044E9, 0.0, 2022-05-06 12:23:59.312
24.0, -273.5830315086059, -197.0384991155006, -198.00152335409075, -188.23103471985087, 0.1600000075995922, 0.12800000607967377, 1.008000047877431, 0.0, 0.0, 0.0, 0.0, 0.0, 1.6518362393122044E9, 0.0, 2022-05-06 12:23:59.312
25.0, -216.48597888508812, -67.36120805190876, -101.60934189613909, -129.14809521986172, 0.1600000075995922, 0.12800000607967377, 1.008000047877431, 0.0, 0.0, 0.0, 0.0, 0.0, 1.6518362393261557E9, 0.0, 2022-05-06 12:23:59.326
25.0, -194.86187734128907, -69.46303182700649, -125.83267390914261, -148.57687548967078, 0.1600000075995922, 0.12800000607967377, 1.008000047877431, 0.0, 0.0, 0.0, 0.0, 0.0, 1.6518362393261557E9, 0.0, 2022-05-06 12:23:59.326
26.0, -262.7709807367064, -195.42286233464256, -217.05631362833083, -202.76802584761754, 0.1600000075995922, 0.12800000607967377, 1.008000047877431, 0.0, 0.0, 0.0, 0.0, 0.0, 1.6518362393411329E9, 0.0, 2022-05-06 12:23:59.341
26.0, -278.3327044523321, -200.20993427792564, -208.52560182940215, -204.18170803086832, 0.1600000075995922, 0.12800000607967377, 1.008000047877431, 0.0, 0.0, 0.0, 0.0, 0.0, 1.6518362393411329E9, 0.0, 2022-05-06 12:23:59.341
27.0, -209.69432056555524, -66.81518265837803, -99.55613682046533, -127.62221603794023, 0.1600000075995922, 0.12800000607967377, 1.008000047877431, 0.0, 0.0, 0.0, 0.0, 0.0, 1.6518362393421369E9, 0.0, 2022-05-06 12:23:59.342
27.0, -207.97770648589358, -87.837160309311, -138.4323968598619, -154.99454381363466, 0.1600000075995922, 0.12800000607967377, 1.008000047877431, 0.0, 0.0, 0.0, 0.0, 0.0, 1.6518362393421369E9, 0.0, 2022-05-06 12:23:59.342
28.0, -269.9964674510993, -205.20644061872736, -227.438275905326, -216.53833748446777, 0.1600000075995922, 0.12800000607967377, 1.008000047877431, 0.0, 0.0, 0.0, 0.0, 0.0, 1.6518362393562164E9, 0.0, 2022-05-06 12:23:59.356
28.0, -298.8348360094242, -211.62410894269124, -218.7355287084356, -222.11452831840143, 0.1600000075995922, 0.12800000607967377, 1.008000047877431, 0.0, 0.0, 0.0, 0.0, 0.0, 1.6518362393562164E9, 0.0, 2022-05-06 12:23:59.356
29.0, -223.1243013064377, -78.03488252544776, -111.20966508239508, -153.21061153477058, 0.1600000075995922, 0.12800000607967377, 1.008000047877431, 0.0, 0.0, 0.0, 0.0, 0.0, 1.6518362393712134E9, 0.0, 2022-05-06 12:23:59.371
29.0, -181.2187223029323, -67.98577134450898, -108.03075012005866, -126.68350114906207, 0.1600000075995922, 0.12800000607967377, 1.008000047877431, 0.0, 0.0, 0.0, 0.0, 0.0, 1.6518362393712134E9, 0.0, 2022-05-06 12:23:59.371
30.0, -258.53741398686543, -188.35071151843295, -205.40652526635677, -192.78997276583686, 0.1600000075995922, 0.12800000607967377, 1.008000047877431, 0.0, 0.0, 0.0, 0.0, 0.0, 1.6518362393721557E9, 0.0, 2022-05-06 12:23:59.372
30.0, -280.1465559308417, -196.90012281714007, -206.52849525306374, -204.32382422918454, 0.1600000075995922, 0.12800000607967377, 1.008000047877431, 0.0, 0.0, 0.0, 0.0, 0.0, 1.6518362393721557E9, 0.0, 2022-05-06 12:23:59.372
31.0, -238.0614617294632, -81.60274708317593, -119.69923798181117, -154.96836451394483, 0.1600000075995922, 0.11200000531971455, 1.008000047877431, 0.0, 0.0, 0.0, 0.0, 0.0, 1.651836239386154E9, 0.0, 2022-05-06 12:23:59.386
31.0, -217.83234286913648, -89.96142348414287, -135.59755269344896, -153.22557113459334, 0.1600000075995922, 0.11200000531971455, 1.008000047877431, 0.0, 0.0, 0.0, 0.0, 0.0, 1.651836239386154E9, 0.0, 2022-05-06 12:23:59.386
32.0, -271.79161942983046, -208.5199919794686, -224.9587222347036, -208.1160827842541, 0.1600000075995922, 0.11200000531971455, 1.008000047877431, 0.0, 0.0, 0.0, 0.0, 0.0, 1.6518362394012938E9, 0.0, 2022-05-06 12:23:59.401
32.0, -289.57484371913597, -214.91148100374267, -219.93229669425637, -214.64594810688868, 0.1600000075995922, 0.11200000531971455, 1.008000047877431, 0.0, 0.0, 0.0, 0.0, 0.0, 1.6518362394012938E9, 0.0, 2022-05-06 12:23:59.401
33.0, -224.14155409438536, -84.25807605171576, -110.38314719218761, -149.25379738165066, 0.1600000075995922, 0.11200000531971455, 1.008000047877431, 0.0, 0.0, 0.0, 0.0, 0.0, 1.6518362394021463E9, 0.0, 2022-05-06 12:23:59.402
33.0, -193.39957645861432, -82.1712118764408, -120.40981897339225, -129.4173680166714, 0.1600000075995922, 0.11200000531971455, 1.008000047877431, 0.0, 0.0, 0.0, 0.0, 0.0, 1.6518362394021463E9, 0.0, 2022-05-06 12:23:59.402
34.0, -244.44173105387017, -184.0273871696554, -200.62693312298506, -187.19508243212476, 0.1600000075995922, 0.11200000531971455, 1.008000047877431, 0.0, 0.0, 0.0, 0.0, 0.0, 1.651836239416201E9, 0.0, 2022-05-06 12:23:59.416
34.0, -274.5254862974398, -184.1844629677944, -198.86170034389943, -201.88166955811903, 0.1600000075995922, 0.11200000531971455, 1.008000047877431, 0.0, 0.0, 0.0, 0.0, 0.0, 1.651836239416201E9, 0.0, 2022-05-06 12:23:59.416
35.0, -225.1625467822887, -74.7961291638203, -111.04510948434472, -161.11302014114335, 0.1600000075995922, 0.11200000531971455, 1.008000047877431, 0.0, 0.0, 0.0, 0.0, 0.0, 1.6518362394311938E9, 0.0, 2022-05-06 12:23:59.431
35.0, -201.31694466480985, -73.65919957729056, -118.90263929124922, -143.07922255480662, 0.1600000075995922, 0.11200000531971455, 1.008000047877431, 0.0, 0.0, 0.0, 0.0, 0.0, 1.6518362394311938E9, 0.0, 2022-05-06 12:23:59.431
36.0, -263.5227006278001, -197.9697342044674, -217.7369754202664, -195.39668303495273, 0.1600000075995922, 0.11200000531971455, 1.008000047877431, 0.0, 0.0, 0.0, 0.0, 0.0, 1.6518362394322083E9, 0.0, 2022-05-06 12:23:59.432
36.0, -270.0787452501245, -187.05296623380855, -184.76227751094848, -167.23523636860773, 0.1600000075995922, 0.11200000531971455, 1.008000047877431, 0.0, 0.0, 0.0, 0.0, 0.0, 1.6518362394322083E9, 0.0, 2022-05-06 12:23:59.432
37.0, -206.57524400250986, -62.346002211328596, -100.54721030872315, -135.6704807425849, 0.1600000075995922, 0.11200000531971455, 1.008000047877431, 0.0, 0.0, 0.0, 0.0, 0.0, 1.6518362394461877E9, 0.0, 2022-05-06 12:23:59.446
37.0, -196.35035752365366, -73.55074247857556, -123.36433993838727, -151.4266792559065, 0.1600000075995922, 0.11200000531971455, 1.008000047877431, 0.0, 0.0, 0.0, 0.0, 0.0, 1.6518362394461877E9, 0.0, 2022-05-06 12:23:59.446
38.0, -259.1058787801303, -205.45701391575858, -224.49871454015374, -202.40151565195993, 0.1600000075995922, 0.11200000531971455, 1.008000047877431, 0.0, 0.0, 0.0, 0.0, 0.0, 1.6518362394612248E9, 0.0, 2022-05-06 12:23:59.461
38.0, -285.64794876566157, -201.27206586534157, -206.14328555762768, -206.2274333066307, 0.1600000075995922, 0.11200000531971455, 1.008000047877431, 0.0, 0.0, 0.0, 0.0, 0.0, 1.6518362394612248E9, 0.0, 2022-05-06 12:23:59.461
39.0, -212.76103852922097, -73.06455548433587, -107.98213142063469, -148.93216598546132, 0.1600000075995922, 0.11200000531971455, 1.008000047877431, 0.0, 0.0, 0.0, 0.0, 0.0, 1.6518362394620924E9, 0.0, 2022-05-06 12:23:59.462
39.0, -208.20210048323497, -78.15081942407414, -127.47075008973479, -149.51185047859326, 0.1600000075995922, 0.11200000531971455, 1.008000047877431, 0.0, 0.0, 0.0, 0.0, 0.0, 1.6518362394620924E9, 0.0, 2022-05-06 12:23:59.462
40.0, -259.83141937153414, -191.11823748564348, -207.44851064216346, -190.69188889069483, 0.1600000075995922, 0.11200000531971455, 1.008000047877431, 0.0, 0.0, 0.0, 0.0, 0.0, 1.6518362394762075E9, 0.0, 2022-05-06 12:23:59.476
40.0, -271.8551977290772, -182.44540948839858, -184.37706781551242, -171.7679951149039, 0.1600000075995922, 0.11200000531971455, 1.008000047877431, 0.0, 0.0, 0.0, 0.0, 0.0, 1.6518362394762075E9, 0.0, 2022-05-06 12:23:59.476
41.0, -207.16988809546456, -64.33562898775563, -104.76581745874137, -133.4115811693482, 0.1600000075995922, 0.11200000531971455, 1.008000047877431, 0.0, 0.0, 0.0, 0.0, 0.0, 1.651836239491136E9, 0.0, 2022-05-06 12:23:59.491
41.0, -191.01352028688416, -75.04296256089583, -125.5409617125988, -152.096121347975, 0.1600000075995922, 0.11200000531971455, 1.008000047877431, 0.0, 0.0, 0.0, 0.0, 0.0, 1.651836239491136E9, 0.0, 2022-05-06 12:23:59.491
42.0, -261.2937202542089, -190.43383579375222, -211.0986529989168, -196.52613282157108, 0.1600000075995922, 0.11200000531971455, 1.008000047877431, 0.0, 0.0, 0.0, 0.0, 0.0, 1.6518362394921482E9, 0.0, 2022-05-06 12:23:59.492
42.0, -292.3760287859477, -206.79589809989557, -208.73877612687647, -214.0438242140226, 0.1600000075995922, 0.11200000531971455, 1.008000047877431, 0.0, 0.0, 0.0, 0.0, 0.0, 1.6518362394921482E9, 0.0, 2022-05-06 12:23:59.492
43.0, -226.44533246709034, -79.22791061131284, -112.04366277251393, -154.37746032094583, 0.1600000075995922, 0.11200000531971455, 1.008000047877431, 0.0, 0.0, 0.0, 0.0, 0.0, 1.651836239506188E9, 0.0, 2022-05-06 12:23:59.506
43.0, -200.2959519769065, -79.27278941078112, -121.22511716373265, -144.73599823517725, 0.1600000075995922, 0.11200000531971455, 1.008000047877431, 0.0, 0.0, 0.0, 0.0, 0.0, 1.651836239506188E9, 0.0, 2022-05-06 12:23:59.506
44.0, -259.41629047645256, -195.63977653207257, -214.46082305908203, -199.68260838417336, 0.1600000075995922, 0.11200000531971455, 1.008000047877431, 0.0, 0.0, 0.0, 0.0, 0.0, 1.651836239521196E9, 0.0, 2022-05-06 12:23:59.521
44.0, -273.61295070825145, -193.32477845950052, -191.5726353302598, -196.30547872418538, 0.1600000075995922, 0.11200000531971455, 1.008000047877431, 0.0, 0.0, 0.0, 0.0, 0.0, 1.651836239521196E9, 0.0, 2022-05-06 12:23:59.521
45.0, -198.2240474014543, -56.07792988559231, -87.41642156429589, -116.18934187339619, 0.1600000075995922, 0.11200000531971455, 1.008000047877431, 0.0, 0.0, 0.0, 0.0, 0.0, 1.6518362395221395E9, 0.0, 2022-05-06 12:23:59.522
45.0, -204.83619052311406, -74.81482866359875, -126.03088860679418, -130.84600979974493, 0.1600000075995922, 0.11200000531971455, 1.008000047877431, 0.0, 0.0, 0.0, 0.0, 0.0, 1.6518362395221395E9, 0.0, 2022-05-06 12:23:59.522
46.0, -256.5066483109258, -189.48764110496268, -212.45249678287655, -204.6379758254625, 0.1600000075995922, 0.11200000531971455, 1.008000047877431, 0.0, 0.0, 0.0, 0.0, 0.0, 1.651836239536232E9, 0.0, 2022-05-06 12:23:59.536
46.0, -278.42620195122436, -199.73496698355302, -203.70861068647355, -209.69058066559955, 0.1600000075995922, 0.11200000531971455, 1.008000047877431, 0.0, 0.0, 0.0, 0.0, 0.0, 1.651836239536232E9, 0.0, 2022-05-06 12:23:59.536
47.0, -211.15662144823, -75.47679095575586, -110.33826839271933, -154.18298552324995, 0.1600000075995922, 0.11200000531971455, 1.008000047877431, 0.0, 0.0, 0.0, 0.0, 0.0, 1.6518362395511937E9, 0.0, 2022-05-06 12:23:59.551
47.0, -195.71831443114206, -82.01039617834613, -119.60574048291892, -138.87557500461116, 0.1600000075995922, 0.11200000531971455, 1.008000047877431, 0.0, 0.0, 0.0, 0.0, 0.0, 1.6518362395511937E9, 0.0, 2022-05-06 12:23:59.551
48.0, -268.3696109703742, -192.2963059716858, -204.12747948151082, -185.98709474643692, 0.1600000075995922, 0.11200000531971455, 1.008000047877431, 0.0, 0.0, 0.0, 0.0, 0.0, 1.6518362395521522E9, 0.0, 2022-05-06 12:23:59.552
48.0, -274.02059980342165, -192.50574036920443, -197.12264686450362, -199.68634828412905, 0.1600000075995922, 0.11200000531971455, 1.008000047877431, 0.0, 0.0, 0.0, 0.0, 0.0, 1.6518362395521522E9, 0.0, 2022-05-06 12:23:59.552
49.0, -220.77938403422013, -72.78780288761482, -109.32101560477167, -154.78510941611603, 0.1600000075995922, 0.11200000531971455, 1.008000047877431, 0.0, 0.0, 0.0, 0.0, 0.0, 1.6518362395662248E9, 0.0, 2022-05-06 12:23:59.566
49.0, -195.17976883752272, -78.14707952411845, -115.92941882647574, -135.50592514453456, 0.1600000075995922, 0.11200000531971455, 1.008000047877431, 0.0, 0.0, 0.0, 0.0, 0.0, 1.6518362395662248E9, 0.0, 2022-05-06 12:23:59.566
50.0, -243.32724086707458, -186.1853094440885, -200.60075382329524, -179.31137332553044, 0.1600000075995922, 0.11200000531971455, 1.0240000486373901, 0.0, 0.0, 0.0, 0.0, 0.0, 1.6518362395811405E9, 0.0, 2022-05-06 12:23:59.581
50.0, -276.3056786763482, -200.6288030729629, -203.12518629338592, -191.6231239796616, 0.1600000075995922, 0.11200000531971455, 1.0240000486373901, 0.0, 0.0, 0.0, 0.0, 0.0, 1.6518362395811405E9, 0.0, 2022-05-06 12:23:59.581
51.0, -214.72822590591386, -61.220292324665934, -99.47385902144015, -135.3002306469716, 0.1600000075995922, 0.12800000607967377, 1.0240000486373901, 0.0, 0.0, 0.0, 0.0, 0.0, 1.6518362395820916E9, 0.0, 2022-05-06 12:23:59.582
51.0, -204.5968369259499, -78.58090791897848, -124.99119641911238, -147.4923045025207, 0.1600000075995922, 0.12800000607967377, 1.0240000486373901, 0.0, 0.0, 0.0, 0.0, 0.0, 1.6518362395820916E9, 0.0, 2022-05-06 12:23:59.582
52.0, -267.5804920797236, -202.65956874890253, -222.80079996027052, -207.72713318886235, 0.1600000075995922, 0.12800000607967377, 1.0240000486373901, 0.0, 0.0, 0.0, 0.0, 0.0, 1.651836239596167E9, 0.0, 2022-05-06 12:23:59.596
52.0, -286.47072675591335, -206.69492080109194, -211.9850092884153, -214.69456680631265, 0.1600000075995922, 0.12800000607967377, 1.0240000486373901, 0.0, 0.0, 0.0, 0.0, 0.0, 1.651836239596167E9, 0.0, 2022-05-06 12:23:59.596
53.0, -219.59383574826643, -79.26156971091405, -108.10928801912814, -145.39796052733436, 0.1600000075995922, 0.12800000607967377, 1.0240000486373901, 0.0, 0.0, 0.0, 0.0, 0.0, 1.6518362396121356E9, 0.0, 2022-05-06 12:23:59.612
53.0, -205.19896081881598, -79.84125420404598, -115.03558273706585, -129.97461311006919, 0.1600000075995922, 0.12800000607967377, 1.0240000486373901, 0.0, 0.0, 0.0, 0.0, 0.0, 1.6518362396121356E9, 0.0, 2022-05-06 12:23:59.612
54.0, -261.0319272573106, -192.24394737230614, -212.62827208079398, -184.72300856141374, 0.1600000075995922, 0.12800000607967377, 1.0240000486373901, 0.0, 0.0, 0.0, 0.0, 0.0, 1.651836239626168E9, 0.0, 2022-05-06 12:23:59.626
54.0, -265.56468600360677, -192.56931866845116, -203.42437828984112, -208.36291618132964, 0.1600000075995922, 0.12800000607967377, 1.0240000486373901, 0.0, 0.0, 0.0, 0.0, 0.0, 1.651836239626168E9, 0.0, 2022-05-06 12:23:59.626
55.0, -225.56271607754752, -75.54036925500259, -112.54480936657637, -168.7311963508837, 0.1600000075995922, 0.12800000607967377, 1.0240000486373901, 0.0, 0.0, 0.0, 0.0, 0.0, 1.6518362396271496E9, 0.0, 2022-05-06 12:23:59.627
55.0, -222.62689461233094, -88.48042310168967, -136.51756808254868, -153.494843931403, 0.1600000075995922, 0.12800000607967377, 1.0240000486373901, 0.0, 0.0, 0.0, 0.0, 0.0, 1.6518362396271496E9, 0.0, 2022-05-06 12:23:59.627
56.0, -264.4053170173429, -200.5203459742479, -218.5111347110942, -193.2574602602981, 0.1600000075995922, 0.12800000607967377, 1.0240000486373901, 0.0, 0.0, 0.0, 0.0, 0.0, 1.6518362396411333E9, 0.0, 2022-05-06 12:23:59.641
56.0, -288.54263133136556, -203.94235443370417, -211.9850092884153, -214.17846061242744, 0.1600000075995922, 0.12800000607967377, 1.0240000486373901, 0.0, 0.0, 0.0, 0.0, 0.0, 1.6518362396411333E9, 0.0, 2022-05-06 12:23:59.641
57.0, -229.7925429274328, -76.52770284330472, -106.99105793237686, -148.236544593703, 0.1600000075995922, 0.12800000607967377, 1.0240000486373901, 0.0, 0.0, 0.0, 0.0, 0.0, 1.6518362396420977E9, 0.0, 2022-05-06 12:23:59.642
57.0, -204.2976449294947, -81.78600218100473, -118.56230839528143, -135.61438224324957, 0.1600000075995922, 0.12800000607967377, 1.0240000486373901, 0.0, 0.0, 0.0, 0.0, 0.0, 1.6518362396420977E9, 0.0, 2022-05-06 12:23:59.642
58.0, -255.90826431801543, -190.60587119171396, -204.6510654753074, -179.5881259222515, 0.1600000075995922, 0.12800000607967377, 1.0240000486373901, 0.0, 0.0, 0.0, 0.0, 0.0, 1.651836239656176E9, 0.0, 2022-05-06 12:23:59.656
58.0, -278.76653284719214, -185.57570575131103, -189.4969908548519, -196.60467072064057, 0.1600000075995922, 0.12800000607967377, 1.0240000486373901, 0.0, 0.0, 0.0, 0.0, 0.0, 1.651836239656176E9, 0.0, 2022-05-06 12:23:59.656
59.0, -218.77105775801465, -70.47654471499845, -102.48447848577052, -140.95869927993044, 0.1600000075995922, 0.12800000607967377, 1.0240000486373901, 0.0, 0.0, 0.0, 0.0, 0.0, 1.6518362396711457E9, 0.0, 2022-05-06 12:23:59.671
59.0, -201.0439319680445, -72.21933809434995, -119.41500558517873, -128.5945900264196, 0.1600000075995922, 0.12800000607967377, 1.0240000486373901, 0.0, 0.0, 0.0, 0.0, 0.0, 1.6518362396711457E9, 0.0, 2022-05-06 12:23:59.671
60.0, -262.6924428376369, -201.64231596095487, -219.9210769943893, -200.3408307763748, 0.1600000075995922, 0.12800000607967377, 1.008000047877431, 0.0, 0.0, 0.0, 0.0, 0.0, 1.6518362396721025E9, 0.0, 2022-05-06 12:23:59.672
60.0, -285.4796532676555, -194.45048834616318, -204.14243908133358, -211.0406845496036, 0.1600000075995922, 0.12800000607967377, 1.008000047877431, 0.0, 0.0, 0.0, 0.0, 0.0, 1.6518362396721025E9, 0.0, 2022-05-06 12:23:59.672
61.0, -222.48851831397042, -68.93570593325421, -105.39038075134158, -146.13846071856096, 0.1600000075995922, 0.12800000607967377, 1.008000047877431, 0.0, 0.0, 0.0, 0.0, 0.0, 1.6518362396861453E9, 0.0, 2022-05-06 12:23:59.686
61.0, -222.85876840958372, -94.32588673243299, -134.25866850931197, -157.22726408718154, 0.1600000075995922, 0.12800000607967377, 1.008000047877431, 0.0, 0.0, 0.0, 0.0, 0.0, 1.6518362396861453E9, 0.0, 2022-05-06 12:23:59.686
62.0, -276.0027467799373, -206.0441782088019, -226.9932278105989, -204.40236212825403, 0.1600000075995922, 0.12800000607967377, 1.008000047877431, 0.0, 0.0, 0.0, 0.0, 0.0, 1.6518362397011302E9, 0.0, 2022-05-06 12:23:59.701
62.0, -285.24029967049137, -193.23502086056396, -200.47733712475747, -198.54193889768794, 0.1600000075995922, 0.12800000607967377, 1.008000047877431, 0.0, 0.0, 0.0, 0.0, 0.0, 1.6518362397011302E9, 0.0, 2022-05-06 12:23:59.701
63.0, -224.22757179336622, -72.45121189160272, -108.63661391288042, -152.33173504518345, 0.1600000075995922, 0.12800000607967377, 1.008000047877431, 0.0, 0.0, 0.0, 0.0, 0.0, 1.6518362397020948E9, 0.0, 2022-05-06 12:23:59.702
63.0, -195.6659558317624, -76.19485174724832, -123.93280473165214, -140.95121948001906, 0.1600000075995922, 0.12800000607967377, 1.008000047877431, 0.0, 0.0, 0.0, 0.0, 0.0, 1.6518362397020948E9, 0.0, 2022-05-06 12:23:59.702
64.0, -275.35200418764725, -198.42226209910586, -211.26694849692285, -187.28484003106132, 0.1600000075995922, 0.12800000607967377, 1.008000047877431, 0.0, 0.0, 0.0, 0.0, 0.0, 1.651836239732165E9, 0.0, 2022-05-06 12:23:59.732
64.0, -290.4612000086345, -195.2957057361491, -196.8384144678712, -192.95078846393153, 0.1600000075995922, 0.12800000607967377, 1.008000047877431, 0.0, 0.0, 0.0, 0.0, 0.0, 1.651836239732165E9, 0.0, 2022-05-06 12:23:59.732
65.0, -211.84102314012125, -68.38968053972349, -103.37831457518041, -143.95809904439375, 0.1600000075995922, 0.12800000607967377, 1.008000047877431, 0.0, 0.0, 0.0, 0.0, 0.0, 1.6518362397330863E9, 0.0, 2022-05-06 12:23:59.733
65.0, -202.02378575643525, -81.722423881758, -130.48510945402086, -145.07632913114503, 0.1600000075995922, 0.12800000607967377, 1.008000047877431, 0.0, 0.0, 0.0, 0.0, 0.0, 1.6518362397330863E9, 0.0, 2022-05-06 12:23:59.733
66.0, -269.0016540628858, -200.30717167677358, -219.67050369735807, -208.66584807774052, 0.1600000075995922, 0.12800000607967377, 1.008000047877431, 0.0, 0.0, 0.0, 0.0, 0.0, 1.6518362397461264E9, 0.0, 2022-05-06 12:23:59.746
66.0, -295.5586836482398, -199.02438599197194, -203.0915271937847, -205.741246312391, 0.1600000075995922, 0.12800000607967377, 1.008000047877431, 0.0, 0.0, 0.0, 0.0, 0.0, 1.6518362397461264E9, 0.0, 2022-05-06 12:23:59.746
67.0, -218.26243136404082, -68.98058473272249, -104.4180067628622, -145.96268542064354, 0.1600000075995922, 0.12800000607967377, 1.008000047877431, 0.0, 0.0, 0.0, 0.0, 0.0, 1.6518362397470756E9, 0.0, 2022-05-06 12:23:59.747
67.0, -208.76308547658846, -82.91545196762308, -122.01049615442753, -136.6428547310643, 0.1600000075995922, 0.12800000607967377, 1.008000047877431, 0.0, 0.0, 0.0, 0.0, 0.0, 1.6518362397470756E9, 0.0, 2022-05-06 12:23:59.747
68.0, -270.4527352456935, -197.5957442088984, -212.51607508212328, -179.63300472171977, 0.1600000075995922, 0.12800000607967377, 1.008000047877431, 0.0, 0.0, 0.0, 0.0, 0.0, 1.6518362397611449E9, 0.0, 2022-05-06 12:23:59.761
68.0, -291.14186180057004, -196.27555952453986, -205.14847216941416, -195.99506702786312, 0.1600000075995922, 0.12800000607967377, 1.008000047877431, 0.0, 0.0, 0.0, 0.0, 0.0, 1.6518362397611449E9, 0.0, 2022-05-06 12:23:59.761
69.0, -231.06036901241168, -73.569441978354, -107.42862622719258, -151.41545955603942, 0.1600000075995922, 0.12800000607967377, 1.008000047877431, 0.0, 0.0, 0.0, 0.0, 0.0, 1.651836239762098E9, 0.0, 2022-05-06 12:23:59.762
69.0, -217.50323167303577, -89.74076938675717, -135.9154441896826, -165.30170809151605, 0.1600000075995922, 0.12800000607967377, 1.008000047877431, 0.0, 0.0, 0.0, 0.0, 0.0, 1.651836239762098E9, 0.0, 2022-05-06 12:23:59.762
70.0, -260.0034547694959, -196.8178450181149, -220.35490538924932, -204.99700622120872, 0.1600000075995922, 0.12800000607967377, 1.008000047877431, 0.0, 0.0, 0.0, 0.0, 0.0, 1.65183623977619E9, 0.0, 2022-05-06 12:23:59.776
70.0, -281.5938972136937, -201.14490926684812, -203.33088079094887, -206.9305344983004, 0.1600000075995922, 0.12800000607967377, 1.008000047877431, 0.0, 0.0, 0.0, 0.0, 0.0, 1.65183623977619E9, 0.0, 2022-05-06 12:23:59.776
71.0, -227.21949175791815, -69.17879943037406, -105.4950979501009, -143.22133875312284, 0.1600000075995922, 0.11200000531971455, 1.008000047877431, 0.0, 0.0, 0.0, 0.0, 0.0, 1.651836239791212E9, 0.0, 2022-05-06 12:23:59.791
71.0, -199.6713886843063, -78.10594062460586, -122.78465544525534, -140.57348958449438, 0.1600000075995922, 0.11200000531971455, 1.008000047877431, 0.0, 0.0, 0.0, 0.0, 0.0, 1.651836239791212E9, 0.0, 2022-05-06 12:23:59.791
72.0, -267.49821428069845, -195.52757953340188, -213.6604844685644, -190.53481309255585, 0.1600000075995922, 0.11200000531971455, 1.008000047877431, 0.0, 0.0, 0.0, 0.0, 0.0, 1.6518362397921588E9, 0.0, 2022-05-06 12:23:59.792
72.0, -286.53804495511577, -195.24708703672513, -201.48711011279374, -199.1515425904654, 0.1600000075995922, 0.11200000531971455, 1.008000047877431, 0.0, 0.0, 0.0, 0.0, 0.0, 1.6518362397921588E9, 0.0, 2022-05-06 12:23:59.792
73.0, -232.6498264935799, -78.75668321689591, -115.69754502922297, -158.28565577464178, 0.1600000075995922, 0.11200000531971455, 1.008000047877431, 0.0, 0.0, 0.0, 0.0, 0.0, 1.6518362398061607E9, 0.0, 2022-05-06 12:23:59.806
73.0, -220.6821466353722, -98.20416298648342, -142.146117515862, -156.56530179502442, 0.1600000075995922, 0.11200000531971455, 1.008000047877431, 0.0, 0.0, 0.0, 0.0, 0.0, 1.6518362398061607E9, 0.0, 2022-05-06 12:23:59.806
74.0, -271.447548633907, -201.98638675687835, -217.19842982664704, -196.40271612303331, 0.1600000075995922, 0.11200000531971455, 1.008000047877431, 0.0, 0.0, 0.0, 0.0, 0.0, 1.6518362398212268E9, 0.0, 2022-05-06 12:23:59.821
74.0, -284.1819079830311, -194.633743443992, -190.06171574816108, -194.61878384416923, 0.1600000075995922, 0.11200000531971455, 1.008000047877431, 0.0, 0.0, 0.0, 0.0, 0.0, 1.6518362398212268E9, 0.0, 2022-05-06 12:23:59.821
75.0, -213.46039982093498, -64.25335118873045, -106.81154273450375, -146.2356981174089, 0.1600000075995922, 0.11200000531971455, 1.008000047877431, 0.0, 0.0, 0.0, 0.0, 0.0, 1.6518362398220868E9, 0.0, 2022-05-06 12:23:59.822
75.0, -196.5223929216154, -81.17639848822728, -129.0564676709473, -155.11796051217243, 0.1600000075995922, 0.11200000531971455, 1.008000047877431, 0.0, 0.0, 0.0, 0.0, 0.0, 1.6518362398220868E9, 0.0, 2022-05-06 12:23:59.822
76.0, -283.27685219375417, -203.80771803529933, -221.89574417099357, -205.66644831327721, 0.1600000075995922, 0.11200000531971455, 1.008000047877431, 0.0, 0.0, 0.0, 0.0, 0.0, 1.6518362398362007E9, 0.0, 2022-05-06 12:23:59.836
76.0, -289.94883371470496, -195.7033548313193, -201.60304701142013, -208.6695879776962, 0.1600000075995922, 0.11200000531971455, 1.008000047877431, 0.0, 0.0, 0.0, 0.0, 0.0, 1.6518362398362007E9, 0.0, 2022-05-06 12:23:59.836
77.0, -210.4909192561172, -65.5286570736207, -93.83782978821546, -134.2717581591569, 0.1600000075995922, 0.11200000531971455, 1.008000047877431, 0.0, 0.0, 0.0, 0.0, 0.0, 1.6518362398512068E9, 0.0, 2022-05-06 12:23:59.851
77.0, -201.2645860654302, -81.86454008007422, -123.51393593661487, -128.40011522872373, 0.1600000075995922, 0.11200000531971455, 1.008000047877431, 0.0, 0.0, 0.0, 0.0, 0.0, 1.6518362398512068E9, 0.0, 2022-05-06 12:23:59.851
78.0, -266.7689337893389, -193.02932636300102, -216.26345483772457, -193.67258915537968, 0.1600000075995922, 0.11200000531971455, 1.008000047877431, 0.0, 0.0, 0.0, 0.0, 0.0, 1.6518362398521552E9, 0.0, 2022-05-06 12:23:59.852
78.0, -284.20434738276526, -183.87779117142782, -191.20986503455788, -178.83266613120213, 0.1600000075995922, 0.11200000531971455, 1.008000047877431, 0.0, 0.0, 0.0, 0.0, 0.0, 1.6518362398521552E9, 0.0, 2022-05-06 12:23:59.852
79.0, -224.48188499035314, -69.51913032634184, -110.66363968886435, -162.05173503002152, 0.1600000075995922, 0.11200000531971455, 1.008000047877431, 0.0, 0.0, 0.0, 0.0, 0.0, 1.651836239866216E9, 0.0, 2022-05-06 12:23:59.866
79.0, -211.38475534552708, -93.04310104763135, -136.65220448095351, -159.84893395612016, 0.1600000075995922, 0.11200000531971455, 1.008000047877431, 0.0, 0.0, 0.0, 0.0, 0.0, 1.651836239866216E9, 0.0, 2022-05-06 12:23:59.866
80.0, -268.4892877689563, -202.77176574757323, -227.53551330417395, -200.61010357318446, 0.1600000075995922, 0.11200000531971455, 1.008000047877431, 0.0, 0.0, 0.0, 0.0, 0.0, 1.651836239898147E9, 0.0, 2022-05-06 12:23:59.898
80.0, -294.1188221652992, -205.69636751292273, -213.4398303711787, -225.10644828295335, 0.1600000075995922, 0.11200000531971455, 1.008000047877431, 0.0, 0.0, 0.0, 0.0, 0.0, 1.651836239898147E9, 0.0, 2022-05-06 12:23:59.898
81.0, -233.1247937879525, -85.61191983567551, -121.3148747626692, -160.12568655284122, 0.1600000075995922, 0.11200000531971455, 1.008000047877431, 0.0, 0.0, 0.0, 0.0, 0.0, 1.6518362398990912E9, 0.0, 2022-05-06 12:23:59.899
81.0, -227.61592115322128, -98.67913028085604, -142.23961501475424, -161.92457843152806, 0.1600000075995922, 0.11200000531971455, 1.008000047877431, 0.0, 0.0, 0.0, 0.0, 0.0, 1.6518362398990912E9, 0.0, 2022-05-06 12:23:59.899
82.0, -285.36371636902913, -205.66644831327721, -227.09046520944685, -204.40236212825403, 0.1600000075995922, 0.11200000531971455, 1.008000047877431, 0.0, 0.0, 0.0, 0.0, 0.0, 1.651836239900211E9, 0.0, 2022-05-06 12:23:59.900
82.0, -291.3363365982659, -197.74908010708168, -202.7998149972409, -205.87962261075154, 0.1600000075995922, 0.11200000531971455, 1.008000047877431, 0.0, 0.0, 0.0, 0.0, 0.0, 1.651836239900211E9, 0.0, 2022-05-06 12:23:59.900
83.0, -220.59238903643563, -73.7564369761385, -108.02701022010297, -145.78317022277042, 0.1600000075995922, 0.11200000531971455, 1.008000047877431, 0.0, 0.0, 0.0, 0.0, 0.0, 1.6518362399010863E9, 0.0, 2022-05-06 12:23:59.901
83.0, -210.66669455403462, -80.63411299465224, -115.04680243693292, -126.15617525530979, 0.1600000075995922, 0.11200000531971455, 1.008000047877431, 0.0, 0.0, 0.0, 0.0, 0.0, 1.6518362399010863E9, 0.0, 2022-05-06 12:23:59.901
84.0, -267.2850399832241, -191.83629827713594, -213.55576726980507, -191.52588658081368, 0.1600000075995922, 0.11200000531971455, 1.008000047877431, 0.0, 0.0, 0.0, 0.0, 0.0, 1.651836239911151E9, 0.0, 2022-05-06 12:23:59.911
84.0, -281.5602381140925, -192.0008538751863, -197.10020746476948, -196.3727969233878, 0.1600000075995922, 0.11200000531971455, 1.008000047877431, 0.0, 0.0, 0.0, 0.0, 0.0, 1.651836239911151E9, 0.0, 2022-05-06 12:23:59.911
85.0, -211.54183114366606, -77.84788752766326, -114.61671394202858, -159.48616366041824, 0.1600000075995922, 0.11200000531971455, 1.008000047877431, 0.0, 0.0, 0.0, 0.0, 0.0, 1.6518362399261456E9, 0.0, 2022-05-06 12:23:59.926
85.0, -215.77165799355134, -82.37690637400374, -125.17819141689688, -153.4200459322892, 0.1600000075995922, 0.11200000531971455, 1.008000047877431, 0.0, 0.0, 0.0, 0.0, 0.0, 1.6518362399261456E9, 0.0, 2022-05-06 12:23:59.926
86.0, -267.31495918286964, -198.336244400125, -215.16392425075173, -189.76065380172804, 0.1600000075995922, 0.11200000531971455, 1.008000047877431, 0.0, 0.0, 0.0, 0.0, 0.0, 1.6518362399411647E9, 0.0, 2022-05-06 12:23:59.941
86.0, -276.53381257364526, -186.18904934404418, -191.15376653522253, -177.27686774963513, 0.1600000075995922, 0.11200000531971455, 1.008000047877431, 0.0, 0.0, 0.0, 0.0, 0.0, 1.6518362399411647E9, 0.0, 2022-05-06 12:23:59.941
87.0, -220.14360104175285, -66.0859021670185, -109.96801829710603, -154.6093341181986, 0.1600000075995922, 0.11200000531971455, 1.008000047877431, 0.0, 0.0, 0.0, 0.0, 0.0, 1.6518362399420896E9, 0.0, 2022-05-06 12:23:59.942
87.0, -209.27919167047366, -88.1700114053674, -131.66691784001887, -153.03109633689746, 0.1600000075995922, 0.11200000531971455, 1.008000047877431, 0.0, 0.0, 0.0, 0.0, 0.0, 1.6518362399420896E9, 0.0, 2022-05-06 12:23:59.942
88.0, -263.97148862248287, -197.9659943045117, -220.74011508468539, -195.76319323061034, 0.1600000075995922, 0.11200000531971455, 1.008000047877431, 0.0, 0.0, 0.0, 0.0, 0.0, 1.6518362399561377E9, 0.0, 2022-05-06 12:23:59.956
88.0, -294.4180141617544, -200.32213127659634, -205.75807586219162, -211.9382605389692, 0.1600000075995922, 0.11200000531971455, 1.008000047877431, 0.0, 0.0, 0.0, 0.0, 0.0, 1.6518362399561377E9, 0.0, 2022-05-06 12:23:59.956
89.0, -221.29923012806103, -71.52371670259163, -105.1622468540445, -153.3153287335299, 0.1600000075995922, 0.11200000531971455, 1.008000047877431, 0.0, 0.0, 0.0, 0.0, 0.0, 1.6518362399711788E9, 0.0, 2022-05-06 12:23:59.971
89.0, -205.42709471611306, -85.94103103177622, -125.30908791534603, -140.44633298600093, 0.1600000075995922, 0.11200000531971455, 1.008000047877431, 0.0, 0.0, 0.0, 0.0, 0.0, 1.6518362399711788E9, 0.0, 2022-05-06 12:23:59.971
90.0, -263.2983066304587, -191.0359596866183, -207.62802584003657, -171.61091931676492, 0.1600000075995922, 0.11200000531971455, 1.008000047877431, 0.0, 0.0, 0.0, 0.0, 0.0, 1.6518362399721525E9, 0.0, 2022-05-06 12:23:59.972
90.0, -278.65807574847713, -188.9603152112104, -198.11746025271714, -194.6711424435489, 0.1600000075995922, 0.11200000531971455, 1.008000047877431, 0.0, 0.0, 0.0, 0.0, 0.0, 1.6518362399721525E9, 0.0, 2022-05-06 12:23:59.972
91.0, -222.67177341179922, -75.9442784502171, -114.07442844845355, -162.24994972767308, 0.1600000075995922, 0.11200000531971455, 1.008000047877431, 0.0, 0.0, 0.0, 0.0, 0.0, 1.6518362399861572E9, 0.0, 2022-05-06 12:23:59.986
91.0, -226.0489030717872, -105.90461699524894, -146.92944955918938, -161.056921641808, 0.1600000075995922, 0.11200000531971455, 1.008000047877431, 0.0, 0.0, 0.0, 0.0, 0.0, 1.6518362399861572E9, 0.0, 2022-05-06 12:23:59.986
92.0, -274.8957363930531, -211.1229623486288, -220.6279180860147, -196.01002662768587, 0.1600000075995922, 0.11200000531971455, 1.008000047877431, 0.0, 0.0, 0.0, 0.0, 0.0, 1.6518362400011911E9, 0.0, 2022-05-06 12:24:00.001
92.0, -285.1879410711117, -193.4407153581269, -206.41255835443735, -198.9682874926366, 0.1600000075995922, 0.11200000531971455, 1.008000047877431, 0.0, 0.0, 0.0, 0.0, 0.0, 1.6518362400011911E9, 0.0, 2022-05-06 12:24:00.001
93.0, -228.8687876383774, -79.85995370382443, -121.03812216594815, -157.33572118589655, 0.1600000075995922, 0.11200000531971455, 1.008000047877431, 0.0, 0.0, 0.0, 0.0, 0.0, 1.651836240002145E9, 0.0, 2022-05-06 12:24:00.002
93.0, -195.80807203007862, -87.63146581174806, -128.686217575334, -144.3059097402729, 0.1600000075995922, 0.11200000531971455, 1.008000047877431, 0.0, 0.0, 0.0, 0.0, 0.0, 1.651836240002145E9, 0.0, 2022-05-06 12:24:00.002
94.0, -265.4038703055121, -200.87937636999413, -220.1454709917307, -192.08687157416716, 0.1600000075995922, 0.11200000531971455, 1.008000047877431, 0.0, 0.0, 0.0, 0.0, 0.0, 1.6518362400161579E9, 0.0, 2022-05-06 12:24:00.016
94.0, -289.0400380254723, -197.76403970690444, -202.93819129560143, -210.57319705514237, 0.1600000075995922, 0.11200000531971455, 1.008000047877431, 0.0, 0.0, 0.0, 0.0, 0.0, 1.6518362400161579E9, 0.0, 2022-05-06 12:24:00.016
95.0, -214.7469254056923, -70.73085791198537, -100.23679861240089, -134.60834915516898, 0.1600000075995922, 0.11200000531971455, 1.008000047877431, 0.0, 0.0, 0.0, 0.0, 0.0, 1.651836240048205E9, 0.0, 2022-05-06 12:24:00.048
95.0, -206.75849910033867, -77.05128883710131, -126.00096940714866, -130.7151133012958, 0.1600000075995922, 0.11200000531971455, 1.008000047877431, 0.0, 0.0, 0.0, 0.0, 0.0, 1.651836240048205E9, 0.0, 2022-05-06 12:24:00.048
96.0, -266.0284335981123, -197.06467841519043, -217.78933401964605, -204.09195043193176, 0.1600000075995922, 0.11200000531971455, 1.008000047877431, 0.0, 0.0, 0.0, 0.0, 0.0, 1.651836240049112E9, 0.0, 2022-05-06 12:24:00.049
96.0, -281.1825082185678, -197.76403970690444, -205.54864146467298, -203.65812203707173, 0.1600000075995922, 0.11200000531971455, 1.008000047877431, 0.0, 0.0, 0.0, 0.0, 0.0, 1.651836240049112E9, 0.0, 2022-05-06 12:24:00.049
97.0, -222.28282381640747, -76.66233924170956, -113.08335496019572, -151.61741415364668, 0.1600000075995922, 0.11200000531971455, 1.008000047877431, 0.0, 0.0, 0.0, 0.0, 0.0, 1.6518362400500944E9, 0.0, 2022-05-06 12:24:00.050
97.0, -198.65787579631433, -88.78709489805624, -134.3222468085587, -153.47614443162456, 0.1600000075995922, 0.11200000531971455, 1.008000047877431, 0.0, 0.0, 0.0, 0.0, 0.0, 1.6518362400500944E9, 0.0, 2022-05-06 12:24:00.050
98.0, -277.4388683629222, -195.61733713233843, -217.5462405225262, -192.06069227447733, 0.1600000075995922, 0.11200000531971455, 1.008000047877431, 0.0, 0.0, 0.0, 0.0, 0.0, 1.6518362400510828E9, 0.0, 2022-05-06 12:24:00.051
98.0, -284.858829875011, -191.35385118285194, -194.6879719933495, -202.2220004540868, 0.1600000075995922, 0.11200000531971455, 1.008000047877431, 0.0, 0.0, 0.0, 0.0, 0.0, 1.6518362400510828E9, 0.0, 2022-05-06 12:24:00.051
99.0, -210.08701006090268, -71.12354740733281, -99.5299575207755, -136.47829913301393, 0.1600000075995922, 0.11200000531971455, 1.008000047877431, 0.0, 0.0, 0.0, 0.0, 0.0, 1.6518362400611813E9, 0.0, 2022-05-06 12:24:00.061
99.0, -205.0830239201896, -75.37955355690792, -123.30076163914055, -133.51255846815184, 0.1600000075995922, 0.11200000531971455, 1.008000047877431, 0.0, 0.0, 0.0, 0.0, 0.0, 1.6518362400611813E9, 0.0, 2022-05-06 12:24:00.061
100.0, -274.06173870293424, -205.81230441154912, -226.98948791064322, -208.86780267534778, 0.1600000075995922, 0.11200000531971455, 1.008000047877431, 0.0, 0.0, 0.0, 0.0, 0.0, 1.6518362400761657E9, 0.0, 2022-05-06 12:24:00.076
100.0, -283.97995338542387, -195.30692543601617, -196.5728815710172, -204.08447063202038, 0.1600000075995922, 0.11200000531971455, 1.008000047877431, 0.0, 0.0, 0.0, 0.0, 0.0, 1.6518362400761657E9, 0.0, 2022-05-06 12:24:00.076
0.0, -224.39586729137227, -83.34741041250527, -121.25503636337817, -156.02862615138292, 0.1600000075995922, 0.11200000531971455, 1.008000047877431, 0.0, 0.0, 0.0, 0.0, 0.0, 1.6518362400771651E9, 0.0, 2022-05-06 12:24:00.077
1.0, -218.5653632604517, -104.60126186069101, -143.1745900036767, -148.103778145276, 0.1600000075995922, 0.11200000531971455, 1.008000047877431, 0.0, 0.0, 0.0, 0.0, 0.0, 1.6518362400911577E9, 0.0, 2022-05-06 12:24:00.091
1.0, -271.0361596387811, -196.69629826955497, -217.52006122283638, -192.00272382516414, 0.1600000075995922, 0.11200000531971455, 1.008000047877431, 0.0, 0.0, 0.0, 0.0, 0.0, 1.6518362400911577E9, 0.0, 2022-05-06 12:24:00.091
2.0, -270.6958287428133, -190.63392044138163, -201.6105268113315, -208.37974573113024, 0.1600000075995922, 0.11200000531971455, 1.008000047877431, 0.0, 0.0, 0.0, 0.0, 0.0, 1.651836240106152E9, 0.0, 2022-05-06 12:24:00.106
2.0, -220.5288107371889, -68.6271641869098, -107.3126893285662, -153.5864714803174, 0.1600000075995922, 0.11200000531971455, 1.008000047877431, 0.0, 0.0, 0.0, 0.0, 0.0, 1.651836240106152E9, 0.0, 2022-05-06 12:24:00.106
3.0, -219.526517549064, -96.0107116624713, -136.74196207989007, -152.83475158922374, 0.1600000075995922, 0.11200000531971455, 1.008000047877431, 0.0, 0.0, 0.0, 0.0, 0.0, 1.6518362401071017E9, 0.0, 2022-05-06 12:24:00.107
3.0, -275.72599418321624, -209.3558596195653, -222.44924936443567, -202.08175420574844, 0.1600000075995922, 0.11200000531971455, 1.008000047877431, 0.0, 0.0, 0.0, 0.0, 0.0, 1.6518362401071017E9, 0.0, 2022-05-06 12:24:00.107
4.0, -285.01590567315, -191.86060762684792, -199.7218773337081, -199.17959184013307, 0.1600000075995922, 0.11200000531971455, 1.008000047877431, 0.0, 0.0, 0.0, 0.0, 0.0, 1.65183624012114E9, 0.0, 2022-05-06 12:24:00.121
4.0, -208.12356258416548, -64.59555203467607, -93.27310489490628, -125.67933801095933, 0.1600000075995922, 0.11200000531971455, 1.008000047877431, 0.0, 0.0, 0.0, 0.0, 0.0, 1.65183624012114E9, 0.0, 2022-05-06 12:24:00.121
5.0, -201.42914166348055, -82.16186212655157, -120.00216987822205, -123.8393072327599, 0.1600000075995922, 0.11200000531971455, 1.008000047877431, 0.0, 0.0, 0.0, 0.0, 0.0, 1.6518362401361756E9, 0.0, 2022-05-06 12:24:00.136
5.0, -267.02324698632583, -195.43595198448747, -215.87450524233282, -197.03662916552275, 0.1600000075995922, 0.11200000531971455, 1.008000047877431, 0.0, 0.0, 0.0, 0.0, 0.0, 1.6518362401361756E9, 0.0, 2022-05-06 12:24:00.136
6.0, -282.21098070638254, -183.59916862472892, -193.1284337118268, -212.2468022853136, 0.1600000075995922, 0.11200000531971455, 1.008000047877431, 0.0, 0.0, 0.0, 0.0, 0.0, 1.6518362401371508E9, 0.0, 2022-05-06 12:24:00.137
6.0, -216.70663298247382, -74.38287021871656, -112.71310486458242, -156.7429470429197, 0.1600000075995922, 0.11200000531971455, 1.008000047877431, 0.0, 0.0, 0.0, 0.0, 0.0, 1.6518362401371508E9, 0.0, 2022-05-06 12:24:00.137
7.0, -203.84885693481192, -89.17043464351445, -134.6887570042163, -153.86696397699416, 0.1600000075995922, 0.11200000531971455, 1.008000047877431, 0.0, 0.0, 0.0, 0.0, 0.0, 1.6518362401512084E9, 0.0, 2022-05-06 12:24:00.151
7.0, -283.16465519508347, -203.3570600906387, -223.23462835513055, -202.49688310083002, 0.1600000075995922, 0.11200000531971455, 1.008000047877431, 0.0, 0.0, 0.0, 0.0, 0.0, 1.6518362401512084E9, 0.0, 2022-05-06 12:24:00.151
8.0, -286.5156055553816, -190.6114810416475, -193.30794890969992, -192.93769881408662, 0.1600000075995922, 0.11200000531971455, 1.008000047877431, 0.0, 0.0, 0.0, 0.0, 0.0, 1.651836240166211E9, 0.0, 2022-05-06 12:24:00.166
8.0, -214.642208206933, -72.92056933604181, -107.90733342152089, -144.49477468803525, 0.1600000075995922, 0.11200000531971455, 1.008000047877431, 0.0, 0.0, 0.0, 0.0, 0.0, 1.651836240166211E9, 0.0, 2022-05-06 12:24:00.166
9.0, -211.70264684176072, -91.94544041063637, -136.94765657745302, -146.9930278584361, 0.1600000075995922, 0.11200000531971455, 1.008000047877431, 0.0, 0.0, 0.0, 0.0, 0.0, 1.6518362401671317E9, 0.0, 2022-05-06 12:24:00.167
9.0, -276.1822619778104, -202.3547669025138, -228.79959948919713, -204.18357798084617, 0.1600000075995922, 0.11200000531971455, 1.008000047877431, 0.0, 0.0, 0.0, 0.0, 0.0, 1.6518362401671317E9, 0.0, 2022-05-06 12:24:00.167
10.0, -283.38904919242486, -187.26053068134934, -199.9874102305621, -207.53452834114432, 0.1600000075995922, 0.11200000531971455, 1.008000047877431, 0.0, 0.0, 0.0, 0.0, 0.0, 1.651836240181151E9, 0.0, 2022-05-06 12:24:00.181
10.0, -202.46883385116234, -68.61594448704273, -105.67461314797401, -145.93089627102017, 0.1600000075995922, 0.11200000531971455, 1.008000047877431, 0.0, 0.0, 0.0, 0.0, 0.0, 1.651836240181151E9, 0.0, 2022-05-06 12:24:00.181
11.0, -216.59069608384743, -88.25041925441474, -135.65739109274, -146.98928795848042, 0.1600000075995922, 0.11200000531971455, 1.008000047877431, 0.0, 0.0, 0.0, 0.0, 0.0, 1.6518362401962106E9, 0.0, 2022-05-06 12:24:00.196
11.0, -271.4026698344387, -201.0944206174463, -218.15210431534797, -197.7247707573697, 0.1600000075995922, 0.11200000531971455, 1.008000047877431, 0.0, 0.0, 0.0, 0.0, 0.0, 1.6518362401962106E9, 0.0, 2022-05-06 12:24:00.196
12.0, -282.43163480376825, -184.07787581905723, -191.5314964307472, -189.54186965432018, 0.1600000075995922, 0.11200000531971455, 1.008000047877431, 0.0, 0.0, 0.0, 0.0, 0.0, 1.6518362401970887E9, 0.0, 2022-05-06 12:24:00.197
12.0, -222.74657141091302, -76.30891869589686, -112.98237766139209, -164.50697935093194, 0.1600000075995922, 0.11200000531971455, 1.008000047877431, 0.0, 0.0, 0.0, 0.0, 0.0, 1.6518362401970887E9, 0.0, 2022-05-06 12:24:00.197
13.0, -211.3436164460145, -94.38759508170187, -136.31187358498573, -155.68455535545945, 0.1600000075995922, 0.11200000531971455, 1.008000047877431, 0.0, 0.0, 0.0, 0.0, 0.0, 1.651836240211204E9, 0.0, 2022-05-06 12:24:00.211
13.0, -267.5991915795021, -204.96147717162967, -225.17563643213362, -198.90283924341202, 0.1600000075995922, 0.11200000531971455, 1.008000047877431, 0.0, 0.0, 0.0, 0.0, 0.0, 1.651836240211204E9, 0.0, 2022-05-06 12:24:00.211
14.0, -304.010857548099, -205.8366137612611, -203.6487722871825, -195.04326248914003, 0.1600000075995922, 0.11200000531971455, 1.008000047877431, 0.0, 0.0, 0.0, 0.0, 0.0, 1.6518362402261567E9, 0.0, 2022-05-06 12:24:00.226
14.0, -208.13104238407686, -67.19478250388056, -99.00637152697891, -118.86150039173663, 0.1600000075995922, 0.11200000531971455, 1.008000047877431, 0.0, 0.0, 0.0, 0.0, 0.0, 1.6518362402261567E9, 0.0, 2022-05-06 12:24:00.226
15.0, -198.89722939347848, -97.1177220493555, -147.26230065524578, -170.77131177671254, 0.1600000075995922, 0.11200000531971455, 1.008000047877431, 0.0, 0.0, 0.0, 0.0, 0.0, 1.6518362402270863E9, 0.0, 2022-05-06 12:24:00.227
15.0, -279.177921842318, -212.7666483791545, -234.05041902698576, -221.54045367520303, 0.1600000075995922, 0.11200000531971455, 1.008000047877431, 0.0, 0.0, 0.0, 0.0, 0.0, 1.6518362402270863E9, 0.0, 2022-05-06 12:24:00.227
16.0, -280.79729852313176, -186.28441679291427, -194.0521890008822, -200.54839522391558, 0.1600000075995922, 0.11200000531971455, 1.008000047877431, 0.0, 0.0, 0.0, 0.0, 0.0, 1.6518362402411704E9, 0.0, 2022-05-06 12:24:00.241
16.0, -215.1583144008182, -71.39469015412033, -103.7523045707494, -145.68406287394464, 0.1600000075995922, 0.11200000531971455, 1.008000047877431, 0.0, 0.0, 0.0, 0.0, 0.0, 1.6518362402411704E9, 0.0, 2022-05-06 12:24:00.241
17.0, -201.62361646117643, -87.24438616633415, -126.77512869797647, -137.52360117062926, 0.1600000075995922, 0.11200000531971455, 1.008000047877431, 0.0, 0.0, 0.0, 0.0, 0.0, 1.651836240257168E9, 0.0, 2022-05-06 12:24:00.257
17.0, -271.8439780292101, -206.22182345669717, -223.361784953624, -203.41315858997405, 0.1600000075995922, 0.11200000531971455, 1.008000047877431, 0.0, 0.0, 0.0, 0.0, 0.0, 1.651836240257168E9, 0.0, 2022-05-06 12:24:00.257
18.0, -272.2217079247348, -177.76118479389697, -192.25329712219536, -206.80898774974048, 0.1600000075995922, 0.11200000531971455, 1.008000047877431, 0.0, 0.0, 0.0, 0.0, 0.0, 1.6518362402711396E9, 0.0, 2022-05-06 12:24:00.271
18.0, -216.42988038575277, -71.26753355562687, -106.88634073361754, -164.58177735004574, 0.1600000075995922, 0.11200000531971455, 1.008000047877431, 0.0, 0.0, 0.0, 0.0, 0.0, 1.6518362402711396E9, 0.0, 2022-05-06 12:24:00.271
19.0, -216.1905267885886, -86.94519416987896, -129.32948036771268, -148.50020754057914, 0.1600000075995922, 0.11200000531971455, 1.008000047877431, 0.0, 0.0, 0.0, 0.0, 0.0, 1.6518362402720733E9, 0.0, 2022-05-06 12:24:00.272
19.0, -268.30603267112747, -200.67181192245334, -213.00600197631866, -190.92189273796976, 0.1600000075995922, 0.11200000531971455, 1.008000047877431, 0.0, 0.0, 0.0, 0.0, 0.0, 1.6518362402720733E9, 0.0, 2022-05-06 12:24:00.272
20.0, -282.68594800075516, -190.63766034133732, -199.07861454132944, -203.23364339210093, 0.1600000075995922, 0.11200000531971455, 1.008000047877431, 0.0, 0.0, 0.0, 0.0, 0.0, 1.6518362402861438E9, 0.0, 2022-05-06 12:24:00.286
20.0, -225.22986498149112, -84.3721430003643, -116.04161582514644, -159.0355057157576, 0.1600000075995922, 0.11200000531971455, 1.008000047877431, 0.0, 0.0, 0.0, 0.0, 0.0, 1.6518362402861438E9, 0.0, 2022-05-06 12:24:00.286
21.0, -211.09678304893896, -92.18105410784483, -136.46520948316902, -144.22924179118127, 0.1600000075995922, 0.11200000531971455, 1.008000047877431, 0.0, 0.0, 0.0, 0.0, 0.0, 1.6518362402871196E9, 0.0, 2022-05-06 12:24:00.287
21.0, -268.76230046572164, -202.66891849879175, -219.59196579828858, -195.12180038820952, 0.1600000075995922, 0.11200000531971455, 1.008000047877431, 0.0, 0.0, 0.0, 0.0, 0.0, 1.6518362402871196E9, 0.0, 2022-05-06 12:24:00.287
22.0, -274.64142319606617, -183.2326584290713, -186.7930431868881, -190.3122890451923, 0.1600000075995922, 0.11200000531971455, 1.008000047877431, 0.0, 0.0, 0.0, 0.0, 0.0, 1.6518362403012416E9, 0.0, 2022-05-06 12:24:00.301
22.0, -209.20813357131556, -69.65563667472452, -98.88295482844114, -137.83401286695153, 0.1600000075995922, 0.11200000531971455, 1.008000047877431, 0.0, 0.0, 0.0, 0.0, 0.0, 1.6518362403012416E9, 0.0, 2022-05-06 12:24:00.301
23.0, -212.76103852922097, -90.56915722694248, -132.96466312464327, -137.25806827377528, 0.1600000075995922, 0.11200000531971455, 1.008000047877431, 0.0, 0.0, 0.0, 0.0, 0.0, 1.6518362403161907E9, 0.0, 2022-05-06 12:24:00.316
23.0, -269.1475101611577, -199.51618283614516, -216.6224852334708, -197.92298545502126, 0.1600000075995922, 0.11200000531971455, 1.008000047877431, 0.0, 0.0, 0.0, 0.0, 0.0, 1.6518362403161907E9, 0.0, 2022-05-06 12:24:00.316
24.0, -274.97801419207826, -183.1242013303563, -179.85552876908332, -168.7816850002855, 0.1600000075995922, 0.11200000531971455, 1.008000047877431, 0.0, 0.0, 0.0, 0.0, 0.0, 1.6518362403312252E9, 0.0, 2022-05-06 12:24:00.331
24.0, -202.27435905346647, -60.586379282176495, -89.99695253372192, -121.37471316196024, 0.1600000075995922, 0.11200000531971455, 1.008000047877431, 0.0, 0.0, 0.0, 0.0, 0.0, 1.6518362403312252E9, 0.0, 2022-05-06 12:24:00.331
25.0, -206.2648323061876, -101.1979529010132, -151.0769986100495, -174.94878002721816, 0.1600000075995922, 0.11200000531971455, 1.008000047877431, 0.0, 0.0, 0.0, 0.0, 0.0, 1.651836240332128E9, 0.0, 2022-05-06 12:24:00.332
25.0, -282.929041497875, -213.18551717419177, -230.46759486943483, -220.11181189212948, 0.1600000075995922, 0.11200000531971455, 1.008000047877431, 0.0, 0.0, 0.0, 0.0, 0.0, 1.651836240332128E9, 0.0, 2022-05-06 12:24:00.332
26.0, -287.90684833889827, -196.4606845723465, -202.88957259617746, -207.9870562357828, 0.1600000075995922, 0.11200000531971455, 1.008000047877431, 0.0, 0.0, 0.0, 0.0, 0.0, 1.6518362403461316E9, 0.0, 2022-05-06 12:24:00.346
26.0, -218.11657526576892, -81.372743235901, -118.62962659448385, -163.71412056032568, 0.1600000075995922, 0.11200000531971455, 1.008000047877431, 0.0, 0.0, 0.0, 0.0, 0.0, 1.6518362403461316E9, 0.0, 2022-05-06 12:24:00.346
27.0, -212.8283567284234, -99.1933665247634, -140.83341263141483, -165.06048454437405, 0.1600000075995922, 0.11200000531971455, 1.008000047877431, 0.0, 0.0, 0.0, 0.0, 0.0, 1.651836240347098E9, 0.0, 2022-05-06 12:24:00.347
27.0, -260.5943589624949, -206.59207355231047, -226.37614431791008, -203.56649448815733, 0.1600000075995922, 0.11200000531971455, 1.008000047877431, 0.0, 0.0, 0.0, 0.0, 0.0, 1.651836240347098E9, 0.0, 2022-05-06 12:24:00.347
28.0, -291.0745436013676, -187.62704087700695, -200.1706653283909, -203.14388579316437, 0.1600000075995922, 0.11200000531971455, 1.008000047877431, 0.0, 0.0, 0.0, 0.0, 0.0, 1.6518362403611965E9, 0.0, 2022-05-06 12:24:00.361
28.0, -218.2325121643953, -66.46176211256534, -102.27878398820758, -142.91279700677842, 0.1600000075995922, 0.11200000531971455, 1.008000047877431, 0.0, 0.0, 0.0, 0.0, 0.0, 1.6518362403611965E9, 0.0, 2022-05-06 12:24:00.361
29.0, -207.0015925974585, -92.34560970589519, -134.7261560037732, -152.3672640947625, 0.1600000075995922, 0.11200000531971455, 1.008000047877431, 0.0, 0.0, 0.0, 0.0, 0.0, 1.651836240377243E9, 0.0, 2022-05-06 12:24:00.377
29.0, -273.5867714085616, -208.11795273423195, -222.93543635867536, -199.37780653778464, 0.1600000075995922, 0.11200000531971455, 1.008000047877431, 0.0, 0.0, 0.0, 0.0, 0.0, 1.651836240377243E9, 0.0, 2022-05-06 12:24:00.377
30.0, -276.0364058795385, -182.163047041744, -191.606294429861, -200.60823362320662, 0.1600000075995922, 0.11200000531971455, 1.008000047877431, 0.0, 0.0, 0.0, 0.0, 0.0, 1.6518362403912635E9, 0.0, 2022-05-06 12:24:00.391
30.0, -193.26494006020948, -67.14990370441228, -102.93326648045331, -142.89409750699997, 0.1600000075995922, 0.11200000531971455, 1.008000047877431, 0.0, 0.0, 0.0, 0.0, 0.0, 1.6518362403912635E9, 0.0, 2022-05-06 12:24:00.391
31.0, -218.2661712639965, -92.34560970589519, -134.67753730434924, -138.70914945658296, 0.1600000075995922, 0.11200000531971455, 1.008000047877431, 0.0, 0.0, 0.0, 0.0, 0.0, 1.6518362403920867E9, 0.0, 2022-05-06 12:24:00.392
31.0, -284.6718348772265, -205.0961135700345, -227.08298540953547, -203.2486029919237, 0.1600000075995922, 0.11200000531971455, 1.008000047877431, 0.0, 0.0, 0.0, 0.0, 0.0, 1.6518362403920867E9, 0.0, 2022-05-06 12:24:00.392
32.0, -291.96089989086613, -190.19261224661022, -197.9828238543123, -204.8044013734907, 0.1600000075995922, 0.11200000531971455, 1.008000047877431, 0.0, 0.0, 0.0, 0.0, 0.0, 1.6518362404061449E9, 0.0, 2022-05-06 12:24:00.406
32.0, -223.14300080621615, -74.64840311557055, -106.06356274336576, -141.27098092623055, 0.1600000075995922, 0.11200000531971455, 1.008000047877431, 0.0, 0.0, 0.0, 0.0, 0.0, 1.6518362404061449E9, 0.0, 2022-05-06 12:24:00.406
33.0, -212.3833086336963, -93.80043078865856, -134.5877797054127, -141.35325872525573, 0.1600000075995922, 0.11200000531971455, 1.008000047877431, 0.0, 0.0, 0.0, 0.0, 0.0, 1.6518362404071531E9, 0.0, 2022-05-06 12:24:00.407
33.0, -268.30603267112747, -203.45803738944232, -231.06597886234522, -203.34210049081594, 0.1600000075995922, 0.11200000531971455, 1.008000047877431, 0.0, 0.0, 0.0, 0.0, 0.0, 1.6518362404071531E9, 0.0, 2022-05-06 12:24:00.407
34.0, -283.194574394729, -195.0544821890071, -206.01238905917853, -208.75747562665492, 0.1600000075995922, 0.11200000531971455, 1.008000047877431, 0.0, 0.0, 0.0, 0.0, 0.0, 1.651836240421159E9, 0.0, 2022-05-06 12:24:00.421
34.0, -226.6809461642988, -77.72634077910334, -116.00047692563385, -159.68250840809196, 0.1600000075995922, 0.11200000531971455, 1.008000047877431, 0.0, 0.0, 0.0, 0.0, 0.0, 1.651836240421159E9, 0.0, 2022-05-06 12:24:00.421
35.0, -216.0521504902281, -96.0817697616294, -142.3966908128932, -156.76164654269814, 0.1600000075995922, 0.11200000531971455, 1.008000047877431, 0.0, 0.0, 0.0, 0.0, 0.0, 1.6518362404531393E9, 0.0, 2022-05-06 12:24:00.453
35.0, -265.24305460741743, -193.30046910978854, -219.1020389040932, -192.63850681763142, 0.1600000075995922, 0.11200000531971455, 1.008000047877431, 0.0, 0.0, 0.0, 0.0, 0.0, 1.6518362404531393E9, 0.0, 2022-05-06 12:24:00.453
36.0, -271.4812077335082, -185.009110908024, -194.7926891921088, -203.27104239165783, 0.1600000075995922, 0.11200000531971455, 1.008000047877431, 0.0, 0.0, 0.0, 0.0, 0.0, 1.651836240454199E9, 0.0, 2022-05-06 12:24:00.454
36.0, -234.9049861668609, -80.39288944751024, -119.57956118322909, -164.80991124734282, 0.1600000075995922, 0.11200000531971455, 1.008000047877431, 0.0, 0.0, 0.0, 0.0, 0.0, 1.651836240454199E9, 0.0, 2022-05-06 12:24:00.454
37.0, -230.95191191369668, -110.60380128957331, -158.69517481978983, -168.50867230352014, 0.1600000075995922, 0.11200000531971455, 1.008000047877431, 0.0, 0.0, 0.0, 0.0, 0.0, 1.6518362404552004E9, 0.0, 2022-05-06 12:24:00.455
37.0, -287.57773714279756, -220.92711008246988, -236.54493229743093, -214.38976495992392, 0.1600000075995922, 0.11200000531971455, 1.008000047877431, 0.0, 0.0, 0.0, 0.0, 0.0, 1.6518362404552004E9, 0.0, 2022-05-06 12:24:00.455
38.0, -295.20713305240497, -199.45634443685412, -204.52764877676964, -208.1740512335673, 0.1600000075995922, 0.11200000531971455, 1.008000047877431, 0.0, 0.0, 0.0, 0.0, 0.0, 1.6518362404561405E9, 0.0, 2022-05-06 12:24:00.456
38.0, -227.4925044546835, -81.72055393178016, -116.65121951792389, -160.9615541929379, 0.1600000075995922, 0.11200000531971455, 1.008000047877431, 0.0, 0.0, 0.0, 0.0, 0.0, 1.6518362404561405E9, 0.0, 2022-05-06 12:24:00.456
39.0, -221.94623282039538, -109.99045769684017, -153.88192357681692, -162.637029373087, 0.1600000075995922, 0.11200000531971455, 1.008000047877431, 0.0, 0.0, 0.0, 0.0, 0.0, 1.651836240466247E9, 0.0, 2022-05-06 12:24:00.466
39.0, -266.2191684958525, -207.68038443941623, -223.42910315282643, -206.66313165146858, 0.1600000075995922, 0.11200000531971455, 1.008000047877431, 0.0, 0.0, 0.0, 0.0, 0.0, 1.651836240466247E9, 0.0, 2022-05-06 12:24:00.466
40.0, -285.1991607709788, -180.09862226620317, -186.03758339583874, -191.6137742297724, 0.1600000075995922, 0.11200000531971455, 1.008000047877431, 0.0, 0.0, 0.0, 0.0, 0.0, 1.6518362404811692E9, 0.0, 2022-05-06 12:24:00.481
40.0, -223.012104307767, -73.15992293320596, -115.21509793493897, -146.74993436131626, 0.1600000075995922, 0.11200000531971455, 1.008000047877431, 0.0, 0.0, 0.0, 0.0, 0.0, 1.6518362404811692E9, 0.0, 2022-05-06 12:24:00.481
41.0, -218.344709163066, -95.88355506397784, -137.23562887404114, -153.57899168040603, 0.1600000075995922, 0.11200000531971455, 1.008000047877431, 0.0, 0.0, 0.0, 0.0, 0.0, 1.651836240496148E9, 0.0, 2022-05-06 12:24:00.496
41.0, -280.06427813181654, -210.96401660051197, -221.07670608069748, -199.21699083968997, 0.1600000075995922, 0.11200000531971455, 1.008000047877431, 0.0, 0.0, 0.0, 0.0, 0.0, 1.651836240496148E9, 0.0, 2022-05-06 12:24:00.496
42.0, -278.4860403505154, -174.70194663014263, -181.24303165264428, -188.6068946653977, 0.1600000075995922, 0.11200000531971455, 1.008000047877431, 0.0, 0.0, 0.0, 0.0, 0.0, 1.6518362404970877E9, 0.0, 2022-05-06 12:24:00.497
42.0, -218.453166261781, -67.56129269953817, -106.59462853707373, -136.49138878285885, 0.1600000075995922, 0.11200000531971455, 1.008000047877431, 0.0, 0.0, 0.0, 0.0, 0.0, 1.6518362404970877E9, 0.0, 2022-05-06 12:24:00.497
43.0, -204.77261222386733, -87.9287878582254, -131.689357239753, -132.75148882716894, 0.1600000075995922, 0.11200000531971455, 1.008000047877431, 0.0, 0.0, 0.0, 0.0, 0.0, 1.6518362405112195E9, 0.0, 2022-05-06 12:24:00.511
43.0, -267.0681257857941, -197.0590685652569, -218.70934940874577, -188.15810667071491, 0.1600000075995922, 0.11200000531971455, 1.008000047877431, 0.0, 0.0, 0.0, 0.0, 0.0, 1.6518362405112195E9, 0.0, 2022-05-06 12:24:00.511
44.0, -278.13074985472485, -173.62485544290394, -180.76806435827166, -176.29888391122222, 0.1600000075995922, 0.11200000531971455, 1.008000047877431, 0.0, 0.0, 0.0, 0.0, 0.0, 1.6518362405261881E9, 0.0, 2022-05-06 12:24:00.526
44.0, -211.24637904716656, -61.91030386649072, -99.55239692050964, -135.34323949646205, 0.1600000075995922, 0.11200000531971455, 1.008000047877431, 0.0, 0.0, 0.0, 0.0, 0.0, 1.6518362405261881E9, 0.0, 2022-05-06 12:24:00.526
45.0, -235.40987266087905, -100.307856711559, -150.27292011957616, -173.27330484706908, 0.1600000075995922, 0.11200000531971455, 1.008000047877431, 0.0, 0.0, 0.0, 0.0, 0.0, 1.6518362405272105E9, 0.0, 2022-05-06 12:24:00.527
45.0, -272.1843089251779, -201.89849910791963, -213.41365107148886, -189.35113475658, 0.1600000075995922, 0.11200000531971455, 1.008000047877431, 0.0, 0.0, 0.0, 0.0, 0.0, 1.6518362405272105E9, 0.0, 2022-05-06 12:24:00.527
46.0, -277.1434162664227, -172.84695625212044, -188.58819516561925, -192.28321632184088, 0.1600000075995922, 0.11200000531971455, 1.008000047877431, 0.0, 0.0, 0.0, 0.0, 0.0, 1.6518362405411587E9, 0.0, 2022-05-06 12:24:00.541
46.0, -209.94489386258647, -72.82707183714956, -112.25683706998825, -169.53340489137918, 0.1600000075995922, 0.11200000531971455, 1.008000047877431, 0.0, 0.0, 0.0, 0.0, 0.0, 1.6518362405411587E9, 0.0, 2022-05-06 12:24:00.541
47.0, -227.69819895224646, -111.05632918421179, -152.28498629573733, -170.3412232818082, 0.1600000075995922, 0.11200000531971455, 1.008000047877431, 0.0, 0.0, 0.0, 0.0, 0.0, 1.6518362405562494E9, 0.0, 2022-05-06 12:24:00.556
47.0, -295.9438933436759, -222.64372416213155, -240.06043825577945, -213.60438596922904, 0.1600000075995922, 0.11200000531971455, 1.008000047877431, 0.0, 0.0, 0.0, 0.0, 0.0, 1.6518362405562494E9, 0.0, 2022-05-06 12:24:00.556
48.0, -293.14644817681983, -192.36923402082175, -196.62524017039686, -211.71573649160564, 0.1600000075995922, 0.11200000531971455, 1.008000047877431, 0.0, 0.0, 0.0, 0.0, 0.0, 1.6518362405572011E9, 0.0, 2022-05-06 12:24:00.557
48.0, -238.58878762321547, -84.16644850280136, -118.58100789505988, -162.71556727215648, 0.1600000075995922, 0.11200000531971455, 1.008000047877431, 0.0, 0.0, 0.0, 0.0, 0.0, 1.6518362405572011E9, 0.0, 2022-05-06 12:24:00.557
49.0, -218.1913732648827, -100.96607910376042, -145.00714098196477, -154.110057474114, 0.1600000075995922, 0.11200000531971455, 1.008000047877431, 0.0, 0.0, 0.0, 0.0, 0.0, 1.6518362405711923E9, 0.0, 2022-05-06 12:24:00.571
49.0, -283.24319309415296, -208.67893772758543, -228.8145590890199, -205.15221206936985, 0.1600000075995922, 0.11200000531971455, 1.008000047877431, 0.0, 0.0, 0.0, 0.0, 0.0, 1.6518362405711923E9, 0.0, 2022-05-06 12:24:00.571
50.0, -289.16719462396577, -182.80256993416697, -191.2397842342034, -198.45779114868492, 0.1600000075995922, 0.11200000531971455, 1.008000047877431, 0.0, 0.0, 0.0, 0.0, 0.0, 1.6518362405862849E9, 0.0, 2022-05-06 12:24:00.586
50.0, -227.6869792523794, -71.14037695713341, -112.08480167202652, -150.96854151133448, 0.1600000075995922, 0.11200000531971455, 1.008000047877431, 0.0, 0.0, 0.0, 0.0, 0.0, 1.6518362405862849E9, 0.0, 2022-05-06 12:24:00.586
51.0, -215.17701390059665, -95.59184286743402, -142.38173121307045, -151.98205439932644, 0.1600000075995922, 0.11200000531971455, 1.008000047877431, 0.0, 0.0, 0.0, 0.0, 0.0, 1.6518362405871341E9, 0.0, 2022-05-06 12:24:00.587
51.0, -270.24704074813053, -204.5052093770355, -215.68003044463694, -183.4159135269001, 0.1600000075995922, 0.11200000531971455, 1.008000047877431, 0.0, 0.0, 0.0, 0.0, 0.0, 1.6518362405871341E9, 0.0, 2022-05-06 12:24:00.587
52.0, -280.19143473031, -170.13926868420094, -179.84804896917194, -184.6799997119233, 0.1600000075995922, 0.11200000531971455, 1.008000047877431, 0.0, 0.0, 0.0, 0.0, 0.0, 1.6518362406012025E9, 0.0, 2022-05-06 12:24:00.601
52.0, -218.83463605726138, -70.67288946267217, -108.02701022010297, -147.34457845427096, 0.1600000075995922, 0.11200000531971455, 1.008000047877431, 0.0, 0.0, 0.0, 0.0, 0.0, 1.6518362406012025E9, 0.0, 2022-05-06 12:24:00.601
53.0, -210.06083076121286, -97.85822224058211, -135.41429759562016, -145.78504017274827, 0.1600000075995922, 0.11200000531971455, 1.008000047877431, 0.0, 0.0, 0.0, 0.0, 0.0, 1.6518362406161473E9, 0.0, 2022-05-06 12:24:00.616
53.0, -280.2587529295124, -208.4657634301111, -234.76847981847823, -220.68775648530573, 0.1600000075995922, 0.11200000531971455, 1.008000047877431, 0.0, 0.0, 0.0, 0.0, 0.0, 1.6518362406161473E9, 0.0, 2022-05-06 12:24:00.616
54.0, -287.4804997439496, -184.792196710594, -188.84250836260617, -190.00561724882573, 0.1600000075995922, 0.11200000531971455, 1.008000047877431, 0.0, 0.0, 0.0, 0.0, 0.0, 1.651836240617156E9, 0.0, 2022-05-06 12:24:00.617
54.0, -217.57428977219388, -72.96544813551009, -114.19036534707993, -158.4408616228029, 0.1600000075995922, 0.11200000531971455, 1.008000047877431, 0.0, 0.0, 0.0, 0.0, 0.0, 1.651836240617156E9, 0.0, 2022-05-06 12:24:00.617
55.0, -226.00402427231893, -99.1971064247191, -138.66427065711468, -153.20874158479273, 0.1600000075995922, 0.11200000531971455, 1.008000047877431, 0.0, 0.0, 0.0, 0.0, 0.0, 1.6518362406311612E9, 0.0, 2022-05-06 12:24:00.631
55.0, -280.65518232481554, -204.99887617118657, -223.8853709474206, -199.9462713310495, 0.1600000075995922, 0.11200000531971455, 1.008000047877431, 0.0, 0.0, 0.0, 0.0, 0.0, 1.6518362406311612E9, 0.0, 2022-05-06 12:24:00.631
56.0, -266.6679564905353, -176.88604820426553, -185.43545950297266, -185.39058070350438, 0.1600000075995922, 0.11200000531971455, 1.008000047877431, 0.0, 0.0, 0.0, 0.0, 0.0, 1.651836240663248E9, 0.0, 2022-05-06 12:24:00.663
56.0, -228.9809846370481, -81.9636474289, -117.24586361087859, -157.55076543334872, 0.1600000075995922, 0.11200000531971455, 1.008000047877431, 0.0, 0.0, 0.0, 0.0, 0.0, 1.651836240663248E9, 0.0, 2022-05-06 12:24:00.663
57.0, -226.02646367205307, -102.94448618032038, -146.5853787632659, -159.99292010441422, 0.1600000075995922, 0.11200000531971455, 1.008000047877431, 0.0, 0.0, 0.0, 0.0, 0.0, 1.6518362406640785E9, 0.0, 2022-05-06 12:24:00.664
57.0, -298.8684951090254, -222.75592116080225, -243.6320427134633, -224.1060250448063, 0.1600000075995922, 0.11200000531971455, 1.008000047877431, 0.0, 0.0, 0.0, 0.0, 0.0, 1.6518362406640785E9, 0.0, 2022-05-06 12:24:00.664
58.0, -285.0495647727512, -182.0134510435164, -191.9017465263605, -205.49254296533763, 0.1600000075995922, 0.11200000531971455, 1.008000047877431, 0.0, 0.0, 0.0, 0.0, 0.0, 1.6518362406652377E9, 0.0, 2022-05-06 12:24:00.665
58.0, -229.2726968335919, -79.4803538583219, -113.9435319500044, -157.6330432323739, 0.1600000075995922, 0.11200000531971455, 1.008000047877431, 0.0, 0.0, 0.0, 0.0, 0.0, 1.6518362406652377E9, 0.0, 2022-05-06 12:24:00.665
59.0, -216.65053448313847, -97.82082324102521, -134.59525950532407, -140.94560963008553, 0.1600000075995922, 0.11200000531971455, 1.008000047877431, 0.0, 0.0, 0.0, 0.0, 0.0, 1.651836240666102E9, 0.0, 2022-05-06 12:24:00.666
59.0, -274.68256209557876, -199.2057711398229, -218.802846907638, -182.37248143926263, 0.1600000075995922, 0.11200000531971455, 1.008000047877431, 0.0, 0.0, 0.0, 0.0, 0.0, 1.651836240666102E9, 0.0, 2022-05-06 12:24:00.666
60.0, -276.6684489720501, -170.35992278158665, -181.85637524537742, -184.5678027132526, 0.1600000075995922, 0.11200000531971455, 1.008000047877431, 0.0, 0.0, 0.0, 0.0, 0.0, 1.6518362406761272E9, 0.0, 2022-05-06 12:24:00.676
60.0, -213.53893772000447, -72.70739503856748, -109.86330109834671, -157.40116943512112, 0.1600000075995922, 0.11200000531971455, 1.008000047877431, 0.0, 0.0, 0.0, 0.0, 0.0, 1.6518362406761272E9, 0.0, 2022-05-06 12:24:00.676
61.0, -218.3858480625786, -105.46891865041107, -149.7418543258682, -159.66006900835782, 0.1600000075995922, 0.12800000607967377, 1.008000047877431, 0.0, 0.0, 0.0, 0.0, 0.0, 1.651836240691202E9, 0.0, 2022-05-06 12:24:00.691
61.0, -284.7840318758972, -218.477475611493, -233.48943403363228, -218.45503621175885, 0.1600000075995922, 0.12800000607967377, 1.008000047877431, 0.0, 0.0, 0.0, 0.0, 0.0, 1.651836240691202E9, 0.0, 2022-05-06 12:24:00.691
62.0, -304.36988794384524, -193.39770650863647, -205.2419696683064, -217.89031131844968, 0.1600000075995922, 0.12800000607967377, 1.008000047877431, 0.0, 0.0, 0.0, 0.0, 0.0, 1.6518362407061944E9, 0.0, 2022-05-06 12:24:00.706
62.0, -228.35642134444788, -73.96774132363498, -108.22522491775453, -148.02524024620652, 0.1600000075995922, 0.12800000607967377, 1.008000047877431, 0.0, 0.0, 0.0, 0.0, 0.0, 1.6518362407061944E9, 0.0, 2022-05-06 12:24:00.706
63.0, -217.6752670709975, -100.4574527097866, -142.363031713292, -147.295959754847, 0.1600000075995922, 0.12800000607967377, 1.008000047877431, 0.0, 0.0, 0.0, 0.0, 0.0, 1.6518362407071402E9, 0.0, 2022-05-06 12:24:00.707
63.0, -282.54383180243894, -213.08453987538815, -234.21123472508043, -212.12338558677584, 0.1600000075995922, 0.12800000607967377, 1.008000047877431, 0.0, 0.0, 0.0, 0.0, 0.0, 1.6518362407071402E9, 0.0, 2022-05-06 12:24:00.707
64.0, -287.3047244460322, -186.54246988985687, -198.17729865200818, -206.77158875018358, 0.1600000075995922, 0.12800000607967377, 1.008000047877431, 0.0, 0.0, 0.0, 0.0, 0.0, 1.651836240721137E9, 0.0, 2022-05-06 12:24:00.721
64.0, -199.4058557874523, -70.42979596555233, -107.14439383056015, -146.8060328606516, 0.1600000075995922, 0.12800000607967377, 1.008000047877431, 0.0, 0.0, 0.0, 0.0, 0.0, 1.651836240721137E9, 0.0, 2022-05-06 12:24:00.721
65.0, -236.30370875028893, -110.76087708771229, -145.6616234742105, -152.4009231943637, 0.1600000075995922, 0.12800000607967377, 1.008000047877431, 0.0, 0.0, 0.0, 0.0, 0.0, 1.6518362407361867E9, 0.0, 2022-05-06 12:24:00.736
65.0, -273.4446552102454, -199.81163493264467, -214.2887876611203, -176.39612131007016, 0.1600000075995922, 0.12800000607967377, 1.008000047877431, 0.0, 0.0, 0.0, 0.0, 0.0, 1.6518362407361867E9, 0.0, 2022-05-06 12:24:00.736
66.0, -275.02289299154654, -175.42748722154647, -186.84540178626776, -198.08006125316024, 0.1600000075995922, 0.12800000607967377, 1.008000047877431, 0.0, 0.0, 0.0, 0.0, 0.0, 1.6518362407371051E9, 0.0, 2022-05-06 12:24:00.737
66.0, -228.95106543740258, -77.12795678619295, -117.51513640768826, -169.27535179443657, 0.1600000075995922, 0.12800000607967377, 1.008000047877431, 0.0, 0.0, 0.0, 0.0, 0.0, 1.6518362407371051E9, 0.0, 2022-05-06 12:24:00.737
