%OpenBCI Raw EEG Data
%Number of channels = 4
%Sample Rate = 200 Hz
%Board = OpenBCI_GUI$BoardGanglionBLE
Sample Index, EXG Channel 0, EXG Channel 1, EXG Channel 2, EXG Channel 3, Accel Channel 0, Accel Channel 1, Accel Channel 2, Other, Other, Other, Other, Other, Timestamp, Other, Timestamp (Formatted)
46.0, -48.27462862804532, -125.36144651472569, -93.23944579530507, -54.80823385063559, 0.0, 0.0, 0.0, 0.0, 0.0, 0.0, 0.0, 0.0, 1.6518362722970445E9, 0.0, 2022-05-06 12:24:32.297
46.0, -272.21048822486773, 77.31121188402176, 129.81940726190805, 155.14226986188442, 0.0, 0.0, 0.0, 0.0, 0.0, 0.0, 0.0, 0.0, 1.6518362722970445E9, 0.0, 2022-05-06 12:24:32.297
0.0, -177.55362034635618, -38.13014999823645, -79.76458625495434, -116.63812986807898, 0.0, 0.0, 0.0, 0.0, 0.0, 0.0, 0.0, 0.0, 1.651836272329043E9, 0.0, 2022-05-06 12:24:32.329
1.0, -232.69470529304817, -144.20867234142497, -168.39273540489376, -168.62273925216869, 0.0, 0.04800000227987766, 0.0, 0.0, 0.0, 0.0, 0.0, 0.0, 1.6518362723420644E9, 0.0, 2022-05-06 12:24:32.342
1.0, -303.9136201492511, -236.22891075117514, -239.15912236645818, -226.04516317183152, 0.0, 0.04800000227987766, 0.0, 0.0, 0.0, 0.0, 0.0, 0.0, 1.6518362723420644E9, 0.0, 2022-05-06 12:24:32.342
2.0, -258.4663558877073, -129.15931491972879, -151.76888010185212, -171.3603460197337, 0.0800000037997961, 0.04800000227987766, 0.0, 0.0, 0.0, 0.0, 0.0, 0.0, 1.6518362723590186E9, 0.0, 2022-05-06 12:24:32.359
2.0, -194.15503624966368, -45.112543215509504, -91.94918031059206, -128.2243399308063, 0.0800000037997961, 0.04800000227987766, 0.0, 0.0, 0.0, 0.0, 0.0, 0.0, 1.6518362723590186E9, 0.0, 2022-05-06 12:24:32.359
3.0, -233.36788728507236, -147.95605209702626, -174.32047683466226, -172.4673564066179, 0.0800000037997961, 0.04800000227987766, 0.0, 0.0, 0.0, 0.0, 0.0, 0.0, 1.6518362723600347E9, 0.0, 2022-05-06 12:24:32.360
3.0, -274.83215809380636, -220.008964643348, -233.06682533863932, -210.77889155270532, 0.0800000037997961, 0.04800000227987766, 0.0, 0.0, 0.0, 0.0, 0.0, 0.0, 1.6518362723600347E9, 0.0, 2022-05-06 12:24:32.360
4.0, -268.8894570642151, -128.43377432832494, -160.49406669847667, -180.98684850567952, 0.0800000037997961, 0.04800000227987766, 0.0, 0.0, 0.0, 0.0, 0.0, 0.0, 1.6518362723710692E9, 0.0, 2022-05-06 12:24:32.371
4.0, -195.707094731275, -45.65482870908454, -93.31424379441887, -137.9705192153342, 0.0800000037997961, 0.04800000227987766, 0.0, 0.0, 0.0, 0.0, 0.0, 0.0, 1.6518362723710692E9, 0.0, 2022-05-06 12:24:32.371
5.0, -237.38079993752763, -155.15909941168502, -174.4551132330671, -166.73782967450097, 0.0800000037997961, 0.04800000227987766, 0.0, 0.0, 0.0, 0.0, 0.0, 0.0, 1.6518362723871205E9, 0.0, 2022-05-06 12:24:32.387
5.0, -288.1948206354864, -223.7526044989936, -227.30363950692117, -188.5900651155971, 0.0800000037997961, 0.04800000227987766, 0.0, 0.0, 0.0, 0.0, 0.0, 0.0, 1.6518362723871205E9, 0.0, 2022-05-06 12:24:32.387
6.0, -257.07885300414637, -125.26981896581128, -150.52723331656307, -173.9894956885837, 0.0800000037997961, 0.04800000227987766, 0.0, 0.0, 0.0, 0.0, 0.0, 0.0, 1.651836272402084E9, 0.0, 2022-05-06 12:24:32.402
6.0, -199.2263405895792, -53.76293181302026, -100.1208617137745, -141.88619446894154, 0.0800000037997961, 0.04800000227987766, 0.0, 0.0, 0.0, 0.0, 0.0, 0.0, 1.651836272402084E9, 0.0, 2022-05-06 12:24:32.402
7.0, -223.50577110191807, -149.62030757730827, -171.20514017157257, -169.04908784711733, 0.0800000037997961, 0.04800000227987766, 0.0, 0.0, 0.0, 0.0, 0.0, 0.0, 1.6518362724030135E9, 0.0, 2022-05-06 12:24:32.403
7.0, -284.8625697749667, -229.1978988344781, -233.78488613013178, -218.50926476111636, 0.0800000037997961, 0.04800000227987766, 0.0, 0.0, 0.0, 0.0, 0.0, 0.0, 1.6518362724030135E9, 0.0, 2022-05-06 12:24:32.403
8.0, -256.15509771509096, -129.90355501091108, -153.84452457726002, -178.11086543975398, 0.0800000037997961, 0.04800000227987766, 0.0, 0.0, 0.0, 0.0, 0.0, 0.0, 1.6518362724171083E9, 0.0, 2022-05-06 12:24:32.417
8.0, -204.46220052754506, -54.739045701455325, -104.38808756321669, -137.32351652299985, 0.0800000037997961, 0.04800000227987766, 0.0, 0.0, 0.0, 0.0, 0.0, 0.0, 1.6518362724171083E9, 0.0, 2022-05-06 12:24:32.417
9.0, -226.39297386771068, -148.43849919131026, -164.24144645407796, -143.76736414665356, 0.0800000037997961, 0.04800000227987766, 0.0, 0.0, 0.0, 0.0, 0.0, 0.0, 1.651836272418046E9, 0.0, 2022-05-06 12:24:32.418
9.0, -285.3337971693836, -219.39562105061486, -230.5124736689031, -218.1577141652815, 0.0800000037997961, 0.04800000227987766, 0.0, 0.0, 0.0, 0.0, 0.0, 0.0, 1.651836272418046E9, 0.0, 2022-05-06 12:24:32.418
10.0, -256.30469371331856, -126.7470794483088, -154.94779506418854, -181.97418209398165, 0.0800000037997961, 0.04800000227987766, 0.5120000243186951, 0.0, 0.0, 0.0, 0.0, 0.0, 1.6518362724310713E9, 0.0, 2022-05-06 12:24:32.431
10.0, -205.66270841332152, -52.51006532786414, -95.31509027071297, -138.62126180762425, 0.0800000037997961, 0.04800000227987766, 0.5120000243186951, 0.0, 0.0, 0.0, 0.0, 0.0, 1.6518362724310713E9, 0.0, 2022-05-06 12:24:32.431
11.0, -222.58575571281835, -144.06281624315307, -164.25266615394503, -163.52525561256334, 0.0800000037997961, 0.09600000455975533, 0.5120000243186951, 0.0, 0.0, 0.0, 0.0, 0.0, 1.6518362724471896E9, 0.0, 2022-05-06 12:24:32.447
11.0, -288.55011113127694, -215.1209154012613, -227.3672178061679, -202.3416772526689, 0.0800000037997961, 0.09600000455975533, 0.5120000243186951, 0.0, 0.0, 0.0, 0.0, 0.0, 1.6518362724471896E9, 0.0, 2022-05-06 12:24:32.447
12.0, -249.5840934929438, -121.73935340764001, -152.04937259852886, -170.68342412775382, 0.12800000607967377, 0.09600000455975533, 0.5120000243186951, 0.0, 0.0, 0.0, 0.0, 0.0, 1.6518362724480247E9, 0.0, 2022-05-06 12:24:32.448
12.0, -213.10884922510013, -75.97793754981831, -113.99963044933975, -159.392666161526, 0.12800000607967377, 0.09600000455975533, 0.5120000243186951, 0.0, 0.0, 0.0, 0.0, 0.0, 1.6518362724480247E9, 0.0, 2022-05-06 12:24:32.448
13.0, -223.81244289828464, -155.34609440946952, -176.13806821312755, -169.9541436363943, 0.12800000607967377, 0.09600000455975533, 0.5120000243186951, 0.0, 0.0, 0.0, 0.0, 0.0, 1.6518362724780667E9, 0.0, 2022-05-06 12:24:32.478
13.0, -279.50329313846305, -200.56522477371618, -216.97403582930565, -201.1860481663607, 0.12800000607967377, 0.09600000455975533, 0.5120000243186951, 0.0, 0.0, 0.0, 0.0, 0.0, 1.6518362724780667E9, 0.0, 2022-05-06 12:24:32.478
14.0, -265.9311961992644, -126.35812985291705, -156.2604999486357, -175.19000357436016, 0.12800000607967377, 0.09600000455975533, 0.5120000243186951, 0.0, 0.0, 0.0, 0.0, 0.0, 1.6518362724790072E9, 0.0, 2022-05-06 12:24:32.479
14.0, -223.1617003059946, -97.51602139463648, -132.41489783115685, -168.3572063553147, 0.12800000607967377, 0.09600000455975533, 0.5120000243186951, 0.0, 0.0, 0.0, 0.0, 0.0, 1.6518362724790072E9, 0.0, 2022-05-06 12:24:32.479
15.0, -246.0199688351713, -171.9886492122896, -185.35692160390317, -173.18167729815468, 0.12800000607967377, 0.09600000455975533, 0.5120000243186951, 0.0, 0.0, 0.0, 0.0, 0.0, 1.65183627248001E9, 0.0, 2022-05-06 12:24:32.480
15.0, -276.05510537931696, -208.5199919794686, -224.6670100381598, -198.36242369981483, 0.12800000607967377, 0.09600000455975533, 0.5120000243186951, 0.0, 0.0, 0.0, 0.0, 0.0, 1.65183627248001E9, 0.0, 2022-05-06 12:24:32.480
16.0, -228.19560564635321, -113.52279320498928, -141.40935722459108, -164.30315480334684, 0.12800000607967377, 0.09600000455975533, 0.5120000243186951, 0.0, 0.0, 0.0, 0.0, 0.0, 1.6518362725071237E9, 0.0, 2022-05-06 12:24:32.507
16.0, -223.4908115020953, -91.30030766827986, -127.46327028982341, -157.96402437845245, 0.12800000607967377, 0.09600000455975533, 0.5120000243186951, 0.0, 0.0, 0.0, 0.0, 0.0, 1.6518362725071237E9, 0.0, 2022-05-06 12:24:32.507
17.0, -260.15679066767916, -170.89659842522815, -197.07776806503534, -191.45482848165557, 0.12800000607967377, 0.09600000455975533, 0.5120000243186951, 0.0, 0.0, 0.0, 0.0, 0.0, 1.6518362725230775E9, 0.0, 2022-05-06 12:24:32.523
17.0, -268.01806037453935, -191.63434367952868, -215.23498234990984, -197.72664070734754, 0.12800000607967377, 0.09600000455975533, 0.5120000243186951, 0.0, 0.0, 0.0, 0.0, 0.0, 1.6518362725230775E9, 0.0, 2022-05-06 12:24:32.523
18.0, -247.67300461558625, -117.3337512598373, -150.76658691372722, -172.26166190905496, 0.12800000607967377, 0.09600000455975533, 0.5120000243186951, 0.0, 0.0, 0.0, 0.0, 0.0, 1.65183627252402E9, 0.0, 2022-05-06 12:24:32.524
18.0, -225.39816047949716, -89.90158508485183, -128.3945053787902, -167.26889546820894, 0.12800000607967377, 0.09600000455975533, 0.5120000243186951, 0.0, 0.0, 0.0, 0.0, 0.0, 1.65183627252402E9, 0.0, 2022-05-06 12:24:32.524
19.0, -248.85481300158426, -169.1762444456108, -193.13965341169387, -186.33864534227178, 0.12800000607967377, 0.09600000455975533, 0.5120000243186951, 0.0, 0.0, 0.0, 0.0, 0.0, 1.6518362725250375E9, 0.0, 2022-05-06 12:24:32.525
19.0, -272.06089222664014, -198.80747179454193, -210.75458220299333, -187.93184272339568, 0.12800000607967377, 0.09600000455975533, 0.5120000243186951, 0.0, 0.0, 0.0, 0.0, 0.0, 1.6518362725250375E9, 0.0, 2022-05-06 12:24:32.525
20.0, -245.2046706448309, -111.0320198344998, -140.4743822356686, -161.21773733990267, 0.12800000607967377, 0.09600000455975533, 0.7520000357180834, 0.0, 0.0, 0.0, 0.0, 0.0, 1.6518362725260513E9, 0.0, 2022-05-06 12:24:32.526
20.0, -210.51335865585133, -80.17410530010238, -116.61382051836699, -149.5716888778843, 0.12800000607967377, 0.09600000455975533, 0.7520000357180834, 0.0, 0.0, 0.0, 0.0, 0.0, 1.6518362725260513E9, 0.0, 2022-05-06 12:24:32.526
21.0, -240.06604810571298, -160.30520175071433, -183.22517862915993, -177.8453325429, 0.12800000607967377, 0.09600000455975533, 0.7520000357180834, 0.0, 0.0, 0.0, 0.0, 0.0, 1.651836272552096E9, 0.0, 2022-05-06 12:24:32.552
21.0, -271.9524351279251, -197.43492851080373, -218.3241397133097, -198.8934894935228, 0.12800000607967377, 0.09600000455975533, 0.7520000357180834, 0.0, 0.0, 0.0, 0.0, 0.0, 1.651836272552096E9, 0.0, 2022-05-06 12:24:32.552
22.0, -235.44727166043594, -116.68674856750295, -146.9967677583918, -172.05596741149202, 0.12800000607967377, 0.09600000455975533, 0.7520000357180834, 0.0, 0.0, 0.0, 0.0, 0.0, 1.6518362725530293E9, 0.0, 2022-05-06 12:24:32.553
22.0, -200.65498237265274, -81.94307797914371, -117.72831070516258, -153.34150803321972, 0.12800000607967377, 0.09600000455975533, 0.7520000357180834, 0.0, 0.0, 0.0, 0.0, 0.0, 1.6518362725530293E9, 0.0, 2022-05-06 12:24:32.553
23.0, -246.94372412422672, -163.30460151517764, -182.50337793771178, -164.3218543031253, 0.12800000607967377, 0.09600000455975533, 0.7520000357180834, 0.0, 0.0, 0.0, 0.0, 0.0, 1.6518362725670593E9, 0.0, 2022-05-06 12:24:32.567
23.0, -270.50509384507313, -183.68331637373194, -203.64129248727113, -186.6266176388599, 0.12800000607967377, 0.09600000455975533, 0.7520000357180834, 0.0, 0.0, 0.0, 0.0, 0.0, 1.6518362725670593E9, 0.0, 2022-05-06 12:24:32.567
24.0, -242.51568257668987, -106.07665239321068, -129.05272777099162, -150.3907269681804, 0.12800000607967377, 0.09600000455975533, 0.7520000357180834, 0.0, 0.0, 0.0, 0.0, 0.0, 1.6518362725681393E9, 0.0, 2022-05-06 12:24:32.568
24.0, -210.75645215297118, -74.47449776763096, -120.9109655674547, -155.36105400929227, 0.12800000607967377, 0.09600000455975533, 0.7520000357180834, 0.0, 0.0, 0.0, 0.0, 0.0, 1.6518362725681393E9, 0.0, 2022-05-06 12:24:32.568
25.0, -239.56864141160622, -162.88573272014037, -179.32820287533104, -169.5053556417115, 0.12800000607967377, 0.09600000455975533, 0.7520000357180834, 0.0, 0.0, 0.0, 0.0, 0.0, 1.6518362725811017E9, 0.0, 2022-05-06 12:24:32.581
25.0, -274.68630199553445, -204.34626362891868, -224.46131554059684, -206.02547870902345, 0.12800000607967377, 0.09600000455975533, 0.7520000357180834, 0.0, 0.0, 0.0, 0.0, 0.0, 1.6518362725811017E9, 0.0, 2022-05-06 12:24:32.581
26.0, -244.66986495116726, -119.97038072859868, -147.91678314749151, -173.9483567890711, 0.12800000607967377, 0.09600000455975533, 0.7520000357180834, 0.0, 0.0, 0.0, 0.0, 0.0, 1.651836272613108E9, 0.0, 2022-05-06 12:24:32.613
26.0, -225.00547098414972, -93.11789904674515, -133.20027682185173, -176.52888775849715, 0.12800000607967377, 0.09600000455975533, 0.7520000357180834, 0.0, 0.0, 0.0, 0.0, 0.0, 1.651836272613108E9, 0.0, 2022-05-06 12:24:32.613
27.0, -250.23109618527815, -174.00819518836215, -198.27079615090042, -197.09085771488026, 0.12800000607967377, 0.09600000455975533, 0.7520000357180834, 0.0, 0.0, 0.0, 0.0, 0.0, 1.6518362726140313E9, 0.0, 2022-05-06 12:24:32.614
27.0, -269.1811692607589, -193.84462455334142, -209.8083875142038, -196.75426671886817, 0.12800000607967377, 0.09600000455975533, 0.7520000357180834, 0.0, 0.0, 0.0, 0.0, 0.0, 1.6518362726140313E9, 0.0, 2022-05-06 12:24:32.614
28.0, -239.2058711159043, -111.22275473223999, -142.15359731577337, -177.94256994174793, 0.12800000607967377, 0.09600000455975533, 0.7520000357180834, 0.0, 0.0, 0.0, 0.0, 0.0, 1.651836272615066E9, 0.0, 2022-05-06 12:24:32.615
28.0, -215.65198119496927, -85.14817224116996, -122.08529415354133, -161.63660613493994, 0.12800000607967377, 0.09600000455975533, 0.7520000357180834, 0.0, 0.0, 0.0, 0.0, 0.0, 1.651836272615066E9, 0.0, 2022-05-06 12:24:32.615
29.0, -236.19151175161824, -163.14004591712728, -175.46862612105906, -162.62019982328638, 0.12800000607967377, 0.09600000455975533, 0.7520000357180834, 0.0, 0.0, 0.0, 0.0, 0.0, 1.6518362726160047E9, 0.0, 2022-05-06 12:24:32.616
29.0, -274.6638625958003, -199.49935328634456, -218.78414740785956, -201.6684952606447, 0.12800000607967377, 0.09600000455975533, 0.7520000357180834, 0.0, 0.0, 0.0, 0.0, 0.0, 1.6518362726160047E9, 0.0, 2022-05-06 12:24:32.616
30.0, -241.4685105890967, -109.32662545470521, -134.94681010115892, -164.53502860059962, 0.12800000607967377, 0.09600000455975533, 0.8800000417977571, 0.0, 0.0, 0.0, 0.0, 0.0, 1.6518362726261735E9, 0.0, 2022-05-06 12:24:32.626
30.0, -194.7384606427513, -72.52974979067221, -108.30376281682402, -142.3462021634914, 0.12800000607967377, 0.09600000455975533, 0.8800000417977571, 0.0, 0.0, 0.0, 0.0, 0.0, 1.6518362726261735E9, 0.0, 2022-05-06 12:24:32.626
31.0, -231.03044981276616, -160.01348955417052, -183.35607512760907, -175.94546336540952, 0.12800000607967377, 0.11200000531971455, 0.8800000417977571, 0.0, 0.0, 0.0, 0.0, 0.0, 1.6518362726410813E9, 0.0, 2022-05-06 12:24:32.641
31.0, -285.46469366783276, -196.9300420167856, -216.08393963985145, -196.71686771931127, 0.12800000607967377, 0.11200000531971455, 0.8800000417977571, 0.0, 0.0, 0.0, 0.0, 0.0, 1.6518362726410813E9, 0.0, 2022-05-06 12:24:32.641
32.0, -255.26500152563676, -120.99137341650203, -156.1445630500093, -187.8084260248579, 0.144000006839633, 0.11200000531971455, 0.8800000417977571, 0.0, 0.0, 0.0, 0.0, 0.0, 1.6518362726570868E9, 0.0, 2022-05-06 12:24:32.657
32.0, -229.41481303190812, -88.66367819951847, -124.51622912473977, -163.203624216374, 0.144000006839633, 0.11200000531971455, 0.8800000417977571, 0.0, 0.0, 0.0, 0.0, 0.0, 1.6518362726570868E9, 0.0, 2022-05-06 12:24:32.657
33.0, -254.37864523613825, -169.8793456372805, -191.5314964307472, -184.2592609669082, 0.144000006839633, 0.11200000531971455, 0.8800000417977571, 0.0, 0.0, 0.0, 0.0, 0.0, 1.6518362726580532E9, 0.0, 2022-05-06 12:24:32.658
33.0, -273.2614001124166, -196.6345899202861, -211.7269561914727, -193.63519015582278, 0.144000006839633, 0.11200000531971455, 0.8800000417977571, 0.0, 0.0, 0.0, 0.0, 0.0, 1.6518362726580532E9, 0.0, 2022-05-06 12:24:32.658
34.0, -240.33906080247834, -101.16616375138983, -133.62662541680038, -156.34464769763872, 0.144000006839633, 0.11200000531971455, 0.8800000417977571, 0.0, 0.0, 0.0, 0.0, 0.0, 1.6518362726710725E9, 0.0, 2022-05-06 12:24:32.671
34.0, -212.76851832913235, -83.84668705658987, -113.14319335948676, -138.22483241232112, 0.144000006839633, 0.11200000531971455, 0.8800000417977571, 0.0, 0.0, 0.0, 0.0, 0.0, 1.6518362726710725E9, 0.0, 2022-05-06 12:24:32.671
35.0, -245.432804542128, -169.33706014370546, -190.66009974107146, -170.6909039276652, 0.144000006839633, 0.11200000531971455, 0.8800000417977571, 0.0, 0.0, 0.0, 0.0, 0.0, 1.6518362726870947E9, 0.0, 2022-05-06 12:24:32.687
35.0, -270.82672524126247, -191.7764598778449, -211.9850092884153, -190.35903779463843, 0.144000006839633, 0.11200000531971455, 0.8800000417977571, 0.0, 0.0, 0.0, 0.0, 0.0, 1.6518362726870947E9, 0.0, 2022-05-06 12:24:32.687
36.0, -259.0385605809279, -113.94540189998224, -145.08193898107857, -173.286394496914, 0.144000006839633, 0.11200000531971455, 0.8800000417977571, 0.0, 0.0, 0.0, 0.0, 0.0, 1.65183627268802E9, 0.0, 2022-05-06 12:24:32.688
36.0, -225.4205998792313, -97.32902639685199, -133.68272391613573, -175.41813747165725, 0.144000006839633, 0.11200000531971455, 0.8800000417977571, 0.0, 0.0, 0.0, 0.0, 0.0, 1.65183627268802E9, 0.0, 2022-05-06 12:24:32.688
37.0, -253.48106924677268, -172.30280080856755, -193.07981501240283, -193.22754106065258, 0.144000006839633, 0.11200000531971455, 0.8800000417977571, 0.0, 0.0, 0.0, 0.0, 0.0, 1.6518362727010589E9, 0.0, 2022-05-06 12:24:32.701
37.0, -282.8953823982738, -201.0364521681331, -217.78185421973467, -193.4855941575952, 0.144000006839633, 0.11200000531971455, 0.8800000417977571, 0.0, 0.0, 0.0, 0.0, 0.0, 1.6518362727010589E9, 0.0, 2022-05-06 12:24:32.701
38.0, -255.515574822668, -115.26932648429647, -151.30887240730226, -173.5070485942997, 0.144000006839633, 0.11200000531971455, 0.8800000417977571, 0.0, 0.0, 0.0, 0.0, 0.0, 1.6518362727170796E9, 0.0, 2022-05-06 12:24:32.717
38.0, -220.46523243794218, -88.4318044022657, -123.58125413581729, -165.77667538588867, 0.144000006839633, 0.11200000531971455, 0.8800000417977571, 0.0, 0.0, 0.0, 0.0, 0.0, 1.6518362727170796E9, 0.0, 2022-05-06 12:24:32.717
39.0, -259.2068560789339, -176.48400895902887, -203.48421668913215, -191.74654067819938, 0.144000006839633, 0.11200000531971455, 0.8800000417977571, 0.0, 0.0, 0.0, 0.0, 0.0, 1.6518362727180393E9, 0.0, 2022-05-06 12:24:32.718
39.0, -273.31001881184056, -195.88287002919242, -214.11675226315856, -187.7747669252567, 0.144000006839633, 0.11200000531971455, 0.8800000417977571, 0.0, 0.0, 0.0, 0.0, 0.0, 1.6518362727180393E9, 0.0, 2022-05-06 12:24:32.718
40.0, -239.48262371262535, -113.72100790264085, -138.8063868554309, -157.55637528328225, 0.144000006839633, 0.11200000531971455, 0.9600000455975533, 0.0, 0.0, 0.0, 0.0, 0.0, 1.6518362727310576E9, 0.0, 2022-05-06 12:24:32.731
40.0, -228.0160904484801, -85.0210156426765, -120.06948807742447, -154.88234681496397, 0.144000006839633, 0.11200000531971455, 0.9600000455975533, 0.0, 0.0, 0.0, 0.0, 0.0, 1.6518362727310576E9, 0.0, 2022-05-06 12:24:32.731
41.0, -258.19334319094196, -174.71503627998754, -199.83033443242311, -192.01955337496474, 0.144000006839633, 0.11200000531971455, 0.9600000455975533, 0.0, 0.0, 0.0, 0.0, 0.0, 1.6518362727470646E9, 0.0, 2022-05-06 12:24:32.747
41.0, -281.9604074093513, -201.34686386445537, -212.45997658278793, -192.94330866402015, 0.144000006839633, 0.11200000531971455, 0.9600000455975533, 0.0, 0.0, 0.0, 0.0, 0.0, 1.6518362727470646E9, 0.0, 2022-05-06 12:24:32.747
42.0, -258.8889645827003, -122.89498249394819, -149.50998052861542, -176.01652146456763, 0.1600000075995922, 0.11200000531971455, 0.9600000455975533, 0.0, 0.0, 0.0, 0.0, 0.0, 1.6518362727482462E9, 0.0, 2022-05-06 12:24:32.748
42.0, -233.0574755887501, -85.8026547334157, -124.26565582770854, -154.51583661930636, 0.1600000075995922, 0.11200000531971455, 0.9600000455975533, 0.0, 0.0, 0.0, 0.0, 0.0, 1.6518362727482462E9, 0.0, 2022-05-06 12:24:32.748
43.0, -255.1004459275864, -170.85171962575987, -194.36634059716016, -182.75582118472084, 0.1600000075995922, 0.11200000531971455, 0.9600000455975533, 0.0, 0.0, 0.0, 0.0, 0.0, 1.6518362727610843E9, 0.0, 2022-05-06 12:24:32.761
43.0, -283.83409728715196, -199.5217926860787, -214.41968415956944, -202.19956105435267, 0.1600000075995922, 0.11200000531971455, 0.9600000455975533, 0.0, 0.0, 0.0, 0.0, 0.0, 1.6518362727610843E9, 0.0, 2022-05-06 12:24:32.761
44.0, -247.74032281478867, -109.04613295802847, -138.96346265356988, -167.17913786927238, 0.1600000075995922, 0.11200000531971455, 0.9600000455975533, 0.0, 0.0, 0.0, 0.0, 0.0, 1.6518362727931151E9, 0.0, 2022-05-06 12:24:32.793
44.0, -222.9073871090077, -77.67959202965721, -114.9794842377305, -138.11263541365042, 0.1600000075995922, 0.11200000531971455, 0.9600000455975533, 0.0, 0.0, 0.0, 0.0, 0.0, 1.6518362727931151E9, 0.0, 2022-05-06 12:24:32.793
45.0, -250.01418198784813, -169.2435626448132, -183.61786812450737, -167.29881466785446, 0.1600000075995922, 0.11200000531971455, 0.9600000455975533, 0.0, 0.0, 0.0, 0.0, 0.0, 1.651836272794034E9, 0.0, 2022-05-06 12:24:32.794
45.0, -276.42161557497457, -196.16336252586916, -217.40412432421, -194.1886953492649, 0.1600000075995922, 0.11200000531971455, 0.9600000455975533, 0.0, 0.0, 0.0, 0.0, 0.0, 1.651836272794034E9, 0.0, 2022-05-06 12:24:32.794
46.0, -251.70461676781997, -117.33001135988161, -141.23732182662934, -174.19145028619096, 0.1600000075995922, 0.11200000531971455, 0.9600000455975533, 0.0, 0.0, 0.0, 0.0, 0.0, 1.6518362727950127E9, 0.0, 2022-05-06 12:24:32.795
46.0, -229.4634317313321, -95.20102332206443, -135.96032298915088, -163.96282390737906, 0.1600000075995922, 0.11200000531971455, 0.9600000455975533, 0.0, 0.0, 0.0, 0.0, 0.0, 1.6518362727950127E9, 0.0, 2022-05-06 12:24:32.795
47.0, -262.7822004365735, -180.90457070665434, -207.52704854123294, -210.58441675500944, 0.1600000075995922, 0.11200000531971455, 0.9600000455975533, 0.0, 0.0, 0.0, 0.0, 0.0, 1.6518362727960348E9, 0.0, 2022-05-06 12:24:32.796
47.0, -265.598345103208, -187.46061532897875, -200.23424362763762, -190.21318169636652, 0.1600000075995922, 0.11200000531971455, 0.9600000455975533, 0.0, 0.0, 0.0, 0.0, 0.0, 1.6518362727960348E9, 0.0, 2022-05-06 12:24:32.796
48.0, -252.49747555842623, -110.2541206437163, -134.45688320696354, -158.45021137269214, 0.1600000075995922, 0.11200000531971455, 0.9600000455975533, 0.0, 0.0, 0.0, 0.0, 0.0, 1.651836272806074E9, 0.0, 2022-05-06 12:24:32.806
48.0, -209.42130786878988, -83.25204296363518, -116.60260081849992, -133.90898786345497, 0.1600000075995922, 0.11200000531971455, 0.9600000455975533, 0.0, 0.0, 0.0, 0.0, 0.0, 1.651836272806074E9, 0.0, 2022-05-06 12:24:32.806
49.0, -241.04964179405943, -160.06584815355018, -186.21709859371185, -169.209903545212, 0.1600000075995922, 0.11200000531971455, 0.9600000455975533, 0.0, 0.0, 0.0, 0.0, 0.0, 1.6518362728211193E9, 0.0, 2022-05-06 12:24:32.821
49.0, -289.1933739236556, -207.1511885956861, -223.68715624976903, -216.46353948535398, 0.1600000075995922, 0.11200000531971455, 0.9600000455975533, 0.0, 0.0, 0.0, 0.0, 0.0, 1.6518362728211193E9, 0.0, 2022-05-06 12:24:32.821
50.0, -263.6984759257175, -112.12033072160557, -144.17314329184592, -173.877298689913, 0.1600000075995922, 0.11200000531971455, 0.9920000471174717, 0.0, 0.0, 0.0, 0.0, 0.0, 1.6518362728531296E9, 0.0, 2022-05-06 12:24:32.853
50.0, -222.07338941888884, -86.25518262805417, -125.79153500963002, -156.8383144917898, 0.1600000075995922, 0.11200000531971455, 0.9920000471174717, 0.0, 0.0, 0.0, 0.0, 0.0, 1.6518362728531296E9, 0.0, 2022-05-06 12:24:32.853
51.0, -265.94615579908714, -185.16805665614083, -208.2451093327254, -199.3347976882942, 0.1600000075995922, 0.11200000531971455, 0.9920000471174717, 0.0, 0.0, 0.0, 0.0, 0.0, 1.6518362728540783E9, 0.0, 2022-05-06 12:24:32.854
51.0, -299.5416771010496, -213.62869531894103, -224.94002273492515, -204.16300853108987, 0.1600000075995922, 0.11200000531971455, 0.9920000471174717, 0.0, 0.0, 0.0, 0.0, 0.0, 1.6518362728540783E9, 0.0, 2022-05-06 12:24:32.854
52.0, -261.7051092493348, -115.80413217796013, -151.09569810982794, -175.93050376558676, 0.1600000075995922, 0.11200000531971455, 0.9920000471174717, 0.0, 0.0, 0.0, 0.0, 0.0, 1.6518362728550763E9, 0.0, 2022-05-06 12:24:32.855
52.0, -224.39212739141658, -88.40936500253156, -125.67933801095933, -155.65650610579178, 0.1600000075995922, 0.11200000531971455, 0.9920000471174717, 0.0, 0.0, 0.0, 0.0, 0.0, 1.6518362728550763E9, 0.0, 2022-05-06 12:24:32.855
53.0, -256.96291610552, -176.86921865446493, -197.37322016153485, -191.75776037806645, 0.1600000075995922, 0.11200000531971455, 0.9920000471174717, 0.0, 0.0, 0.0, 0.0, 0.0, 1.651836272856076E9, 0.0, 2022-05-06 12:24:32.856
53.0, -280.95437432127073, -197.0048400158994, -209.53163491748273, -191.31645218329504, 0.1600000075995922, 0.11200000531971455, 0.9920000471174717, 0.0, 0.0, 0.0, 0.0, 0.0, 1.651836272856076E9, 0.0, 2022-05-06 12:24:32.856
54.0, -247.1344590219669, -104.84996520774439, -133.78744111489505, -149.47819137899205, 0.1600000075995922, 0.11200000531971455, 0.9920000471174717, 0.0, 0.0, 0.0, 0.0, 0.0, 1.6518362728661132E9, 0.0, 2022-05-06 12:24:32.866
54.0, -222.11078841844574, -80.63037309469655, -124.47135032527149, -159.1720120641403, 0.1600000075995922, 0.11200000531971455, 0.9920000471174717, 0.0, 0.0, 0.0, 0.0, 0.0, 1.6518362728661132E9, 0.0, 2022-05-06 12:24:32.866
55.0, -244.44921085378155, -168.48810285376385, -191.49035753123462, -183.49632137594745, 0.1600000075995922, 0.11200000531971455, 0.9920000471174717, 0.0, 0.0, 0.0, 0.0, 0.0, 1.6518362728810668E9, 0.0, 2022-05-06 12:24:32.881
55.0, -286.06307766074315, -201.12246986711398, -216.78704083152115, -209.03609817335382, 0.1600000075995922, 0.11200000531971455, 0.9920000471174717, 0.0, 0.0, 0.0, 0.0, 0.0, 1.6518362728810668E9, 0.0, 2022-05-06 12:24:32.881
56.0, -254.33750633662567, -119.72354733152315, -147.19124255608767, -172.9872025004588, 0.1600000075995922, 0.11200000531971455, 0.9920000471174717, 0.0, 0.0, 0.0, 0.0, 0.0, 1.651836272897072E9, 0.0, 2022-05-06 12:24:32.897
56.0, -217.20777957653627, -78.06854162504897, -109.90817989781499, -133.6733741662465, 0.1600000075995922, 0.11200000531971455, 0.9920000471174717, 0.0, 0.0, 0.0, 0.0, 0.0, 1.651836272897072E9, 0.0, 2022-05-06 12:24:32.897
57.0, -212.42444753320888, -154.77762961620465, -168.9649400981143, -154.84868771536276, 0.1600000075995922, 0.11200000531971455, 0.9920000471174717, 0.0, 0.0, 0.0, 0.0, 0.0, 1.6518362728983216E9, 0.0, 2022-05-06 12:24:32.898
57.0, -269.05401266226545, -191.27531328378245, -206.37515935488045, -192.7076949668117, 0.1600000075995922, 0.11200000531971455, 0.9920000471174717, 0.0, 0.0, 0.0, 0.0, 0.0, 1.6518362728983216E9, 0.0, 2022-05-06 12:24:32.898
58.0, -273.9906806037761, -116.2603999725543, -147.6288108509034, -181.3982375008054, 0.1600000075995922, 0.11200000531971455, 0.9920000471174717, 0.0, 0.0, 0.0, 0.0, 0.0, 1.651836272911167E9, 0.0, 2022-05-06 12:24:32.911
58.0, -229.5307499305345, -85.81387443328276, -120.7239705696702, -159.6507192584686, 0.1600000075995922, 0.11200000531971455, 0.9920000471174717, 0.0, 0.0, 0.0, 0.0, 0.0, 1.651836272911167E9, 0.0, 2022-05-06 12:24:32.911
59.0, -265.441269305069, -183.18964957958087, -206.14702545758337, -202.9288415457122, 0.1600000075995922, 0.11200000531971455, 0.9920000471174717, 0.0, 0.0, 0.0, 0.0, 0.0, 1.6518362729270914E9, 0.0, 2022-05-06 12:24:32.927
59.0, -282.9589606975205, -200.7858788711019, -217.74819512013346, -199.30861838860437, 0.1600000075995922, 0.11200000531971455, 0.9920000471174717, 0.0, 0.0, 0.0, 0.0, 0.0, 1.6518362729270914E9, 0.0, 2022-05-06 12:24:32.927
60.0, -250.45175028266385, -114.90655618859455, -150.9236627118662, -176.22595586208627, 0.1600000075995922, 0.11200000531971455, 1.008000047877431, 0.0, 0.0, 0.0, 0.0, 0.0, 1.6518362729283245E9, 0.0, 2022-05-06 12:24:32.928
60.0, -227.8702343502082, -92.39983825525269, -130.94511714857072, -169.9915426359512, 0.1600000075995922, 0.11200000531971455, 1.008000047877431, 0.0, 0.0, 0.0, 0.0, 0.0, 1.6518362729283245E9, 0.0, 2022-05-06 12:24:32.928
61.0, -251.42038437118754, -179.31885312544182, -204.77822207380086, -194.1438165497966, 0.1600000075995922, 0.11200000531971455, 1.008000047877431, 0.0, 0.0, 0.0, 0.0, 0.0, 1.6518362729410696E9, 0.0, 2022-05-06 12:24:32.941
61.0, -291.2615385991521, -201.64605586091056, -222.5464867632836, -201.5188992624171, 0.1600000075995922, 0.11200000531971455, 1.008000047877431, 0.0, 0.0, 0.0, 0.0, 0.0, 1.6518362729410696E9, 0.0, 2022-05-06 12:24:32.941
62.0, -256.4842089111917, -111.5518659283407, -144.86128488369286, -174.49812208255753, 0.1600000075995922, 0.11200000531971455, 1.008000047877431, 0.0, 0.0, 0.0, 0.0, 0.0, 1.6518362729571395E9, 0.0, 2022-05-06 12:24:32.957
62.0, -230.78361641569063, -96.25567510956898, -132.86742572579533, -163.27094241557643, 0.1600000075995922, 0.11200000531971455, 1.008000047877431, 0.0, 0.0, 0.0, 0.0, 0.0, 1.6518362729571395E9, 0.0, 2022-05-06 12:24:32.957
63.0, -261.7761673484929, -180.8073333078064, -202.7287568980828, -189.23332790797576, 0.1600000075995922, 0.11200000531971455, 1.008000047877431, 0.0, 0.0, 0.0, 0.0, 0.0, 1.6518362729580455E9, 0.0, 2022-05-06 12:24:32.958
63.0, -264.19588261982426, -181.37579810107127, -194.54959569498897, -169.1762444456108, 0.1600000075995922, 0.11200000531971455, 1.008000047877431, 0.0, 0.0, 0.0, 0.0, 0.0, 1.6518362729580455E9, 0.0, 2022-05-06 12:24:32.958
64.0, -236.1690723518841, -104.25906101474538, -138.4323968598619, -168.25622905651107, 0.1600000075995922, 0.11200000531971455, 1.008000047877431, 0.0, 0.0, 0.0, 0.0, 0.0, 1.651836272971098E9, 0.0, 2022-05-06 12:24:32.971
64.0, -211.91208123927936, -91.14323187014088, -132.53083472978324, -166.01602898305282, 0.1600000075995922, 0.11200000531971455, 1.008000047877431, 0.0, 0.0, 0.0, 0.0, 0.0, 1.651836272971098E9, 0.0, 2022-05-06 12:24:32.971
65.0, -260.48964176373556, -173.89599818969145, -190.99669073708355, -175.35455917241052, 0.1600000075995922, 0.11200000531971455, 1.008000047877431, 0.0, 0.0, 0.0, 0.0, 0.0, 1.6518362729871416E9, 0.0, 2022-05-06 12:24:32.987
65.0, -274.4095493988134, -190.20570189645514, -201.91719860769808, -177.0636934521608, 0.1600000075995922, 0.11200000531971455, 1.008000047877431, 0.0, 0.0, 0.0, 0.0, 0.0, 1.6518362729871416E9, 0.0, 2022-05-06 12:24:32.987
66.0, -249.991742588114, -101.59251234633848, -134.19135031010956, -163.81696780910715, 0.1600000075995922, 0.11200000531971455, 1.008000047877431, 0.0, 0.0, 0.0, 0.0, 0.0, 1.6518362729880483E9, 0.0, 2022-05-06 12:24:32.988
66.0, -217.07314317813143, -78.58464781893417, -112.60090786591172, -148.6067946893163, 0.1600000075995922, 0.11200000531971455, 1.008000047877431, 0.0, 0.0, 0.0, 0.0, 0.0, 1.6518362729880483E9, 0.0, 2022-05-06 12:24:32.988
67.0, -248.29382800823078, -168.43948415433988, -190.73115784022957, -171.70441681565717, 0.1600000075995922, 0.11200000531971455, 1.008000047877431, 0.0, 0.0, 0.0, 0.0, 0.0, 1.6518362730012496E9, 0.0, 2022-05-06 12:24:33.001
67.0, -283.8901957864873, -201.30572496494278, -222.48664836399257, -212.58526323130354, 0.1600000075995922, 0.11200000531971455, 1.008000047877431, 0.0, 0.0, 0.0, 0.0, 0.0, 1.6518362730012496E9, 0.0, 2022-05-06 12:24:33.001
68.0, -258.4065174884163, -116.73536726692691, -153.22744108457118, -188.9977142107673, 0.1600000075995922, 0.11200000531971455, 1.008000047877431, 0.0, 0.0, 0.0, 0.0, 0.0, 1.651836273017081E9, 0.0, 2022-05-06 12:24:33.017
68.0, -223.05698310723528, -87.2088571167551, -118.36409369762987, -147.92613289738074, 0.1600000075995922, 0.11200000531971455, 1.008000047877431, 0.0, 0.0, 0.0, 0.0, 0.0, 1.651836273017081E9, 0.0, 2022-05-06 12:24:33.017
69.0, -254.19913003826514, -178.85884543089196, -194.1344667999074, -170.9564368245192, 0.1600000075995922, 0.11200000531971455, 1.008000047877431, 0.0, 0.0, 0.0, 0.0, 0.0, 1.6518362730180607E9, 0.0, 2022-05-06 12:24:33.018
69.0, -277.1957748658024, -197.65184270823374, -218.1446245154366, -202.9662405452691, 0.1600000075995922, 0.11200000531971455, 1.008000047877431, 0.0, 0.0, 0.0, 0.0, 0.0, 1.6518362730180607E9, 0.0, 2022-05-06 12:24:33.018
70.0, -246.01622893521562, -103.79905332019553, -134.31476700864732, -176.2147361622192, 0.1600000075995922, 0.11200000531971455, 1.008000047877431, 0.0, 0.0, 0.0, 0.0, 0.0, 1.6518362730311127E9, 0.0, 2022-05-06 12:24:33.031
70.0, -215.5622235960327, -84.53482864843681, -122.36204675026238, -162.70995742222294, 0.1600000075995922, 0.11200000531971455, 1.008000047877431, 0.0, 0.0, 0.0, 0.0, 0.0, 1.6518362730311127E9, 0.0, 2022-05-06 12:24:33.031
71.0, -258.5523735866882, -185.16805665614083, -204.52390887681395, -194.57764494465664, 0.1600000075995922, 0.11200000531971455, 1.008000047877431, 0.0, 0.0, 0.0, 0.0, 0.0, 1.6518362730470855E9, 0.0, 2022-05-06 12:24:33.047
71.0, -280.05679833190516, -205.29245831770822, -222.5876256627962, -199.46195428678766, 0.1600000075995922, 0.11200000531971455, 1.008000047877431, 0.0, 0.0, 0.0, 0.0, 0.0, 1.6518362730470855E9, 0.0, 2022-05-06 12:24:33.047
72.0, -246.4276179303415, -107.96156197087839, -137.43010367173702, -173.71648299181834, 0.1600000075995922, 0.11200000531971455, 1.008000047877431, 0.0, 0.0, 0.0, 0.0, 0.0, 1.6518362730480435E9, 0.0, 2022-05-06 12:24:33.048
72.0, -234.0560288769193, -100.32842616131529, -136.00894168857485, -164.6135664996691, 0.1600000075995922, 0.11200000531971455, 1.008000047877431, 0.0, 0.0, 0.0, 0.0, 0.0, 1.6518362730480435E9, 0.0, 2022-05-06 12:24:33.048
73.0, -252.33291996037588, -174.55796048184857, -192.81428211554885, -180.85221210727468, 0.1600000075995922, 0.11200000531971455, 1.008000047877431, 0.0, 0.0, 0.0, 0.0, 0.0, 1.6518362730610845E9, 0.0, 2022-05-06 12:24:33.061
73.0, -271.72056133067235, -200.2996918768622, -216.92915702983737, -201.39922246383503, 0.1600000075995922, 0.11200000531971455, 1.008000047877431, 0.0, 0.0, 0.0, 0.0, 0.0, 1.6518362730610845E9, 0.0, 2022-05-06 12:24:33.061
74.0, -250.38069218350574, -104.27402061456814, -136.5100882826373, -164.99877619510517, 0.1600000075995922, 0.11200000531971455, 1.008000047877431, 0.0, 0.0, 0.0, 0.0, 0.0, 1.6518362730770671E9, 0.0, 2022-05-06 12:24:33.077
74.0, -226.86046136217192, -89.392958690878, -125.0211156187579, -154.12314712395892, 0.1600000075995922, 0.11200000531971455, 1.008000047877431, 0.0, 0.0, 0.0, 0.0, 0.0, 1.6518362730770671E9, 0.0, 2022-05-06 12:24:33.077
75.0, -241.70412428630516, -170.0588608351536, -183.25135792884976, -166.1768446811475, 0.1600000075995922, 0.11200000531971455, 1.008000047877431, 0.0, 0.0, 0.0, 0.0, 0.0, 1.6518362730780709E9, 0.0, 2022-05-06 12:24:33.078
75.0, -271.3615309349261, -191.8549977769144, -207.36623284313828, -175.78838756727055, 0.1600000075995922, 0.11200000531971455, 1.008000047877431, 0.0, 0.0, 0.0, 0.0, 0.0, 1.6518362730780709E9, 0.0, 2022-05-06 12:24:33.078
76.0, -242.3960057781078, -101.82438614359125, -135.15998439863324, -165.73927638633177, 0.1600000075995922, 0.11200000531971455, 1.008000047877431, 0.0, 0.0, 0.0, 0.0, 0.0, 1.6518362730911767E9, 0.0, 2022-05-06 12:24:33.091
76.0, -216.04093079036102, -75.36833385704085, -113.3526277570054, -147.5297035020776, 0.1600000075995922, 0.11200000531971455, 1.008000047877431, 0.0, 0.0, 0.0, 0.0, 0.0, 1.6518362730911767E9, 0.0, 2022-05-06 12:24:33.091
77.0, -239.92393190739676, -165.9524506838061, -184.74357801117003, -167.41101166652516, 0.1600000075995922, 0.11200000531971455, 1.008000047877431, 0.0, 0.0, 0.0, 0.0, 0.0, 1.6518362731230867E9, 0.0, 2022-05-06 12:24:33.123
77.0, -281.42560171568766, -215.22563260002062, -226.85485151223838, -213.13128862483427, 0.1600000075995922, 0.11200000531971455, 1.008000047877431, 0.0, 0.0, 0.0, 0.0, 0.0, 1.6518362731230867E9, 0.0, 2022-05-06 12:24:33.123
78.0, -242.51568257668987, -114.37923029484227, -146.6227777628228, -182.71842218516394, 0.1600000075995922, 0.11200000531971455, 1.008000047877431, 0.0, 0.0, 0.0, 0.0, 0.0, 1.6518362731240249E9, 0.0, 2022-05-06 12:24:33.124
78.0, -213.194866924081, -72.14827999519184, -110.9067331859842, -148.3898804918863, 0.1600000075995922, 0.11200000531971455, 1.008000047877431, 0.0, 0.0, 0.0, 0.0, 0.0, 1.6518362731240249E9, 0.0, 2022-05-06 12:24:33.124
79.0, -249.62897229241207, -173.47712939465418, -192.01020362507552, -182.43044988857582, 0.1600000075995922, 0.11200000531971455, 1.008000047877431, 0.0, 0.0, 0.0, 0.0, 0.0, 1.6518362731251652E9, 0.0, 2022-05-06 12:24:33.125
79.0, -281.373243116308, -209.0473178732209, -218.6233317097649, -196.9300420167856, 0.1600000075995922, 0.11200000531971455, 1.008000047877431, 0.0, 0.0, 0.0, 0.0, 0.0, 1.6518362731251652E9, 0.0, 2022-05-06 12:24:33.125
80.0, -239.69579801009968, -96.95877630123869, -130.2083568572998, -158.23329717526212, 0.1600000075995922, 0.11200000531971455, 1.008000047877431, 0.0, 0.0, 0.0, 0.0, 0.0, 1.6518362731261292E9, 0.0, 2022-05-06 12:24:33.126
80.0, -196.52613282157108, -60.64808763144538, -104.46662546228617, -131.7099266895093, 0.1600000075995922, 0.11200000531971455, 1.008000047877431, 0.0, 0.0, 0.0, 0.0, 0.0, 1.6518362731261292E9, 0.0, 2022-05-06 12:24:33.126
81.0, -252.81910695461556, -176.74206205597147, -198.97763724252582, -190.21318169636652, 0.1600000075995922, 0.11200000531971455, 1.008000047877431, 0.0, 0.0, 0.0, 0.0, 0.0, 1.651836273136176E9, 0.0, 2022-05-06 12:24:33.136
81.0, -277.50244666216895, -219.1936664530076, -227.00444751046598, -215.69685999443755, 0.1600000075995922, 0.11200000531971455, 1.008000047877431, 0.0, 0.0, 0.0, 0.0, 0.0, 1.651836273136176E9, 0.0, 2022-05-06 12:24:33.136
82.0, -265.16451670834795, -111.26389363175258, -147.3632779540494, -181.2486415025778, 0.1600000075995922, 0.11200000531971455, 1.008000047877431, 0.0, 0.0, 0.0, 0.0, 0.0, 1.651836273151124E9, 0.0, 2022-05-06 12:24:33.151
82.0, -201.79191195918247, -56.50053858058527, -101.381207998842, -135.18803364830092, 0.1600000075995922, 0.11200000531971455, 1.008000047877431, 0.0, 0.0, 0.0, 0.0, 0.0, 1.651836273151124E9, 0.0, 2022-05-06 12:24:33.151
83.0, -247.16437822161242, -171.60717941680923, -191.5352363307029, -170.60862612864003, 0.1600000075995922, 0.11200000531971455, 1.008000047877431, 0.0, 0.0, 0.0, 0.0, 0.0, 1.6518362731671722E9, 0.0, 2022-05-06 12:24:33.167
83.0, -294.5227313605137, -216.18304698867723, -229.65603657905012, -209.44374726852402, 0.1600000075995922, 0.11200000531971455, 1.008000047877431, 0.0, 0.0, 0.0, 0.0, 0.0, 1.6518362731671722E9, 0.0, 2022-05-06 12:24:33.167
84.0, -245.70207733893767, -108.46644846489653, -144.79022678453475, -179.42357032420114, 0.1600000075995922, 0.11200000531971455, 1.008000047877431, 0.0, 0.0, 0.0, 0.0, 0.0, 1.6518362731681747E9, 0.0, 2022-05-06 12:24:33.168
84.0, -188.90795661183074, -59.675713642966, -101.88235459290445, -128.62824912602082, 0.1600000075995922, 0.11200000531971455, 1.008000047877431, 0.0, 0.0, 0.0, 0.0, 0.0, 1.6518362731681747E9, 0.0, 2022-05-06 12:24:33.168
85.0, -256.78340090764686, -168.2076103570871, -193.07607511244714, -182.82687928387895, 0.1600000075995922, 0.11200000531971455, 1.008000047877431, 0.0, 0.0, 0.0, 0.0, 0.0, 1.6518362731810784E9, 0.0, 2022-05-06 12:24:33.181
85.0, -293.6662942706607, -216.98712547915056, -223.38422435335815, -212.27859143493697, 0.1600000075995922, 0.11200000531971455, 1.008000047877431, 0.0, 0.0, 0.0, 0.0, 0.0, 1.6518362731810784E9, 0.0, 2022-05-06 12:24:33.181
86.0, -251.48022277047858, -121.9263484054245, -150.75536721386015, -181.53287389921024, 0.1600000075995922, 0.11200000531971455, 1.008000047877431, 0.0, 0.0, 0.0, 0.0, 0.0, 1.651836273197091E9, 0.0, 2022-05-06 12:24:33.197
86.0, -216.55703698424622, -85.71289713447914, -127.90457848459482, -152.65710634132847, 0.1600000075995922, 0.11200000531971455, 1.008000047877431, 0.0, 0.0, 0.0, 0.0, 0.0, 1.651836273197091E9, 0.0, 2022-05-06 12:24:33.197
87.0, -241.81258138502017, -161.9058789317496, -185.97026519663632, -172.38881850754842, 0.1600000075995922, 0.11200000531971455, 1.008000047877431, 0.0, 0.0, 0.0, 0.0, 0.0, 1.6518362731980307E9, 0.0, 2022-05-06 12:24:33.198
87.0, -286.9307344504632, -217.79494386957958, -226.08817202132195, -212.1925737359561, 0.1600000075995922, 0.11200000531971455, 1.008000047877431, 0.0, 0.0, 0.0, 0.0, 0.0, 1.6518362731980307E9, 0.0, 2022-05-06 12:24:33.198
88.0, -236.28500925051048, -94.68117722822353, -138.70914945658296, -166.28904167981818, 0.1600000075995922, 0.11200000531971455, 1.008000047877431, 0.0, 0.0, 0.0, 0.0, 0.0, 1.6518362732111492E9, 0.0, 2022-05-06 12:24:33.211
88.0, -203.75161953596398, -65.35662167565897, -103.74482477083802, -141.0447169789113, 0.1600000075995922, 0.11200000531971455, 1.008000047877431, 0.0, 0.0, 0.0, 0.0, 0.0, 1.6518362732111492E9, 0.0, 2022-05-06 12:24:33.211
89.0, -237.55657523544505, -161.51318943640217, -176.74019210599363, -160.37625984987244, 0.1600000075995922, 0.11200000531971455, 1.008000047877431, 0.0, 0.0, 0.0, 0.0, 0.0, 1.6518362732270486E9, 0.0, 2022-05-06 12:24:33.227
89.0, -278.16814885428175, -215.2742512994446, -226.89225051179528, -207.7121735890396, 0.1600000075995922, 0.11200000531971455, 1.008000047877431, 0.0, 0.0, 0.0, 0.0, 0.0, 1.6518362732270486E9, 0.0, 2022-05-06 12:24:33.227
90.0, -241.56574798794463, -101.87674474297091, -133.45085011888295, -168.92567114857957, 0.1600000075995922, 0.11200000531971455, 1.008000047877431, 0.0, 0.0, 0.0, 0.0, 0.0, 1.6518362732280157E9, 0.0, 2022-05-06 12:24:33.228
90.0, -195.54253913322464, -50.0043323575519, -89.34247004147619, -123.7065407843329, 0.1600000075995922, 0.11200000531971455, 1.008000047877431, 0.0, 0.0, 0.0, 0.0, 0.0, 1.6518362732280157E9, 0.0, 2022-05-06 12:24:33.228
91.0, -237.26112313894555, -175.7734279674478, -197.56395505927503, -181.01676770532504, 0.1600000075995922, 0.11200000531971455, 1.008000047877431, 0.0, 0.0, 0.0, 0.0, 0.0, 1.6518362732411592E9, 0.0, 2022-05-06 12:24:33.241
91.0, -291.082023401279, -224.76985728694126, -234.47302772197872, -215.47994579700753, 0.1600000075995922, 0.11200000531971455, 1.008000047877431, 0.0, 0.0, 0.0, 0.0, 0.0, 1.6518362732411592E9, 0.0, 2022-05-06 12:24:33.241
92.0, -248.01707541150972, -111.01706023467705, -139.0270409528166, -159.38518636161461, 0.1600000075995922, 0.11200000531971455, 1.008000047877431, 0.0, 0.0, 0.0, 0.0, 0.0, 1.6518362732570794E9, 0.0, 2022-05-06 12:24:33.257
92.0, -202.2668792535551, -60.46857243357226, -107.29024992883205, -136.13796823704615, 0.1600000075995922, 0.11200000531971455, 1.008000047877431, 0.0, 0.0, 0.0, 0.0, 0.0, 1.6518362732570794E9, 0.0, 2022-05-06 12:24:33.257
93.0, -250.22361638536677, -174.04559418791905, -197.99030365422368, -189.2146284081973, 0.1600000075995922, 0.11200000531971455, 1.008000047877431, 0.0, 0.0, 0.0, 0.0, 0.0, 1.651836273258294E9, 0.0, 2022-05-06 12:24:33.258
93.0, -291.082023401279, -221.00003813160583, -231.21557486057281, -218.2661712639965, 0.1600000075995922, 0.11200000531971455, 1.008000047877431, 0.0, 0.0, 0.0, 0.0, 0.0, 1.651836273258294E9, 0.0, 2022-05-06 12:24:33.258
94.0, -235.52580955950543, -105.78868009662256, -136.85415907856077, -169.8718658373691, 0.1600000075995922, 0.11200000531971455, 1.008000047877431, 0.0, 0.0, 0.0, 0.0, 0.0, 1.6518362732710776E9, 0.0, 2022-05-06 12:24:33.271
94.0, -214.51505160843953, -68.00073094433174, -118.25189669895917, -154.29518252192065, 0.1600000075995922, 0.11200000531971455, 1.008000047877431, 0.0, 0.0, 0.0, 0.0, 0.0, 1.6518362732710776E9, 0.0, 2022-05-06 12:24:33.271
95.0, -251.37550557171926, -185.13065765658394, -200.7279104217887, -190.72180809034035, 0.1600000075995922, 0.11200000531971455, 1.008000047877431, 0.0, 0.0, 0.0, 0.0, 0.0, 1.6518362732870953E9, 0.0, 2022-05-06 12:24:33.287
95.0, -287.99286603787914, -215.96239289129153, -216.15873763896525, -198.75511319516227, 0.1600000075995922, 0.11200000531971455, 1.008000047877431, 0.0, 0.0, 0.0, 0.0, 0.0, 1.6518362732870953E9, 0.0, 2022-05-06 12:24:33.287
96.0, -236.6851785457693, -93.81726033845916, -123.85426683258265, -141.06715637864545, 0.1600000075995922, 0.11200000531971455, 1.008000047877431, 0.0, 0.0, 0.0, 0.0, 0.0, 1.6518362732880309E9, 0.0, 2022-05-06 12:24:33.288
96.0, -200.17253527836874, -56.20882638404146, -105.58485554903746, -138.1575142131187, 0.1600000075995922, 0.11200000531971455, 1.008000047877431, 0.0, 0.0, 0.0, 0.0, 0.0, 1.6518362732880309E9, 0.0, 2022-05-06 12:24:33.288
97.0, -246.42013813043013, -174.29990738490596, -191.52775653079152, -186.1404306446202, 0.1600000075995922, 0.11200000531971455, 1.008000047877431, 0.0, 0.0, 0.0, 0.0, 0.0, 1.6518362733011537E9, 0.0, 2022-05-06 12:24:33.301
97.0, -285.06078447261825, -217.77624436980113, -225.665563326329, -213.677314018365, 0.1600000075995922, 0.11200000531971455, 1.008000047877431, 0.0, 0.0, 0.0, 0.0, 0.0, 1.6518362733011537E9, 0.0, 2022-05-06 12:24:33.301
98.0, -245.29816814372316, -113.08896481012926, -150.2617004197091, -186.480761540588, 0.1600000075995922, 0.11200000531971455, 1.008000047877431, 0.0, 0.0, 0.0, 0.0, 0.0, 1.6518362733170643E9, 0.0, 2022-05-06 12:24:33.317
98.0, -213.1163290250115, -79.17555201193318, -125.0585146183148, -154.80754881585017, 0.1600000075995922, 0.11200000531971455, 1.008000047877431, 0.0, 0.0, 0.0, 0.0, 0.0, 1.6518362733170643E9, 0.0, 2022-05-06 12:24:33.317
99.0, -262.4456094405614, -193.40331635857, -206.11336635798216, -195.62107703229412, 0.1600000075995922, 0.11200000531971455, 1.008000047877431, 0.0, 0.0, 0.0, 0.0, 0.0, 1.6518362733183215E9, 0.0, 2022-05-06 12:24:33.318
99.0, -273.12302381405607, -214.89278150396422, -221.48809507582337, -200.42310857539997, 0.1600000075995922, 0.11200000531971455, 1.008000047877431, 0.0, 0.0, 0.0, 0.0, 0.0, 1.6518362733183215E9, 0.0, 2022-05-06 12:24:33.318
100.0, -255.93070371774957, -116.7428470668383, -146.5143206641078, -183.9226699708961, 0.1600000075995922, 0.11200000531971455, 1.008000047877431, 0.0, 0.0, 0.0, 0.0, 0.0, 1.6518362733480868E9, 0.0, 2022-05-06 12:24:33.348
100.0, -205.57669071434066, -75.04296256089583, -120.0956673771143, -150.9778912612237, 0.1600000075995922, 0.11200000531971455, 1.008000047877431, 0.0, 0.0, 0.0, 0.0, 0.0, 1.6518362733480868E9, 0.0, 2022-05-06 12:24:33.348
0.0, -237.14331629034132, -162.962400669232, -177.81915324321017, -164.7463329480961, 0.1600000075995922, 0.11200000531971455, 1.008000047877431, 0.0, 0.0, 0.0, 0.0, 0.0, 1.6518362733490033E9, 0.0, 2022-05-06 12:24:33.349
1.0, -271.3559210849926, -202.75119629781693, -201.9714271570556, -183.99933791998774, 0.1600000075995922, 0.11200000531971455, 1.008000047877431, 0.0, 0.0, 0.0, 0.0, 0.0, 1.6518362733500347E9, 0.0, 2022-05-06 12:24:33.350
1.0, -226.30508621875197, -92.65602140221745, -133.1198689728044, -163.64306246116757, 0.1600000075995922, 0.11200000531971455, 1.008000047877431, 0.0, 0.0, 0.0, 0.0, 0.0, 1.6518362733500347E9, 0.0, 2022-05-06 12:24:33.350
2.0, -163.23167346604168, -46.838507045060396, -97.0672333999537, -123.6859713345766, 0.1600000075995922, 0.11200000531971455, 1.008000047877431, 0.0, 0.0, 0.0, 0.0, 0.0, 1.651836273351013E9, 0.0, 2022-05-06 12:24:33.351
2.0, -269.7627237038687, -174.31673693470657, -201.41792196361348, -196.14653297606856, 0.1600000075995922, 0.11200000531971455, 1.008000047877431, 0.0, 0.0, 0.0, 0.0, 0.0, 1.651836273351013E9, 0.0, 2022-05-06 12:24:33.351
3.0, -297.89425117056817, -215.79596734326333, -218.5653632604517, -211.0275948997587, 0.1600000075995922, 0.11200000531971455, 1.008000047877431, 0.0, 0.0, 0.0, 0.0, 0.0, 1.651836273361132E9, 0.0, 2022-05-06 12:24:33.361
3.0, -230.12352407351136, -86.48892637528479, -115.41892248252407, -140.107872040011, 0.1600000075995922, 0.11200000531971455, 1.008000047877431, 0.0, 0.0, 0.0, 0.0, 0.0, 1.651836273361132E9, 0.0, 2022-05-06 12:24:33.361
4.0, -209.64757181610912, -71.48444775305688, -118.43328184681013, -155.34422445949167, 0.1600000075995922, 0.11200000531971455, 1.008000047877431, 0.0, 0.0, 0.0, 0.0, 0.0, 1.6518362733760831E9, 0.0, 2022-05-06 12:24:33.376
4.0, -259.5752362245694, -183.48697162605822, -211.32865684619173, -203.38323939032853, 0.1600000075995922, 0.11200000531971455, 1.008000047877431, 0.0, 0.0, 0.0, 0.0, 0.0, 1.6518362733760831E9, 0.0, 2022-05-06 12:24:33.376
5.0, -282.2839087555185, -217.97258911747485, -224.85213508596644, -214.56180035788566, 0.1600000075995922, 0.11200000531971455, 1.008000047877431, 0.0, 0.0, 0.0, 0.0, 0.0, 1.6518362733921633E9, 0.0, 2022-05-06 12:24:33.392
5.0, -246.39208888076246, -110.95535188540816, -146.33667541621253, -177.00198510289192, 0.1600000075995922, 0.11200000531971455, 1.008000047877431, 0.0, 0.0, 0.0, 0.0, 0.0, 1.6518362733921633E9, 0.0, 2022-05-06 12:24:33.392
6.0, -206.3938588546589, -61.28200067393482, -108.53376666409895, -145.97951497044414, 0.1600000075995922, 0.11200000531971455, 1.008000047877431, 0.0, 0.0, 0.0, 0.0, 0.0, 1.6518362733930347E9, 0.0, 2022-05-06 12:24:33.393
6.0, -245.782485187985, -176.20164651237428, -192.28508627181873, -183.81234292220324, 0.1600000075995922, 0.11200000531971455, 1.008000047877431, 0.0, 0.0, 0.0, 0.0, 0.0, 1.6518362733930347E9, 0.0, 2022-05-06 12:24:33.393
7.0, -285.6872177151963, -208.82479382585734, -218.25495156412944, -205.91889156028628, 0.1600000075995922, 0.11200000531971455, 1.008000047877431, 0.0, 0.0, 0.0, 0.0, 0.0, 1.651836273406279E9, 0.0, 2022-05-06 12:24:33.406
7.0, -236.84786419384181, -95.5619236677885, -126.78821834782138, -161.08123099152, 0.1600000075995922, 0.11200000531971455, 1.008000047877431, 0.0, 0.0, 0.0, 0.0, 0.0, 1.651836273406279E9, 0.0, 2022-05-06 12:24:33.406
8.0, -191.60255452990532, -52.074366983026266, -101.50649464735761, -131.24056924507022, 0.1600000075995922, 0.11200000531971455, 1.008000047877431, 0.0, 0.0, 0.0, 0.0, 0.0, 1.6518362734221053E9, 0.0, 2022-05-06 12:24:33.422
8.0, -231.80273915361613, -170.3748823814094, -186.18904934404418, -175.69302011840045, 0.1600000075995922, 0.11200000531971455, 1.008000047877431, 0.0, 0.0, 0.0, 0.0, 0.0, 1.6518362734221053E9, 0.0, 2022-05-06 12:24:33.422
9.0, -286.981223099865, -212.44501698296517, -219.81074994569644, -208.85471302550286, 0.1600000075995922, 0.11200000531971455, 1.008000047877431, 0.0, 0.0, 0.0, 0.0, 0.0, 1.6518362734230783E9, 0.0, 2022-05-06 12:24:33.423
9.0, -225.45986882876605, -95.1916735721752, -129.46598671609536, -167.01645222119987, 0.1600000075995922, 0.11200000531971455, 1.008000047877431, 0.0, 0.0, 0.0, 0.0, 0.0, 1.6518362734230783E9, 0.0, 2022-05-06 12:24:33.423
10.0, -206.68183115124702, -56.79038082715124, -100.19752966286615, -129.77452846243978, 0.1600000075995922, 0.11200000531971455, 1.008000047877431, 0.0, 0.0, 0.0, 0.0, 0.0, 1.6518362734360569E9, 0.0, 2022-05-06 12:24:33.436
10.0, -250.8276102282107, -182.8250093339011, -204.6304960255511, -191.84938792698085, 0.1600000075995922, 0.11200000531971455, 1.008000047877431, 0.0, 0.0, 0.0, 0.0, 0.0, 1.6518362734360569E9, 0.0, 2022-05-06 12:24:33.436
11.0, -284.0528814345598, -217.26200812589377, -223.39357410324737, -213.57446676958352, 0.1600000075995922, 0.11200000531971455, 1.008000047877431, 0.0, 0.0, 0.0, 0.0, 0.0, 1.6518362734531925E9, 0.0, 2022-05-06 12:24:33.453
11.0, -231.16321626119316, -92.34934960585088, -125.04542496846989, -151.65294320322573, 0.1600000075995922, 0.11200000531971455, 1.008000047877431, 0.0, 0.0, 0.0, 0.0, 0.0, 1.6518362734531925E9, 0.0, 2022-05-06 12:24:33.453
12.0, -196.22507087513804, -59.44944969564676, -112.75985361402854, -141.70854922104627, 0.1600000075995922, 0.11200000531971455, 1.008000047877431, 0.0, 0.0, 0.0, 0.0, 0.0, 1.6518362734540448E9, 0.0, 2022-05-06 12:24:33.454
12.0, -255.21077297627926, -178.0154979908839, -193.11908396193758, -175.59204281959683, 0.1600000075995922, 0.11200000531971455, 1.008000047877431, 0.0, 0.0, 0.0, 0.0, 0.0, 1.6518362734540448E9, 0.0, 2022-05-06 12:24:33.454
13.0, -281.0684412699193, -209.12024592235684, -217.83982266904786, -204.15365878120065, 0.1600000075995922, 0.11200000531971455, 1.008000047877431, 0.0, 0.0, 0.0, 0.0, 0.0, 1.651836273466062E9, 0.0, 2022-05-06 12:24:33.466
13.0, -222.08273916877806, -100.90250080451369, -133.48263926850632, -168.92006129864603, 0.1600000075995922, 0.11200000531971455, 1.008000047877431, 0.0, 0.0, 0.0, 0.0, 0.0, 1.651836273466062E9, 0.0, 2022-05-06 12:24:33.466
14.0, -202.52680230047554, -69.87255087215453, -109.64825685089454, -140.19762963894755, 0.1600000075995922, 0.11200000531971455, 1.008000047877431, 0.0, 0.0, 0.0, 0.0, 0.0, 1.651836273482084E9, 0.0, 2022-05-06 12:24:33.482
14.0, -247.17372797150165, -175.13203512504697, -189.2595072076656, -171.86710246372968, 0.1600000075995922, 0.11200000531971455, 1.008000047877431, 0.0, 0.0, 0.0, 0.0, 0.0, 1.651836273482084E9, 0.0, 2022-05-06 12:24:33.482
15.0, -289.2214231733233, -213.27527477312833, -220.35303543927148, -209.23618282098323, 0.1600000075995922, 0.11200000531971455, 1.008000047877431, 0.0, 0.0, 0.0, 0.0, 0.0, 1.6518362734830077E9, 0.0, 2022-05-06 12:24:33.483
15.0, -241.95282763335854, -99.6795535190031, -135.47600594488904, -164.6303960494697, 0.1600000075995922, 0.11200000531971455, 1.008000047877431, 0.0, 0.0, 0.0, 0.0, 0.0, 1.6518362734830077E9, 0.0, 2022-05-06 12:24:33.483
16.0, -201.60304701142013, -68.1821160921827, -111.18535573268309, -147.71108864992857, 0.1600000075995922, 0.11200000531971455, 1.008000047877431, 0.0, 0.0, 0.0, 0.0, 0.0, 1.6518362734961824E9, 0.0, 2022-05-06 12:24:33.496
16.0, -253.453019997105, -188.9434856614098, -203.14201584318653, -192.2757365219295, 0.1600000075995922, 0.11200000531971455, 1.008000047877431, 0.0, 0.0, 0.0, 0.0, 0.0, 1.6518362734961824E9, 0.0, 2022-05-06 12:24:33.496
17.0, -287.1308190980926, -213.27901467308402, -217.64908777130768, -209.6961905155331, 0.1600000075995922, 0.11200000531971455, 1.008000047877431, 0.0, 0.0, 0.0, 0.0, 0.0, 1.6518362735120862E9, 0.0, 2022-05-06 12:24:33.512
17.0, -245.92460138630122, -105.83542884606868, -143.569149449002, -174.709426430054, 0.1600000075995922, 0.11200000531971455, 1.008000047877431, 0.0, 0.0, 0.0, 0.0, 0.0, 1.6518362735120862E9, 0.0, 2022-05-06 12:24:33.512
18.0, -201.3898727139458, -64.74514803290367, -110.78892633737996, -147.2922198548913, 0.1600000075995922, 0.11200000531971455, 1.008000047877431, 0.0, 0.0, 0.0, 0.0, 0.0, 1.6518362735130403E9, 0.0, 2022-05-06 12:24:33.513
18.0, -236.20460140146315, -175.51724482048303, -191.4099496821873, -181.07473615463823, 0.1600000075995922, 0.11200000531971455, 1.008000047877431, 0.0, 0.0, 0.0, 0.0, 0.0, 1.6518362735130403E9, 0.0, 2022-05-06 12:24:33.513
19.0, -300.71787563711405, -214.71513625606894, -223.24397810501978, -206.94362414814532, 0.1600000075995922, 0.11200000531971455, 1.008000047877431, 0.0, 0.0, 0.0, 0.0, 0.0, 1.651836273526212E9, 0.0, 2022-05-06 12:24:33.526
19.0, -248.79684455227107, -109.59776820149273, -143.25873775267974, -170.4870793800801, 0.1600000075995922, 0.11200000531971455, 1.008000047877431, 0.0, 0.0, 0.0, 0.0, 0.0, 1.651836273526212E9, 0.0, 2022-05-06 12:24:33.526
20.0, -201.7638627095148, -65.99801451805979, -114.7756596901454, -145.02584048174322, 0.1600000075995922, 0.11200000531971455, 1.0240000486373901, 0.0, 0.0, 0.0, 0.0, 0.0, 1.651836273542116E9, 0.0, 2022-05-06 12:24:33.542
20.0, -257.40235435031354, -190.06919554807246, -208.52747177938, -197.66867225803435, 0.1600000075995922, 0.11200000531971455, 1.0240000486373901, 0.0, 0.0, 0.0, 0.0, 0.0, 1.651836273542116E9, 0.0, 2022-05-06 12:24:33.542
21.0, -296.96675598155707, -219.23667530249804, -226.3069561687298, -207.97957643587142, 0.1600000075995922, 0.11200000531971455, 1.0240000486373901, 0.0, 0.0, 0.0, 0.0, 0.0, 1.6518362735430467E9, 0.0, 2022-05-06 12:24:33.543
21.0, -249.0848168488592, -102.74253158271313, -140.45007288595662, -170.3038242822513, 0.1600000075995922, 0.11200000531971455, 1.0240000486373901, 0.0, 0.0, 0.0, 0.0, 0.0, 1.6518362735430467E9, 0.0, 2022-05-06 12:24:33.543
22.0, -215.59027284570038, -69.57709877565503, -114.63354349182919, -140.5454403348267, 0.1600000075995922, 0.11200000531971455, 1.0240000486373901, 0.0, 0.0, 0.0, 0.0, 0.0, 1.6518362735561407E9, 0.0, 2022-05-06 12:24:33.556
22.0, -256.94982645567507, -181.37018825113773, -200.32587117655203, -191.2360443342477, 0.1600000075995922, 0.11200000531971455, 1.0240000486373901, 0.0, 0.0, 0.0, 0.0, 0.0, 1.6518362735561407E9, 0.0, 2022-05-06 12:24:33.556
23.0, -305.3964904816821, -226.61175801511854, -235.2004382633604, -224.2518811430782, 0.1600000075995922, 0.11200000531971455, 1.0240000486373901, 0.0, 0.0, 0.0, 0.0, 0.0, 1.651836273572172E9, 0.0, 2022-05-06 12:24:33.572
23.0, -237.89877608139068, -96.18648696038872, -130.07185050891712, -156.95612134039402, 0.1600000075995922, 0.11200000531971455, 1.0240000486373901, 0.0, 0.0, 0.0, 0.0, 0.0, 1.651836273572172E9, 0.0, 2022-05-06 12:24:33.572
24.0, -206.40881845448166, -69.53221997618675, -114.09873779816553, -151.8137589013204, 0.1600000075995922, 0.11200000531971455, 1.0240000486373901, 0.0, 0.0, 0.0, 0.0, 0.0, 1.6518362735730124E9, 0.0, 2022-05-06 12:24:33.573
24.0, -266.4267329433933, -189.97195814922452, -198.62421669671312, -174.31673693470657, 0.1600000075995922, 0.11200000531971455, 1.0240000486373901, 0.0, 0.0, 0.0, 0.0, 0.0, 1.6518362735730124E9, 0.0, 2022-05-06 12:24:33.573
25.0, -286.7231700029224, -220.3623851891607, -227.03997656004503, -203.9891031831503, 0.1600000075995922, 0.11200000531971455, 1.0240000486373901, 0.0, 0.0, 0.0, 0.0, 0.0, 1.6518362735861292E9, 0.0, 2022-05-06 12:24:33.586
25.0, -238.97960716858506, -96.12290866114199, -133.89028836367652, -164.53315865062177, 0.1600000075995922, 0.11200000531971455, 1.0240000486373901, 0.0, 0.0, 0.0, 0.0, 0.0, 1.6518362735861292E9, 0.0, 2022-05-06 12:24:33.586
26.0, -218.49991501122713, -69.14701028075069, -119.40191593533382, -157.9284953288734, 0.1600000075995922, 0.11200000531971455, 1.0240000486373901, 0.0, 0.0, 0.0, 0.0, 0.0, 1.651836273602168E9, 0.0, 2022-05-06 12:24:33.602
26.0, -250.03849133756012, -184.93057300895452, -200.5240858742036, -196.26994967460632, 0.1600000075995922, 0.11200000531971455, 1.0240000486373901, 0.0, 0.0, 0.0, 0.0, 0.0, 1.651836273602168E9, 0.0, 2022-05-06 12:24:33.602
27.0, -305.16087678447366, -221.60029207449406, -233.48008428374305, -221.3609384773299, 0.1600000075995922, 0.11200000531971455, 1.0240000486373901, 0.0, 0.0, 0.0, 0.0, 0.0, 1.6518362736031585E9, 0.0, 2022-05-06 12:24:33.603
27.0, -251.0819234251976, -97.10650234948844, -134.16330106044188, -163.79639835935086, 0.1600000075995922, 0.11200000531971455, 1.0240000486373901, 0.0, 0.0, 0.0, 0.0, 0.0, 1.6518362736031585E9, 0.0, 2022-05-06 12:24:33.603
28.0, -220.05571339279413, -74.76434001419693, -122.62196979718283, -149.16216983273625, 0.1600000075995922, 0.11200000531971455, 1.0240000486373901, 0.0, 0.0, 0.0, 0.0, 0.0, 1.6518362736161327E9, 0.0, 2022-05-06 12:24:33.616
28.0, -264.5979218650609, -190.80595583934337, -206.5565445027314, -193.4238858083263, 0.1600000075995922, 0.11200000531971455, 1.0240000486373901, 0.0, 0.0, 0.0, 0.0, 0.0, 1.6518362736161327E9, 0.0, 2022-05-06 12:24:33.616
29.0, -296.31227348931134, -222.35949176549911, -226.39297386771068, -213.81756026670337, 0.1600000075995922, 0.11200000531971455, 1.0240000486373901, 0.0, 0.0, 0.0, 0.0, 0.0, 1.6518362736321177E9, 0.0, 2022-05-06 12:24:33.632
29.0, -240.7784990472719, -96.31738345883787, -131.13024219637737, -162.56971117388457, 0.1600000075995922, 0.11200000531971455, 1.0240000486373901, 0.0, 0.0, 0.0, 0.0, 0.0, 1.6518362736321177E9, 0.0, 2022-05-06 12:24:33.632
30.0, -214.8460327545181, -67.39673710148782, -117.71896095527336, -141.24106172658503, 0.1600000075995922, 0.11200000531971455, 1.0240000486373901, 0.0, 0.0, 0.0, 0.0, 0.0, 1.651836273633208E9, 0.0, 2022-05-06 12:24:33.633
30.0, -261.59478220064193, -182.88858763314784, -203.43746793968603, -185.74961109925061, 0.1600000075995922, 0.11200000531971455, 1.0240000486373901, 0.0, 0.0, 0.0, 0.0, 0.0, 1.651836273633208E9, 0.0, 2022-05-06 12:24:33.633
31.0, -281.59202726371586, -214.2139896620065, -219.0478103547357, -200.41375882551074, 0.1600000075995922, 0.11200000531971455, 1.0240000486373901, 0.0, 0.0, 0.0, 0.0, 0.0, 1.6518362736461244E9, 0.0, 2022-05-06 12:24:33.646
31.0, -246.62022277805954, -89.97825303394347, -124.46200057538226, -146.71253536175936, 0.1600000075995922, 0.11200000531971455, 1.0240000486373901, 0.0, 0.0, 0.0, 0.0, 0.0, 1.6518362736461244E9, 0.0, 2022-05-06 12:24:33.646
32.0, -210.34693310782313, -69.3639244781807, -117.7787993545644, -151.97083469945937, 0.1600000075995922, 0.11200000531971455, 1.0240000486373901, 0.0, 0.0, 0.0, 0.0, 0.0, 1.6518362736620865E9, 0.0, 2022-05-06 12:24:33.662
32.0, -272.0478025767952, -190.4955441430211, -202.7081874483265, -192.33931482117623, 0.1600000075995922, 0.11200000531971455, 1.0240000486373901, 0.0, 0.0, 0.0, 0.0, 0.0, 1.6518362736620865E9, 0.0, 2022-05-06 12:24:33.662
33.0, -292.3180603366345, -219.09829900413752, -220.61482843616977, -204.78196197375655, 0.1600000075995922, 0.11200000531971455, 1.0240000486373901, 0.0, 0.0, 0.0, 0.0, 0.0, 1.651836273663037E9, 0.0, 2022-05-06 12:24:33.663
33.0, -246.7885182760656, -105.73445154726505, -138.2734511117451, -172.44304705690593, 0.1600000075995922, 0.11200000531971455, 1.0240000486373901, 0.0, 0.0, 0.0, 0.0, 0.0, 1.651836273663037E9, 0.0, 2022-05-06 12:24:33.663
34.0, -204.84928017295897, -63.09585215244442, -111.55934572825208, -146.67513636220247, 0.1600000075995922, 0.11200000531971455, 1.0240000486373901, 0.0, 0.0, 0.0, 0.0, 0.0, 1.6518362736761231E9, 0.0, 2022-05-06 12:24:33.676
34.0, -257.263978051953, -181.55344334896654, -192.32248527137563, -180.25943796429783, 0.1600000075995922, 0.11200000531971455, 1.0240000486373901, 0.0, 0.0, 0.0, 0.0, 0.0, 1.6518362736761231E9, 0.0, 2022-05-06 12:24:33.676
35.0, -288.89979177713394, -211.50256219413131, -219.51903774915263, -193.65575960557908, 0.1600000075995922, 0.11200000531971455, 1.0240000486373901, 0.0, 0.0, 0.0, 0.0, 0.0, 1.6518362736921232E9, 0.0, 2022-05-06 12:24:33.692
35.0, -232.15428974945098, -88.7814850481227, -126.5974834500812, -156.5970909446478, 0.1600000075995922, 0.11200000531971455, 1.0240000486373901, 0.0, 0.0, 0.0, 0.0, 0.0, 1.6518362736921232E9, 0.0, 2022-05-06 12:24:33.692
36.0, -208.5443013291806, -73.65732962731272, -124.06557118007913, -154.10257767420262, 0.1600000075995922, 0.11200000531971455, 1.0240000486373901, 0.0, 0.0, 0.0, 0.0, 0.0, 1.6518362736930442E9, 0.0, 2022-05-06 12:24:33.693
36.0, -266.07892224751413, -189.91211974993348, -208.86780267534778, -185.1287877066061, 0.1600000075995922, 0.11200000531971455, 1.0240000486373901, 0.0, 0.0, 0.0, 0.0, 0.0, 1.6518362736930442E9, 0.0, 2022-05-06 12:24:33.693
37.0, -294.37500531226397, -220.48206198774278, -234.28790267417207, -230.53117316868156, 0.1600000075995922, 0.11200000531971455, 1.0240000486373901, 0.0, 0.0, 0.0, 0.0, 0.0, 1.651836273737128E9, 0.0, 2022-05-06 12:24:33.737
37.0, -253.46423969697207, -90.56541732698679, -131.01804519770667, -160.4491878990084, 0.1600000075995922, 0.11200000531971455, 1.0240000486373901, 0.0, 0.0, 0.0, 0.0, 0.0, 1.651836273737128E9, 0.0, 2022-05-06 12:24:33.737
38.0, -214.5505806580186, -67.97642159461975, -111.38731033029035, -146.00943417008966, 0.1600000075995922, 0.11200000531971455, 1.0240000486373901, 0.0, 0.0, 0.0, 0.0, 0.0, 1.6518362737540843E9, 0.0, 2022-05-06 12:24:33.754
38.0, -257.61926854774356, -184.54536331351846, -208.69950717734173, -196.10539407655597, 0.1600000075995922, 0.11200000531971455, 1.0240000486373901, 0.0, 0.0, 0.0, 0.0, 0.0, 1.6518362737540843E9, 0.0, 2022-05-06 12:24:33.754
39.0, -308.0368598503992, -222.93169645871967, -229.9795379252173, -219.38253140076995, 0.1600000075995922, 0.11200000531971455, 1.0240000486373901, 0.0, 0.0, 0.0, 0.0, 0.0, 1.651836273755042E9, 0.0, 2022-05-06 12:24:33.755
39.0, -241.71347403619438, -95.95461316313595, -132.8206769763492, -160.7109808959067, 0.1600000075995922, 0.11200000531971455, 1.0240000486373901, 0.0, 0.0, 0.0, 0.0, 0.0, 1.651836273755042E9, 0.0, 2022-05-06 12:24:33.755
40.0, -222.79332016035914, -67.96894179470837, -110.58323183981702, -140.52300093509257, 0.1600000075995922, 0.11200000531971455, 1.0240000486373901, 0.0, 0.0, 0.0, 0.0, 0.0, 1.6518362737560132E9, 0.0, 2022-05-06 12:24:33.756
40.0, -266.0527429478243, -181.55718324892223, -203.003639544826, -188.4572986671701, 0.1600000075995922, 0.11200000531971455, 1.0240000486373901, 0.0, 0.0, 0.0, 0.0, 0.0, 1.6518362737560132E9, 0.0, 2022-05-06 12:24:33.756
41.0, -298.5038548633456, -219.46106929983944, -221.32166952779517, -208.2488492326811, 0.1600000075995922, 0.11200000531971455, 1.0240000486373901, 0.0, 0.0, 0.0, 0.0, 0.0, 1.651836273757026E9, 0.0, 2022-05-06 12:24:33.757
41.0, -234.91807581670582, -90.86834922339767, -124.02443228056654, -163.54956496227533, 0.1600000075995922, 0.11200000531971455, 1.0240000486373901, 0.0, 0.0, 0.0, 0.0, 0.0, 1.651836273757026E9, 0.0, 2022-05-06 12:24:33.757
42.0, -219.9173370944336, -73.83684482518584, -122.28537880117074, -144.58079238701612, 0.1600000075995922, 0.11200000531971455, 1.0240000486373901, 0.0, 0.0, 0.0, 0.0, 0.0, 1.6518362737670794E9, 0.0, 2022-05-06 12:24:33.767
42.0, -275.5408691354096, -202.19769110437483, -219.62375494791195, -211.68581729196012, 0.1600000075995922, 0.11200000531971455, 1.0240000486373901, 0.0, 0.0, 0.0, 0.0, 0.0, 1.6518362737670794E9, 0.0, 2022-05-06 12:24:33.767
43.0, -298.37669826485217, -224.21074224356562, -223.91716009704396, -200.0622082296759, 0.1600000075995922, 0.11200000531971455, 1.0240000486373901, 0.0, 0.0, 0.0, 0.0, 0.0, 1.6518362737680235E9, 0.0, 2022-05-06 12:24:33.768
43.0, -235.34068451169878, -89.76133883651346, -128.99101942172274, -159.61519020888954, 0.1600000075995922, 0.11200000531971455, 1.0240000486373901, 0.0, 0.0, 0.0, 0.0, 0.0, 1.6518362737680235E9, 0.0, 2022-05-06 12:24:33.768
44.0, -206.5471947528422, -61.99632156547159, -109.53605985222384, -138.89614445436746, 0.1600000075995922, 0.11200000531971455, 1.0240000486373901, 0.0, 0.0, 0.0, 0.0, 0.0, 1.6518362737820983E9, 0.0, 2022-05-06 12:24:33.782
44.0, -245.78996498789638, -170.64789507817477, -193.5903113563545, -178.72607898246497, 0.1600000075995922, 0.11200000531971455, 1.0240000486373901, 0.0, 0.0, 0.0, 0.0, 0.0, 1.6518362737820983E9, 0.0, 2022-05-06 12:24:33.782
45.0, -288.15929158590734, -214.27756796125323, -217.47331247339025, -194.51219669543207, 0.1600000075995922, 0.11200000531971455, 1.0240000486373901, 0.0, 0.0, 0.0, 0.0, 0.0, 1.6518362737829995E9, 0.0, 2022-05-06 12:24:33.782
45.0, -237.9249553810805, -91.97909951023757, -125.25485936598852, -163.1493956670165, 0.1600000075995922, 0.11200000531971455, 1.0240000486373901, 0.0, 0.0, 0.0, 0.0, 0.0, 1.6518362737829995E9, 0.0, 2022-05-06 12:24:33.782
46.0, -222.78958026040345, -79.29335886053741, -129.0022391215898, -157.58068463299423, 0.1600000075995922, 0.11200000531971455, 1.0240000486373901, 0.0, 0.0, 0.0, 0.0, 0.0, 1.6518362737961512E9, 0.0, 2022-05-06 12:24:33.796
46.0, -255.66704077087343, -189.60170805361122, -207.03151179710403, -190.51050374284387, 0.1600000075995922, 0.11200000531971455, 1.0240000486373901, 0.0, 0.0, 0.0, 0.0, 0.0, 1.6518362737961512E9, 0.0, 2022-05-06 12:24:33.796
47.0, -288.27148858457804, -211.88777188956738, -218.85333555703983, -208.2077103331685, 0.1600000075995922, 0.11200000531971455, 1.0240000486373901, 0.0, 0.0, 0.0, 0.0, 0.0, 1.6518362738120725E9, 0.0, 2022-05-06 12:24:33.812
47.0, -258.6440011356026, -97.48049234505743, -141.03349727904424, -176.38864151015878, 0.1600000075995922, 0.11200000531971455, 1.0240000486373901, 0.0, 0.0, 0.0, 0.0, 0.0, 1.6518362738120725E9, 0.0, 2022-05-06 12:24:33.812
48.0, -223.57495925109833, -76.27899949625134, -124.97810676926747, -164.20778735447675, 0.1600000075995922, 0.11200000531971455, 1.0240000486373901, 0.0, 0.0, 0.0, 0.0, 0.0, 1.6518362738130548E9, 0.0, 2022-05-06 12:24:33.813
48.0, -270.30126929748803, -201.2402767157182, -210.03465146152303, -197.14882616419345, 0.1600000075995922, 0.11200000531971455, 1.0240000486373901, 0.0, 0.0, 0.0, 0.0, 0.0, 1.6518362738130548E9, 0.0, 2022-05-06 12:24:33.813
49.0, -297.61001877393574, -217.85665221884847, -229.17171953478828, -216.82443983107805, 0.1600000075995922, 0.11200000531971455, 1.0240000486373901, 0.0, 0.0, 0.0, 0.0, 0.0, 1.651836273826121E9, 0.0, 2022-05-06 12:24:33.826
49.0, -240.58028434962034, -94.27913798298687, -137.39083472220227, -170.31130408216268, 0.1600000075995922, 0.11200000531971455, 1.0240000486373901, 0.0, 0.0, 0.0, 0.0, 0.0, 1.651836273826121E9, 0.0, 2022-05-06 12:24:33.826
50.0, -210.15993811003864, -70.91972285974771, -118.06677165115252, -150.17568272072822, 0.1600000075995922, 0.11200000531971455, 1.0240000486373901, 0.0, 0.0, 0.0, 0.0, 0.0, 1.651836273842118E9, 0.0, 2022-05-06 12:24:33.842
50.0, -260.9328199084848, -187.29418978095055, -203.02233904460445, -183.29249682836235, 0.1600000075995922, 0.11200000531971455, 1.0240000486373901, 0.0, 0.0, 0.0, 0.0, 0.0, 1.651836273842118E9, 0.0, 2022-05-06 12:24:33.842
51.0, -291.7757748430595, -212.0298880878836, -221.76297772256657, -203.9816233832389, 0.1600000075995922, 0.11200000531971455, 1.0240000486373901, 0.0, 0.0, 0.0, 0.0, 0.0, 1.651836273843091E9, 0.0, 2022-05-06 12:24:33.843
51.0, -249.81035744026303, -98.69221993070096, -130.41966120479628, -165.55041143856943, 0.1600000075995922, 0.11200000531971455, 1.0240000486373901, 0.0, 0.0, 0.0, 0.0, 0.0, 1.651836273843091E9, 0.0, 2022-05-06 12:24:33.843
52.0, -221.37963797710836, -74.47636771760881, -122.35269700037315, -156.1894418494776, 0.1600000075995922, 0.11200000531971455, 1.0240000486373901, 0.0, 0.0, 0.0, 0.0, 0.0, 1.6518362738561344E9, 0.0, 2022-05-06 12:24:33.856
52.0, -263.70408577565104, -191.8643475268036, -208.84910317556933, -188.08330867160112, 0.1600000075995922, 0.11200000531971455, 1.0240000486373901, 0.0, 0.0, 0.0, 0.0, 0.0, 1.6518362738561344E9, 0.0, 2022-05-06 12:24:33.856
53.0, -290.6276255566627, -215.8109269430861, -222.11826821835712, -205.657098563388, 0.1600000075995922, 0.11200000531971455, 1.0240000486373901, 0.0, 0.0, 0.0, 0.0, 0.0, 1.6518362738721213E9, 0.0, 2022-05-06 12:24:33.872
53.0, -241.72469373606145, -92.18105410784483, -123.9309347816743, -152.00449379906058, 0.1600000075995922, 0.11200000531971455, 1.0240000486373901, 0.0, 0.0, 0.0, 0.0, 0.0, 1.6518362738721213E9, 0.0, 2022-05-06 12:24:33.872
54.0, -203.88438598439097, -64.46465553622693, -111.19283553259447, -137.587179469876, 0.1600000075995922, 0.11200000531971455, 1.0240000486373901, 0.0, 0.0, 0.0, 0.0, 0.0, 1.6518362738730154E9, 0.0, 2022-05-06 12:24:33.873
54.0, -253.44554019719362, -184.05917631927878, -200.7821389711462, -180.8989608567208, 0.1600000075995922, 0.11200000531971455, 1.0240000486373901, 0.0, 0.0, 0.0, 0.0, 0.0, 1.6518362738730154E9, 0.0, 2022-05-06 12:24:33.873
55.0, -297.329526277259, -220.2913270900026, -226.44159256713465, -212.8040473787114, 0.1600000075995922, 0.11200000531971455, 1.0240000486373901, 0.0, 0.0, 0.0, 0.0, 0.0, 1.6518362739030826E9, 0.0, 2022-05-06 12:24:33.903
55.0, -227.71502850204706, -78.5939975688234, -119.17004213808104, -143.79167349636555, 0.1600000075995922, 0.11200000531971455, 1.0240000486373901, 0.0, 0.0, 0.0, 0.0, 0.0, 1.6518362739030826E9, 0.0, 2022-05-06 12:24:33.903
56.0, -195.0208230894059, -65.23507492709905, -107.35943807801232, -128.37206597905606, 0.1600000075995922, 0.11200000531971455, 1.0240000486373901, 0.0, 0.0, 0.0, 0.0, 0.0, 1.6518362739040253E9, 0.0, 2022-05-06 12:24:33.904
56.0, -252.91447440348566, -184.46682541444898, -208.5199919794686, -189.5755287539214, 0.1600000075995922, 0.11200000531971455, 1.0240000486373901, 0.0, 0.0, 0.0, 0.0, 0.0, 1.6518362739040253E9, 0.0, 2022-05-06 12:24:33.904
57.0, -287.56464749295264, -219.74904159642756, -222.3800612152554, -224.24066144321114, 0.1600000075995922, 0.11200000531971455, 1.0240000486373901, 0.0, 0.0, 0.0, 0.0, 0.0, 1.651836273905003E9, 0.0, 2022-05-06 12:24:33.905
57.0, -251.13054212462157, -102.57423608470708, -134.1520813605748, -165.5990301379934, 0.1600000075995922, 0.11200000531971455, 1.0240000486373901, 0.0, 0.0, 0.0, 0.0, 0.0, 1.651836273905003E9, 0.0, 2022-05-06 12:24:33.905
58.0, -219.00480150524527, -83.75505950767547, -132.07269698521122, -158.29126562457532, 0.1600000075995922, 0.11200000531971455, 1.0240000486373901, 0.0, 0.0, 0.0, 0.0, 0.0, 1.651836273916073E9, 0.0, 2022-05-06 12:24:33.916
58.0, -257.8287029452622, -190.641400241293, -209.974813062232, -189.88220055028796, 0.1600000075995922, 0.11200000531971455, 1.0240000486373901, 0.0, 0.0, 0.0, 0.0, 0.0, 1.651836273916073E9, 0.0, 2022-05-06 12:24:33.916
59.0, -302.61026501469314, -218.1371447155252, -225.21864528162405, -209.63261221628636, 0.1600000075995922, 0.11200000531971455, 1.0240000486373901, 0.0, 0.0, 0.0, 0.0, 0.0, 1.6518362739330823E9, 0.0, 2022-05-06 12:24:33.933
59.0, -229.24090768396854, -87.9661868577823, -127.1173295439221, -161.49635988660157, 0.1600000075995922, 0.11200000531971455, 1.0240000486373901, 0.0, 0.0, 0.0, 0.0, 0.0, 1.6518362739330823E9, 0.0, 2022-05-06 12:24:33.933
60.0, -205.55986116454005, -66.85819150786847, -110.5533126401715, -145.53072697576135, 0.1600000075995922, 0.11200000531971455, 1.0240000486373901, 0.0, 0.0, 0.0, 0.0, 0.0, 1.6518362739340162E9, 0.0, 2022-05-06 12:24:33.934
60.0, -273.5362827591598, -204.44911087770015, -219.14504775358364, -211.44272379484028, 0.1600000075995922, 0.11200000531971455, 1.0240000486373901, 0.0, 0.0, 0.0, 0.0, 0.0, 1.6518362739340162E9, 0.0, 2022-05-06 12:24:33.934
61.0, -284.0678410343826, -213.49218897055835, -219.0515502546914, -210.9490570006892, 0.1600000075995922, 0.11200000531971455, 1.0240000486373901, 0.0, 0.0, 0.0, 0.0, 0.0, 1.6518362739460764E9, 0.0, 2022-05-06 12:24:33.946
61.0, -229.61115777958184, -89.66410143766552, -125.47177356341854, -159.99292010441422, 0.1600000075995922, 0.11200000531971455, 1.0240000486373901, 0.0, 0.0, 0.0, 0.0, 0.0, 1.6518362739460764E9, 0.0, 2022-05-06 12:24:33.946
62.0, -216.3232932370156, -75.83395140152425, -122.30781820090488, -140.26120793819427, 0.1600000075995922, 0.11200000531971455, 1.0240000486373901, 0.0, 0.0, 0.0, 0.0, 0.0, 1.6518362739620924E9, 0.0, 2022-05-06 12:24:33.962
62.0, -267.4963443307206, -197.22736406326294, -212.40948793338612, -194.29528249800205, 0.1600000075995922, 0.11200000531971455, 1.0240000486373901, 0.0, 0.0, 0.0, 0.0, 0.0, 1.6518362739620924E9, 0.0, 2022-05-06 12:24:33.962
63.0, -286.9438241003081, -203.06908779405057, -212.59274303121492, -199.59472073521465, 0.1600000075995922, 0.11200000531971455, 1.0240000486373901, 0.0, 0.0, 0.0, 0.0, 0.0, 1.6518362739630585E9, 0.0, 2022-05-06 12:24:33.963
63.0, -235.43792191054672, -89.42100794054568, -124.46200057538226, -163.9310347577557, 0.1600000075995922, 0.11200000531971455, 1.0240000486373901, 0.0, 0.0, 0.0, 0.0, 0.0, 1.6518362739630585E9, 0.0, 2022-05-06 12:24:33.963
64.0, -193.58470150642097, -61.805586667731404, -107.6249709748663, -136.64846458099782, 0.1600000075995922, 0.11200000531971455, 1.0240000486373901, 0.0, 0.0, 0.0, 0.0, 0.0, 1.6518362739760864E9, 0.0, 2022-05-06 12:24:33.976
64.0, -263.7078256756067, -193.15835291147232, -210.35628285771236, -185.84684849809855, 0.1600000075995922, 0.11200000531971455, 1.0240000486373901, 0.0, 0.0, 0.0, 0.0, 0.0, 1.6518362739760864E9, 0.0, 2022-05-06 12:24:33.976
65.0, -290.4705497585237, -206.30036135576665, -220.3081566398032, -210.4666099064052, 0.1600000075995922, 0.11200000531971455, 1.0240000486373901, 0.0, 0.0, 0.0, 0.0, 0.0, 1.6518362739920857E9, 0.0, 2022-05-06 12:24:33.992
65.0, -237.13209659047425, -90.62525572627783, -125.26981896581128, -162.6295495731756, 0.1600000075995922, 0.11200000531971455, 1.0240000486373901, 0.0, 0.0, 0.0, 0.0, 0.0, 1.6518362739920857E9, 0.0, 2022-05-06 12:24:33.992
66.0, -194.29528249800205, -63.73163514491171, -105.37355120154098, -126.64797209948301, 0.1600000075995922, 0.11200000531971455, 1.0240000486373901, 0.0, 0.0, 0.0, 0.0, 0.0, 1.65183627399304E9, 0.0, 2022-05-06 12:24:33.993
66.0, -259.9080873206258, -182.8324891338125, -196.01376652764156, -165.20634064264596, 0.1600000075995922, 0.11200000531971455, 1.0240000486373901, 0.0, 0.0, 0.0, 0.0, 0.0, 1.65183627399304E9, 0.0, 2022-05-06 12:24:33.993
67.0, -280.33168097864836, -207.99453603569418, -213.87926861597225, -213.57446676958352, 0.1600000075995922, 0.11200000531971455, 1.0240000486373901, 0.0, 0.0, 0.0, 0.0, 0.0, 1.65183627400607E9, 0.0, 2022-05-06 12:24:34.006
67.0, -241.4479411393404, -92.52886480372399, -129.79883781215176, -163.99461305700243, 0.1600000075995922, 0.11200000531971455, 1.0240000486373901, 0.0, 0.0, 0.0, 0.0, 0.0, 1.65183627400607E9, 0.0, 2022-05-06 12:24:34.006
68.0, -211.33052679616958, -81.08851083926857, -126.78073854791, -162.0349054802209, 0.1600000075995922, 0.11200000531971455, 1.0240000486373901, 0.0, 0.0, 0.0, 0.0, 0.0, 1.6518362740221004E9, 0.0, 2022-05-06 12:24:34.022
68.0, -269.5271100066602, -193.80535560380667, -209.25675227073953, -199.37032673787326, 0.1600000075995922, 0.11200000531971455, 1.0240000486373901, 0.0, 0.0, 0.0, 0.0, 0.0, 1.6518362740221004E9, 0.0, 2022-05-06 12:24:34.022
69.0, -270.8024158915505, -202.89331249613315, -201.7096341601573, -195.8697803793475, 0.1600000075995922, 0.11200000531971455, 1.0240000486373901, 0.0, 0.0, 0.0, 0.0, 0.0, 1.6518362740230749E9, 0.0, 2022-05-06 12:24:34.023
69.0, -239.4134355634451, -92.02023840975016, -129.0770371207036, -161.7394533837214, 0.1600000075995922, 0.11200000531971455, 1.0240000486373901, 0.0, 0.0, 0.0, 0.0, 0.0, 1.6518362740230749E9, 0.0, 2022-05-06 12:24:34.023
70.0, -212.67689078021795, -67.71836849767715, -119.09898403892294, -147.37823755387217, 0.1600000075995922, 0.11200000531971455, 1.008000047877431, 0.0, 0.0, 0.0, 0.0, 0.0, 1.6518362740360787E9, 0.0, 2022-05-06 12:24:34.036
70.0, -257.06576335430145, -183.8310424219817, -209.01739867357537, -189.99439754895866, 0.1600000075995922, 0.11200000531971455, 1.008000047877431, 0.0, 0.0, 0.0, 0.0, 0.0, 1.6518362740360787E9, 0.0, 2022-05-06 12:24:34.036
71.0, -291.8131738426164, -217.3592455247417, -223.4234933028929, -203.41689848992974, 0.1600000075995922, 0.11200000531971455, 1.008000047877431, 0.0, 0.0, 0.0, 0.0, 0.0, 1.6518362740521195E9, 0.0, 2022-05-06 12:24:34.052
71.0, -232.43104234617203, -93.87896868772805, -126.04771815659478, -156.1146438503638, 0.1600000075995922, 0.11200000531971455, 1.008000047877431, 0.0, 0.0, 0.0, 0.0, 0.0, 1.6518362740521195E9, 0.0, 2022-05-06 12:24:34.052
72.0, -200.58953412342817, -64.95084253046662, -109.83151194872335, -147.01920715812594, 0.1600000075995922, 0.11200000531971455, 1.008000047877431, 0.0, 0.0, 0.0, 0.0, 0.0, 1.651836274053043E9, 0.0, 2022-05-06 12:24:34.053
72.0, -252.48064600862563, -188.65551336482167, -206.18255450716242, -196.70751796942204, 0.1600000075995922, 0.11200000531971455, 1.008000047877431, 0.0, 0.0, 0.0, 0.0, 0.0, 1.651836274053043E9, 0.0, 2022-05-06 12:24:34.053
73.0, -291.3905651476234, -213.9147976655513, -220.35303543927148, -208.1403921339661, 0.1600000075995922, 0.11200000531971455, 1.008000047877431, 0.0, 0.0, 0.0, 0.0, 0.0, 1.6518362740660968E9, 0.0, 2022-05-06 12:24:34.066
73.0, -232.9957672394812, -90.1914273314178, -130.4458405044861, -164.62665614951402, 0.1600000075995922, 0.11200000531971455, 1.008000047877431, 0.0, 0.0, 0.0, 0.0, 0.0, 1.6518362740660968E9, 0.0, 2022-05-06 12:24:34.066
74.0, -205.42522476613522, -64.94336273055524, -112.64765661535785, -146.35724486596882, 0.1600000075995922, 0.11200000531971455, 1.008000047877431, 0.0, 0.0, 0.0, 0.0, 0.0, 1.6518362740820878E9, 0.0, 2022-05-06 12:24:34.082
74.0, -254.58620968367904, -181.66190044768155, -201.3767830641009, -181.1607538536191, 0.1600000075995922, 0.11200000531971455, 1.008000047877431, 0.0, 0.0, 0.0, 0.0, 0.0, 1.6518362740820878E9, 0.0, 2022-05-06 12:24:34.082
75.0, -271.6027544820681, -197.6088338587433, -204.3761828285642, -194.62439369410276, 0.1600000075995922, 0.11200000531971455, 1.008000047877431, 0.0, 0.0, 0.0, 0.0, 0.0, 1.6518362740830195E9, 0.0, 2022-05-06 12:24:34.083
75.0, -225.13449753262103, -79.73466705530882, -122.2629394014366, -161.81051148287952, 0.1600000075995922, 0.11200000531971455, 1.008000047877431, 0.0, 0.0, 0.0, 0.0, 0.0, 1.6518362740830195E9, 0.0, 2022-05-06 12:24:34.083
76.0, -212.45249678287655, -74.9962138114497, -119.75720643112436, -148.85549803636968, 0.1600000075995922, 0.11200000531971455, 1.008000047877431, 0.0, 0.0, 0.0, 0.0, 0.0, 1.651836274096079E9, 0.0, 2022-05-06 12:24:34.096
76.0, -266.62120774108917, -195.15171958785504, -211.58670994313434, -184.11901471856982, 0.1600000075995922, 0.11200000531971455, 1.008000047877431, 0.0, 0.0, 0.0, 0.0, 0.0, 1.651836274096079E9, 0.0, 2022-05-06 12:24:34.096
77.0, -285.3244474194944, -210.49278920609504, -212.84331632824615, -199.92757183127105, 0.1600000075995922, 0.11200000531971455, 1.008000047877431, 0.0, 0.0, 0.0, 0.0, 0.0, 1.6518362741120868E9, 0.0, 2022-05-06 12:24:34.112
77.0, -228.5864251917228, -84.09913030359894, -116.70918796723709, -158.60541722085327, 0.1600000075995922, 0.11200000531971455, 1.008000047877431, 0.0, 0.0, 0.0, 0.0, 0.0, 1.6518362741120868E9, 0.0, 2022-05-06 12:24:34.112
78.0, -220.38482458889484, -77.24763358477503, -124.43582127569243, -154.42420907039195, 0.1600000075995922, 0.11200000531971455, 1.008000047877431, 0.0, 0.0, 0.0, 0.0, 0.0, 1.65183627411302E9, 0.0, 2022-05-06 12:24:34.113
78.0, -245.25141939427704, -182.67167343571782, -204.79505162360147, -190.0878950478509, 0.1600000075995922, 0.11200000531971455, 1.008000047877431, 0.0, 0.0, 0.0, 0.0, 0.0, 1.65183627411302E9, 0.0, 2022-05-06 12:24:34.113
79.0, -282.0931738577783, -209.23992272093892, -215.49864529678598, -212.41135788336396, 0.1600000075995922, 0.11200000531971455, 1.008000047877431, 0.0, 0.0, 0.0, 0.0, 0.0, 1.6518362741261773E9, 0.0, 2022-05-06 12:24:34.126
79.0, -240.0379988560453, -94.44743348099291, -124.89582897024229, -161.16724869050086, 0.1600000075995922, 0.11200000531971455, 1.008000047877431, 0.0, 0.0, 0.0, 0.0, 0.0, 1.6518362741261773E9, 0.0, 2022-05-06 12:24:34.126
80.0, -199.90139253158122, -62.620884858071804, -103.72051542112604, -128.67873777542263, 0.1600000075995922, 0.11200000531971455, 1.0240000486373901, 0.0, 0.0, 0.0, 0.0, 0.0, 1.6518362741421163E9, 0.0, 2022-05-06 12:24:34.142
80.0, -247.53275836724788, -182.85118863359094, -200.69986117212102, -174.88146182801574, 0.1600000075995922, 0.11200000531971455, 1.0240000486373901, 0.0, 0.0, 0.0, 0.0, 0.0, 1.6518362741421163E9, 0.0, 2022-05-06 12:24:34.142
81.0, -287.7217232910916, -201.60304701142013, -207.69347408926114, -205.29806816764176, 0.1600000075995922, 0.11200000531971455, 1.0240000486373901, 0.0, 0.0, 0.0, 0.0, 0.0, 1.651836274157084E9, 0.0, 2022-05-06 12:24:34.157
81.0, -233.3286183355376, -83.84855700656772, -125.1875411667861, -164.95576734561473, 0.1600000075995922, 0.11200000531971455, 1.0240000486373901, 0.0, 0.0, 0.0, 0.0, 0.0, 1.651836274157084E9, 0.0, 2022-05-06 12:24:34.157
82.0, -205.22327016852796, -70.68784906249493, -117.7787993545644, -141.38691782485694, 0.1600000075995922, 0.11200000531971455, 1.0240000486373901, 0.0, 0.0, 0.0, 0.0, 0.0, 1.6518362741580064E9, 0.0, 2022-05-06 12:24:34.158
82.0, -260.4952516136691, -189.15292005892843, -206.3358904053457, -184.78097701072693, 0.1600000075995922, 0.11200000531971455, 1.0240000486373901, 0.0, 0.0, 0.0, 0.0, 0.0, 1.6518362741580064E9, 0.0, 2022-05-06 12:24:34.158
83.0, -277.36594031378627, -215.92686384171247, -220.9065406327136, -223.84049214795232, 0.1600000075995922, 0.11200000531971455, 1.0240000486373901, 0.0, 0.0, 0.0, 0.0, 0.0, 1.651836274172092E9, 0.0, 2022-05-06 12:24:34.172
83.0, -233.7362674307078, -92.80187750048935, -129.42484781658277, -162.99231986887753, 0.1600000075995922, 0.11200000531971455, 1.0240000486373901, 0.0, 0.0, 0.0, 0.0, 0.0, 1.651836274172092E9, 0.0, 2022-05-06 12:24:34.172
84.0, -220.68401658535004, -87.88390905875713, -135.3039705469273, -161.2607461893931, 0.1600000075995922, 0.11200000531971455, 1.0240000486373901, 0.0, 0.0, 0.0, 0.0, 0.0, 1.6518362741730316E9, 0.0, 2022-05-06 12:24:34.173
84.0, -272.3095955736935, -211.29312779661268, -223.17665990581736, -212.34777958411723, 0.1600000075995922, 0.11200000531971455, 1.0240000486373901, 0.0, 0.0, 0.0, 0.0, 0.0, 1.6518362741730316E9, 0.0, 2022-05-06 12:24:34.173
85.0, -280.04370868206024, -203.45803738944232, -209.95237366249785, -198.82056144438684, 0.1600000075995922, 0.11200000531971455, 1.0240000486373901, 0.0, 0.0, 0.0, 0.0, 0.0, 1.6518362741862657E9, 0.0, 2022-05-06 12:24:34.186
85.0, -224.53237363975495, -77.21023458521813, -117.25147346081212, -147.5465330518782, 0.1600000075995922, 0.11200000531971455, 1.0240000486373901, 0.0, 0.0, 0.0, 0.0, 0.0, 1.6518362741862657E9, 0.0, 2022-05-06 12:24:34.186
86.0, -196.08295467682183, -65.09669862873852, -111.92959582386538, -145.01088088192046, 0.1600000075995922, 0.11200000531971455, 1.0240000486373901, 0.0, 0.0, 0.0, 0.0, 0.0, 1.6518362742021356E9, 0.0, 2022-05-06 12:24:34.202
86.0, -258.5243243370205, -197.130126664415, -209.009918873664, -183.99185812007636, 0.1600000075995922, 0.11200000531971455, 1.0240000486373901, 0.0, 0.0, 0.0, 0.0, 0.0, 1.6518362742021356E9, 0.0, 2022-05-06 12:24:34.202
87.0, -267.67211962863803, -198.29323555063456, -200.7447399715893, -188.3825006680563, 0.1600000075995922, 0.11200000531971455, 1.0240000486373901, 0.0, 0.0, 0.0, 0.0, 0.0, 1.6518362742030132E9, 0.0, 2022-05-06 12:24:34.203
87.0, -216.60752563364804, -80.08995755109936, -116.62691016821191, -162.83898397069424, 0.1600000075995922, 0.11200000531971455, 1.0240000486373901, 0.0, 0.0, 0.0, 0.0, 0.0, 1.6518362742030132E9, 0.0, 2022-05-06 12:24:34.203
88.0, -191.47539793141186, -60.78459397982806, -108.44774896511808, -132.15310483425856, 0.1600000075995922, 0.11200000531971455, 1.0240000486373901, 0.0, 0.0, 0.0, 0.0, 0.0, 1.6518362742160716E9, 0.0, 2022-05-06 12:24:34.216
88.0, -272.73594416864216, -192.61980731785297, -211.17906084796414, -196.04555567726493, 0.1600000075995922, 0.11200000531971455, 1.0240000486373901, 0.0, 0.0, 0.0, 0.0, 0.0, 1.6518362742160716E9, 0.0, 2022-05-06 12:24:34.216
89.0, -285.3506267191842, -204.73334327433258, -209.87009586347267, -203.2785221915692, 0.1600000075995922, 0.11200000531971455, 1.0240000486373901, 0.0, 0.0, 0.0, 0.0, 0.0, 1.6518362742320728E9, 0.0, 2022-05-06 12:24:34.232
89.0, -219.3226930014789, -72.60641773976386, -107.46789517672732, -137.74799516797066, 0.1600000075995922, 0.11200000531971455, 1.0240000486373901, 0.0, 0.0, 0.0, 0.0, 0.0, 1.6518362742320728E9, 0.0, 2022-05-06 12:24:34.232
90.0, -204.06764108221978, -65.9942746181041, -120.54632532177493, -150.09340492170304, 0.1600000075995922, 0.11200000531971455, 1.008000047877431, 0.0, 0.0, 0.0, 0.0, 0.0, 1.6518362742330153E9, 0.0, 2022-05-06 12:24:34.233
90.0, -252.18519391212612, -182.6080951364711, -194.45796814607456, -176.6055557075888, 0.1600000075995922, 0.11200000531971455, 1.008000047877431, 0.0, 0.0, 0.0, 0.0, 0.0, 1.6518362742330153E9, 0.0, 2022-05-06 12:24:34.233
91.0, -279.6173600871116, -204.49772957712412, -211.72508624149486, -206.27418205607682, 0.1600000075995922, 0.11200000531971455, 1.008000047877431, 0.0, 0.0, 0.0, 0.0, 0.0, 1.6518362742461257E9, 0.0, 2022-05-06 12:24:34.246
91.0, -232.8499111412093, -91.58641001489013, -129.79883781215176, -171.92320096306503, 0.1600000075995922, 0.11200000531971455, 1.008000047877431, 0.0, 0.0, 0.0, 0.0, 0.0, 1.6518362742461257E9, 0.0, 2022-05-06 12:24:34.246
92.0, -203.22616359218955, -61.734528568573296, -107.9241629713215, -133.2900344207883, 0.1600000075995922, 0.11200000531971455, 1.008000047877431, 0.0, 0.0, 0.0, 0.0, 0.0, 1.6518362742620692E9, 0.0, 2022-05-06 12:24:34.262
92.0, -254.53759098425508, -191.8680874267593, -209.95611356245354, -197.4629777604714, 0.1600000075995922, 0.11200000531971455, 1.008000047877431, 0.0, 0.0, 0.0, 0.0, 0.0, 1.6518362742620692E9, 0.0, 2022-05-06 12:24:34.262
93.0, -267.6908191284165, -208.5106422295794, -216.94972647959366, -208.92577112466097, 0.1600000075995922, 0.11200000531971455, 1.008000047877431, 0.0, 0.0, 0.0, 0.0, 0.0, 1.651836274263065E9, 0.0, 2022-05-06 12:24:34.263
93.0, -248.1199226602912, -94.17068088427186, -132.14001518441364, -169.9298342866823, 0.1600000075995922, 0.11200000531971455, 1.008000047877431, 0.0, 0.0, 0.0, 0.0, 0.0, 1.651836274263065E9, 0.0, 2022-05-06 12:24:34.263
94.0, -198.36429364979267, -60.605078781954944, -107.56513257557526, -139.63664464559406, 0.1600000075995922, 0.11200000531971455, 1.008000047877431, 0.0, 0.0, 0.0, 0.0, 0.0, 1.6518362742760808E9, 0.0, 2022-05-06 12:24:34.276
94.0, -254.94150017946959, -184.54162341356277, -196.90012281714007, -186.5349900899455, 0.1600000075995922, 0.11200000531971455, 1.008000047877431, 0.0, 0.0, 0.0, 0.0, 0.0, 1.6518362742760808E9, 0.0, 2022-05-06 12:24:34.276
95.0, -287.96481678821146, -210.03652141150087, -213.894228215795, -205.2083105687052, 0.1600000075995922, 0.11200000531971455, 1.008000047877431, 0.0, 0.0, 0.0, 0.0, 0.0, 1.651836274308144E9, 0.0, 2022-05-06 12:24:34.308
95.0, -210.66856450401247, -68.5149671882391, -100.66875705728307, -127.73628298658878, 0.1600000075995922, 0.11200000531971455, 1.008000047877431, 0.0, 0.0, 0.0, 0.0, 0.0, 1.651836274308144E9, 0.0, 2022-05-06 12:24:34.308
96.0, -192.571188618429, -65.21263552736491, -114.12117719789967, -137.70311636850238, 0.1600000075995922, 0.11200000531971455, 1.008000047877431, 0.0, 0.0, 0.0, 0.0, 0.0, 1.6518362743090293E9, 0.0, 2022-05-06 12:24:34.309
96.0, -251.09314312506467, -190.7236780403182, -206.33215050539002, -186.3442551922053, 0.1600000075995922, 0.11200000531971455, 1.008000047877431, 0.0, 0.0, 0.0, 0.0, 0.0, 1.6518362743090293E9, 0.0, 2022-05-06 12:24:34.309
97.0, -281.6481257630512, -200.00236983038485, -212.4132278333418, -204.26585577987134, 0.1600000075995922, 0.11200000531971455, 1.008000047877431, 0.0, 0.0, 0.0, 0.0, 0.0, 1.651836274310037E9, 0.0, 2022-05-06 12:24:34.310
97.0, -227.2512809075415, -87.08357046823949, -120.2957520247437, -162.08352417964488, 0.1600000075995922, 0.11200000531971455, 1.008000047877431, 0.0, 0.0, 0.0, 0.0, 0.0, 1.651836274310037E9, 0.0, 2022-05-06 12:24:34.310
98.0, -196.66263916995376, -72.49796064104885, -109.46126185311005, -143.52614059951156, 0.1600000075995922, 0.11200000531971455, 1.008000047877431, 0.0, 0.0, 0.0, 0.0, 0.0, 1.6518362743110332E9, 0.0, 2022-05-06 12:24:34.311
98.0, -247.9665867621079, -192.81802201550454, -203.64316243724898, -186.33677539229393, 0.1600000075995922, 0.11200000531971455, 1.008000047877431, 0.0, 0.0, 0.0, 0.0, 0.0, 1.6518362743110332E9, 0.0, 2022-05-06 12:24:34.311
99.0, -291.3643858479336, -212.41509778331965, -218.65138095943257, -210.55262760538608, 0.1600000075995922, 0.11200000531971455, 1.008000047877431, 0.0, 0.0, 0.0, 0.0, 0.0, 1.6518362743210783E9, 0.0, 2022-05-06 12:24:34.321
99.0, -208.1703113336116, -71.70510185044259, -103.52978052338585, -129.38183896709234, 0.1600000075995922, 0.11200000531971455, 1.008000047877431, 0.0, 0.0, 0.0, 0.0, 0.0, 1.6518362743210783E9, 0.0, 2022-05-06 12:24:34.321
100.0, -189.56430905405432, -57.59819921758026, -109.00499405851588, -130.2831548564136, 0.1600000075995922, 0.11200000531971455, 1.0240000486373901, 0.0, 0.0, 0.0, 0.0, 0.0, 1.6518362743531692E9, 0.0, 2022-05-06 12:24:34.353
100.0, -264.5380834657699, -193.3902267087251, -209.0847168727778, -199.93505163118243, 0.1600000075995922, 0.11200000531971455, 1.0240000486373901, 0.0, 0.0, 0.0, 0.0, 0.0, 1.6518362743531692E9, 0.0, 2022-05-06 12:24:34.353
0.0, -285.32631736947224, -214.42903390945867, -219.7509115464054, -215.83336634282023, 0.1600000075995922, 0.11200000531971455, 1.0240000486373901, 0.0, 0.0, 0.0, 0.0, 0.0, 1.6518362743540103E9, 0.0, 2022-05-06 12:24:34.354
1.0, -219.48537864955142, -84.10474015353248, -124.54801827436313, -158.19776812568307, 0.1600000075995922, 0.11200000531971455, 1.0240000486373901, 0.0, 0.0, 0.0, 0.0, 0.0, 1.6518362743550346E9, 0.0, 2022-05-06 12:24:34.355
1.0, -213.77081151725724, -78.25179672287777, -125.87568275863305, -149.4015234299004, 0.1600000075995922, 0.11200000531971455, 1.0240000486373901, 0.0, 0.0, 0.0, 0.0, 0.0, 1.6518362743550346E9, 0.0, 2022-05-06 12:24:34.355
2.0, -271.43258903408423, -192.5917580681853, -211.6428084424697, -193.74551720451564, 0.1600000075995922, 0.11200000531971455, 1.0240000486373901, 0.0, 0.0, 0.0, 0.0, 0.0, 1.6518362743562253E9, 0.0, 2022-05-06 12:24:34.356
2.0, -294.51525156060234, -211.79240444069728, -218.48682536138222, -211.52126169390976, 0.1600000075995922, 0.11200000531971455, 1.0240000486373901, 0.0, 0.0, 0.0, 0.0, 0.0, 1.6518362743562253E9, 0.0, 2022-05-06 12:24:34.356
3.0, -228.91740633780137, -82.27218917524442, -122.95482089323923, -148.48524794075638, 0.1600000075995922, 0.11200000531971455, 1.0240000486373901, 0.0, 0.0, 0.0, 0.0, 0.0, 1.651836274366115E9, 0.0, 2022-05-06 12:24:34.366
3.0, -202.21078075421974, -69.41067322762683, -114.07629839843139, -122.91929184366018, 0.1600000075995922, 0.11200000531971455, 1.0240000486373901, 0.0, 0.0, 0.0, 0.0, 0.0, 1.651836274366115E9, 0.0, 2022-05-06 12:24:34.366
4.0, -255.2537818257697, -189.4427623054944, -204.53699852665886, -178.36330868676305, 0.1600000075995922, 0.11200000531971455, 1.0240000486373901, 0.0, 0.0, 0.0, 0.0, 0.0, 1.651836274381168E9, 0.0, 2022-05-06 12:24:34.381
4.0, -296.448779837694, -219.0515502546914, -231.51289690705016, -230.16840287297964, 0.1600000075995922, 0.11200000531971455, 1.0240000486373901, 0.0, 0.0, 0.0, 0.0, 0.0, 1.651836274381168E9, 0.0, 2022-05-06 12:24:34.381
5.0, -237.6164136347361, -94.45678323088214, -128.84142342349514, -173.43412054516375, 0.1600000075995922, 0.11200000531971455, 1.0240000486373901, 0.0, 0.0, 0.0, 0.0, 0.0, 1.6518362743970945E9, 0.0, 2022-05-06 12:24:34.397
5.0, -201.95272765727714, -78.67440541787073, -119.91054232930765, -147.41937645338476, 0.1600000075995922, 0.11200000531971455, 1.0240000486373901, 0.0, 0.0, 0.0, 0.0, 0.0, 1.6518362743970945E9, 0.0, 2022-05-06 12:24:34.397
6.0, -265.86387800006196, -198.2203075014986, -215.4163674977608, -204.75204277411103, 0.1600000075995922, 0.11200000531971455, 1.0240000486373901, 0.0, 0.0, 0.0, 0.0, 0.0, 1.6518362743980336E9, 0.0, 2022-05-06 12:24:34.398
6.0, -298.28507071593776, -217.11428207764402, -221.10101543040946, -218.08478611614555, 0.1600000075995922, 0.11200000531971455, 1.0240000486373901, 0.0, 0.0, 0.0, 0.0, 0.0, 1.6518362743980336E9, 0.0, 2022-05-06 12:24:34.398
7.0, -229.47465143119916, -85.71289713447914, -120.88665621774271, -157.65174273215234, 0.1600000075995922, 0.11200000531971455, 1.0240000486373901, 0.0, 0.0, 0.0, 0.0, 0.0, 1.6518362744111223E9, 0.0, 2022-05-06 12:24:34.411
7.0, -213.5651170196943, -82.0178759782575, -123.36620988836512, -137.9910886650905, 0.1600000075995922, 0.11200000531971455, 1.0240000486373901, 0.0, 0.0, 0.0, 0.0, 0.0, 1.6518362744111223E9, 0.0, 2022-05-06 12:24:34.411
8.0, -260.2577679664828, -196.28677922440693, -211.53435134375468, -199.4301651371643, 0.1600000075995922, 0.11200000531971455, 1.0240000486373901, 0.0, 0.0, 0.0, 0.0, 0.0, 1.6518362744271224E9, 0.0, 2022-05-06 12:24:34.427
8.0, -288.58003033092245, -209.68684076564386, -218.57658296031877, -218.53731401078403, 0.1600000075995922, 0.11200000531971455, 1.0240000486373901, 0.0, 0.0, 0.0, 0.0, 0.0, 1.6518362744271224E9, 0.0, 2022-05-06 12:24:34.427
9.0, -231.55403580656275, -81.86080018011853, -116.91862236475572, -156.630750044249, 0.1600000075995922, 0.11200000531971455, 1.0240000486373901, 0.0, 0.0, 0.0, 0.0, 0.0, 1.651836274428013E9, 0.0, 2022-05-06 12:24:34.428
9.0, -215.27799119940028, -76.58754124259576, -120.56128492159769, -142.52384741138667, 0.1600000075995922, 0.11200000531971455, 1.0240000486373901, 0.0, 0.0, 0.0, 0.0, 0.0, 1.651836274428013E9, 0.0, 2022-05-06 12:24:34.428
10.0, -273.72888760687783, -195.707094731275, -211.84850294003263, -193.06485541258007, 0.1600000075995922, 0.11200000531971455, 1.008000047877431, 0.0, 0.0, 0.0, 0.0, 0.0, 1.6518362744580848E9, 0.0, 2022-05-06 12:24:34.458
10.0, -301.6883796756156, -215.57718319585547, -215.09473610157147, -200.19310472812504, 0.1600000075995922, 0.11200000531971455, 1.008000047877431, 0.0, 0.0, 0.0, 0.0, 0.0, 1.6518362744580848E9, 0.0, 2022-05-06 12:24:34.458
11.0, -229.7214848282747, -78.29293562239036, -113.06278551043943, -149.56607902795076, 0.1600000075995922, 0.12800000607967377, 1.008000047877431, 0.0, 0.0, 0.0, 0.0, 0.0, 1.651836274459026E9, 0.0, 2022-05-06 12:24:34.459
11.0, -197.5583452093415, -66.72168515948579, -119.98908022837713, -150.8862637123093, 0.1600000075995922, 0.12800000607967377, 1.008000047877431, 0.0, 0.0, 0.0, 0.0, 0.0, 1.651836274459026E9, 0.0, 2022-05-06 12:24:34.459
12.0, -266.7464943896048, -201.6722351606004, -218.18389346497133, -198.43909164890647, 0.1600000075995922, 0.12800000607967377, 1.008000047877431, 0.0, 0.0, 0.0, 0.0, 0.0, 1.651836274460019E9, 0.0, 2022-05-06 12:24:34.460
12.0, -305.5703958296217, -213.96528631495312, -214.12984191300347, -195.7201843811199, 0.1600000075995922, 0.12800000607967377, 1.008000047877431, 0.0, 0.0, 0.0, 0.0, 0.0, 1.651836274460019E9, 0.0, 2022-05-06 12:24:34.460
13.0, -225.4542589788325, -84.31417455105111, -125.22120026638731, -146.69383586198092, 0.1600000075995922, 0.12800000607967377, 1.008000047877431, 0.0, 0.0, 0.0, 0.0, 0.0, 1.6518362744711545E9, 0.0, 2022-05-06 12:24:34.471
13.0, -219.10390885407105, -82.5414619720541, -134.51111175632104, -176.62799510732293, 0.1600000075995922, 0.12800000607967377, 1.008000047877431, 0.0, 0.0, 0.0, 0.0, 0.0, 1.6518362744711545E9, 0.0, 2022-05-06 12:24:34.471
14.0, -276.2308806772344, -208.8977218749933, -219.0852093542926, -209.8046476142481, 0.1600000075995922, 0.12800000607967377, 1.008000047877431, 0.0, 0.0, 0.0, 0.0, 0.0, 1.6518362744871209E9, 0.0, 2022-05-06 12:24:34.487
14.0, -299.63143469998613, -214.42529400950298, -221.7554979226552, -218.13340481556952, 0.1600000075995922, 0.12800000607967377, 1.008000047877431, 0.0, 0.0, 0.0, 0.0, 0.0, 1.6518362744871209E9, 0.0, 2022-05-06 12:24:34.487
15.0, -227.55608275393024, -81.16517878836021, -116.1856019734405, -158.8485107179731, 0.1600000075995922, 0.12800000607967377, 1.008000047877431, 0.0, 0.0, 0.0, 0.0, 0.0, 1.651836274488147E9, 0.0, 2022-05-06 12:24:34.488
15.0, -201.7096341601573, -71.53867630241439, -119.27849923679605, -143.12971120420843, 0.1600000075995922, 0.12800000607967377, 1.008000047877431, 0.0, 0.0, 0.0, 0.0, 0.0, 1.651836274488147E9, 0.0, 2022-05-06 12:24:34.488
16.0, -285.76014576433226, -212.3758288337849, -226.04142327187583, -207.29517474398017, 0.1600000075995922, 0.12800000607967377, 1.008000047877431, 0.0, 0.0, 0.0, 0.0, 0.0, 1.651836274501161E9, 0.0, 2022-05-06 12:24:34.501
16.0, -284.13702918356284, -207.98144638584927, -208.14226208394393, -200.11456682905555, 0.1600000075995922, 0.12800000607967377, 1.008000047877431, 0.0, 0.0, 0.0, 0.0, 0.0, 1.651836274501161E9, 0.0, 2022-05-06 12:24:34.501
17.0, -233.52870298316702, -84.26929575158283, -125.5241321627982, -153.9230624763295, 0.1600000075995922, 0.12800000607967377, 1.008000047877431, 0.0, 0.0, 0.0, 0.0, 0.0, 1.6518362745170815E9, 0.0, 2022-05-06 12:24:34.517
17.0, -224.42952639097348, -78.7230241172947, -130.5580375031568, -150.69178891461343, 0.1600000075995922, 0.12800000607967377, 1.008000047877431, 0.0, 0.0, 0.0, 0.0, 0.0, 1.6518362745170815E9, 0.0, 2022-05-06 12:24:34.517
18.0, -272.05341242672876, -201.41792196361348, -214.72448600595817, -199.759276333265, 0.1600000075995922, 0.12800000607967377, 1.008000047877431, 0.0, 0.0, 0.0, 0.0, 0.0, 1.6518362745180345E9, 0.0, 2022-05-06 12:24:34.518
18.0, -293.47555937292054, -203.5646245381795, -208.22079998301342, -196.86085386760533, 0.1600000075995922, 0.12800000607967377, 1.008000047877431, 0.0, 0.0, 0.0, 0.0, 0.0, 1.6518362745180345E9, 0.0, 2022-05-06 12:24:34.518
19.0, -219.4218003503047, -69.81458242284134, -110.8113657371141, -144.65559038612992, 0.1600000075995922, 0.12800000607967377, 1.008000047877431, 0.0, 0.0, 0.0, 0.0, 0.0, 1.6518362745311244E9, 0.0, 2022-05-06 12:24:34.531
19.0, -208.05998428491876, -67.30136965261772, -108.88157735997811, -127.0967600941658, 0.1600000075995922, 0.12800000607967377, 1.008000047877431, 0.0, 0.0, 0.0, 0.0, 0.0, 1.6518362745311244E9, 0.0, 2022-05-06 12:24:34.531
20.0, -264.3566983179189, -190.6283105914481, -211.1192224486731, -184.77349721081555, 0.1600000075995922, 0.12800000607967377, 1.008000047877431, 0.0, 0.0, 0.0, 0.0, 0.0, 1.6518362745470786E9, 0.0, 2022-05-06 12:24:34.547
20.0, -301.47146547818556, -220.29693693993613, -233.5361827830784, -229.08383188582957, 0.1600000075995922, 0.12800000607967377, 1.008000047877431, 0.0, 0.0, 0.0, 0.0, 0.0, 1.6518362745470786E9, 0.0, 2022-05-06 12:24:34.547
21.0, -226.29573646886274, -90.2119967811741, -123.39238918805495, -158.68021521996707, 0.1600000075995922, 0.12800000607967377, 1.008000047877431, 0.0, 0.0, 0.0, 0.0, 0.0, 1.6518362745480149E9, 0.0, 2022-05-06 12:24:34.548
21.0, -213.51649832027033, -87.65764511143789, -133.99874546239153, -142.70336260925978, 0.1600000075995922, 0.12800000607967377, 1.008000047877431, 0.0, 0.0, 0.0, 0.0, 0.0, 1.6518362745480149E9, 0.0, 2022-05-06 12:24:34.548
22.0, -272.43114232225344, -203.9311347338371, -219.7509115464054, -201.64044601097703, 0.1600000075995922, 0.12800000607967377, 1.008000047877431, 0.0, 0.0, 0.0, 0.0, 0.0, 1.6518362745610614E9, 0.0, 2022-05-06 12:24:34.561
22.0, -305.4993377304636, -216.76647138176486, -224.44822589075193, -227.86088460031897, 0.1600000075995922, 0.12800000607967377, 1.008000047877431, 0.0, 0.0, 0.0, 0.0, 0.0, 1.6518362745610614E9, 0.0, 2022-05-06 12:24:34.561
23.0, -254.04953404003754, -91.19933036947623, -131.61268929066136, -167.64101551380008, 0.1600000075995922, 0.12800000607967377, 1.008000047877431, 0.0, 0.0, 0.0, 0.0, 0.0, 1.6518362745770779E9, 0.0, 2022-05-06 12:24:34.577
23.0, -214.1896803122945, -91.8762522614561, -135.7153595420532, -161.81051148287952, 0.1600000075995922, 0.12800000607967377, 1.008000047877431, 0.0, 0.0, 0.0, 0.0, 0.0, 1.6518362745770779E9, 0.0, 2022-05-06 12:24:34.577
24.0, -288.02652513748035, -207.51021899143234, -223.96203889651224, -206.5060558533296, 0.1600000075995922, 0.12800000607967377, 1.008000047877431, 0.0, 0.0, 0.0, 0.0, 0.0, 1.6518362745780115E9, 0.0, 2022-05-06 12:24:34.578
24.0, -306.81578251486644, -213.66235441854224, -218.54292386071756, -214.98440905287862, 0.1600000075995922, 0.12800000607967377, 1.008000047877431, 0.0, 0.0, 0.0, 0.0, 0.0, 1.6518362745780115E9, 0.0, 2022-05-06 12:24:34.578
25.0, -229.13432053523138, -76.81193523993716, -116.69422836741433, -152.35978429485112, 0.1600000075995922, 0.12800000607967377, 1.008000047877431, 0.0, 0.0, 0.0, 0.0, 0.0, 1.6518362745911753E9, 0.0, 2022-05-06 12:24:34.591
25.0, -213.7895110170357, -83.06130806589499, -130.10176970856264, -154.12875697389245, 0.1600000075995922, 0.12800000607967377, 1.008000047877431, 0.0, 0.0, 0.0, 0.0, 0.0, 1.6518362745911753E9, 0.0, 2022-05-06 12:24:34.591
26.0, -273.7812462062575, -204.51081922696903, -218.13901466550305, -198.37925324961543, 0.1600000075995922, 0.12800000607967377, 1.008000047877431, 0.0, 0.0, 0.0, 0.0, 0.0, 1.6518362746070747E9, 0.0, 2022-05-06 12:24:34.607
26.0, -295.1996532524936, -209.62700236635283, -208.49755257973447, -202.34728710260242, 0.1600000075995922, 0.12800000607967377, 1.008000047877431, 0.0, 0.0, 0.0, 0.0, 0.0, 1.6518362746070747E9, 0.0, 2022-05-06 12:24:34.607
27.0, -229.23155793407932, -79.08579441299662, -115.43388208234683, -155.665855855681, 0.1600000075995922, 0.12800000607967377, 1.008000047877431, 0.0, 0.0, 0.0, 0.0, 0.0, 1.651836274608121E9, 0.0, 2022-05-06 12:24:34.608
27.0, -216.6355748833157, -83.22212376398966, -132.34944958193228, -151.8511579008773, 0.1600000075995922, 0.12800000607967377, 1.008000047877431, 0.0, 0.0, 0.0, 0.0, 0.0, 1.651836274608121E9, 0.0, 2022-05-06 12:24:34.608
28.0, -273.79620580608025, -201.4067022637464, -215.81653679301962, -200.82888772059232, 0.1600000075995922, 0.12800000607967377, 1.008000047877431, 0.0, 0.0, 0.0, 0.0, 0.0, 1.6518362746211236E9, 0.0, 2022-05-06 12:24:34.621
28.0, -288.87174252746627, -203.39632904017344, -205.041885020677, -194.58325479459018, 0.1600000075995922, 0.12800000607967377, 1.008000047877431, 0.0, 0.0, 0.0, 0.0, 0.0, 1.6518362746211236E9, 0.0, 2022-05-06 12:24:34.621
29.0, -246.27428203215823, -97.20186979835853, -136.87098862836137, -172.35328945796937, 0.1600000075995922, 0.12800000607967377, 1.008000047877431, 0.0, 0.0, 0.0, 0.0, 0.0, 1.6518362746370988E9, 0.0, 2022-05-06 12:24:34.637
29.0, -202.21078075421974, -65.62963437242433, -117.10561736254022, -138.96346265356988, 0.1600000075995922, 0.12800000607967377, 1.008000047877431, 0.0, 0.0, 0.0, 0.0, 0.0, 1.6518362746370988E9, 0.0, 2022-05-06 12:24:34.637
30.0, -271.09225813811645, -200.25481307739392, -213.13876842474565, -185.02781040780246, 0.1600000075995922, 0.12800000607967377, 1.008000047877431, 0.0, 0.0, 0.0, 0.0, 0.0, 1.6518362746380684E9, 0.0, 2022-05-06 12:24:34.638
30.0, -288.7408460290171, -205.20270071877167, -210.5283182556741, -202.00321630667895, 0.1600000075995922, 0.12800000607967377, 1.008000047877431, 0.0, 0.0, 0.0, 0.0, 0.0, 1.6518362746380684E9, 0.0, 2022-05-06 12:24:34.638
31.0, -226.81184266274795, -80.41719879722223, -121.11853001499549, -168.94624059833586, 0.1600000075995922, 0.12800000607967377, 1.008000047877431, 0.0, 0.0, 0.0, 0.0, 0.0, 1.6518362746511846E9, 0.0, 2022-05-06 12:24:34.651
31.0, -209.36146946949884, -84.6133665475063, -126.29455155367032, -156.3016388481483, 0.1600000075995922, 0.12800000607967377, 1.008000047877431, 0.0, 0.0, 0.0, 0.0, 0.0, 1.6518362746511846E9, 0.0, 2022-05-06 12:24:34.651
32.0, -281.72853361209854, -207.7832316881977, -228.92114623775706, -203.22990349214524, 0.1600000075995922, 0.12800000607967377, 1.008000047877431, 0.0, 0.0, 0.0, 0.0, 0.0, 1.651836274667063E9, 0.0, 2022-05-06 12:24:34.667
32.0, -287.14390874793753, -203.9311347338371, -213.2322659236379, -208.86967262532562, 0.1600000075995922, 0.12800000607967377, 1.008000047877431, 0.0, 0.0, 0.0, 0.0, 0.0, 1.651836274667063E9, 0.0, 2022-05-06 12:24:34.667
33.0, -244.96531704766676, -85.36134653864428, -124.07305097999051, -158.87469001766294, 0.1600000075995922, 0.12800000607967377, 1.008000047877431, 0.0, 0.0, 0.0, 0.0, 0.0, 1.6518362746820796E9, 0.0, 2022-05-06 12:24:34.682
33.0, -212.95925322687253, -82.54520187200978, -132.92539417510852, -153.9642013758421, 0.1600000075995922, 0.12800000607967377, 1.008000047877431, 0.0, 0.0, 0.0, 0.0, 0.0, 1.6518362746820796E9, 0.0, 2022-05-06 12:24:34.682
34.0, -269.2671869597398, -207.0053324974142, -225.52531707799062, -209.27732172049582, 0.1600000075995922, 0.12800000607967377, 1.008000047877431, 0.0, 0.0, 0.0, 0.0, 0.0, 1.6518362746830056E9, 0.0, 2022-05-06 12:24:34.683
34.0, -313.67475903360173, -222.0883490187116, -232.33567489730194, -227.6963290022686, 0.1600000075995922, 0.12800000607967377, 1.008000047877431, 0.0, 0.0, 0.0, 0.0, 0.0, 1.6518362746830056E9, 0.0, 2022-05-06 12:24:34.683
35.0, -245.37670604279265, -89.48645618977025, -129.70160041330382, -168.80786429997534, 0.1600000075995922, 0.12800000607967377, 1.008000047877431, 0.0, 0.0, 0.0, 0.0, 0.0, 1.6518362746970985E9, 0.0, 2022-05-06 12:24:34.697
35.0, -208.2694186824374, -78.67814531782642, -122.89872239390388, -141.12886472791433, 0.1600000075995922, 0.12800000607967377, 1.008000047877431, 0.0, 0.0, 0.0, 0.0, 0.0, 1.6518362746970985E9, 0.0, 2022-05-06 12:24:34.697
36.0, -276.42161557497457, -203.83015743503347, -216.51215818477795, -185.54017670173198, 0.1600000075995922, 0.12800000607967377, 1.008000047877431, 0.0, 0.0, 0.0, 0.0, 0.0, 1.6518362746980283E9, 0.0, 2022-05-06 12:24:34.698
36.0, -290.4574601086788, -205.04936482058838, -214.99375880276784, -211.25946869701147, 0.1600000075995922, 0.12800000607967377, 1.008000047877431, 0.0, 0.0, 0.0, 0.0, 0.0, 1.6518362746980283E9, 0.0, 2022-05-06 12:24:34.698
37.0, -234.03358947718516, -81.17639848822728, -126.56756425043568, -160.49406669847667, 0.1600000075995922, 0.12800000607967377, 1.008000047877431, 0.0, 0.0, 0.0, 0.0, 0.0, 1.6518362747111068E9, 0.0, 2022-05-06 12:24:34.711
37.0, -203.24299314199015, -73.85367437498644, -120.9651941168122, -140.41828373633325, 0.1600000075995922, 0.12800000607967377, 1.008000047877431, 0.0, 0.0, 0.0, 0.0, 0.0, 1.6518362747111068E9, 0.0, 2022-05-06 12:24:34.711
38.0, -270.1909422487952, -198.39234289946035, -214.7880643052049, -196.04181577730924, 0.1600000075995922, 0.12800000607967377, 1.008000047877431, 0.0, 0.0, 0.0, 0.0, 0.0, 1.6518362747271202E9, 0.0, 2022-05-06 12:24:34.727
38.0, -299.47435890184715, -210.61807585461065, -222.3875410151668, -216.23353563807905, 0.1600000075995922, 0.12800000607967377, 1.008000047877431, 0.0, 0.0, 0.0, 0.0, 0.0, 1.6518362747271202E9, 0.0, 2022-05-06 12:24:34.727
39.0, -233.14349328773096, -78.78286251658574, -116.88496326515451, -164.518199050799, 0.1600000075995922, 0.12800000607967377, 1.008000047877431, 0.0, 0.0, 0.0, 0.0, 0.0, 1.651836274728022E9, 0.0, 2022-05-06 12:24:34.728
39.0, -207.03525169705972, -82.76585596939549, -126.12625605566427, -144.3676180895418, 0.1600000075995922, 0.12800000607967377, 1.008000047877431, 0.0, 0.0, 0.0, 0.0, 0.0, 1.651836274728022E9, 0.0, 2022-05-06 12:24:34.728
40.0, -271.7317810305394, -201.63857606099918, -215.90629439195618, -187.60086157731712, 0.1600000075995922, 0.12800000607967377, 1.008000047877431, 0.0, 0.0, 0.0, 0.0, 0.0, 1.651836274741082E9, 0.0, 2022-05-06 12:24:34.741
40.0, -290.57713690726086, -203.57958413800225, -213.5987761192955, -204.69220437482, 0.1600000075995922, 0.12800000607967377, 1.008000047877431, 0.0, 0.0, 0.0, 0.0, 0.0, 1.651836274741082E9, 0.0, 2022-05-06 12:24:34.741
41.0, -233.30430898582563, -78.78286251658574, -119.37947653559968, -154.4391686702147, 0.1600000075995922, 0.11200000531971455, 1.008000047877431, 0.0, 0.0, 0.0, 0.0, 0.0, 1.6518362747580595E9, 0.0, 2022-05-06 12:24:34.758
41.0, -222.09582881862298, -87.47812991356477, -139.07004980230704, -175.81269691698253, 0.1600000075995922, 0.11200000531971455, 1.008000047877431, 0.0, 0.0, 0.0, 0.0, 0.0, 1.6518362747580595E9, 0.0, 2022-05-06 12:24:34.758
42.0, -278.45986105082557, -220.14734094170853, -232.62364719389006, -214.56180035788566, 0.1600000075995922, 0.11200000531971455, 1.008000047877431, 0.0, 0.0, 0.0, 0.0, 0.0, 1.6518362747590125E9, 0.0, 2022-05-06 12:24:34.759
42.0, -292.32367018656805, -213.49779882049188, -218.29235056368634, -210.30953410826623, 0.1600000075995922, 0.11200000531971455, 1.008000047877431, 0.0, 0.0, 0.0, 0.0, 0.0, 1.6518362747590125E9, 0.0, 2022-05-06 12:24:34.759
43.0, -241.74900308577344, -86.84608682105318, -125.79340495960787, -163.32143106497824, 0.1600000075995922, 0.11200000531971455, 1.008000047877431, 0.0, 0.0, 0.0, 0.0, 0.0, 1.6518362747711885E9, 0.0, 2022-05-06 12:24:34.771
43.0, -214.66838750662282, -84.89385904418305, -128.16824143147096, -152.6253171917051, 0.1600000075995922, 0.11200000531971455, 1.008000047877431, 0.0, 0.0, 0.0, 0.0, 0.0, 1.6518362747711885E9, 0.0, 2022-05-06 12:24:34.771
44.0, -268.926856063772, -199.4432547870092, -216.69541328260675, -195.41351258475333, 0.1600000075995922, 0.11200000531971455, 1.008000047877431, 0.0, 0.0, 0.0, 0.0, 0.0, 1.6518362747871227E9, 0.0, 2022-05-06 12:24:34.787
44.0, -289.2307729232125, -210.70409355359152, -215.06107700197026, -210.5825468050316, 0.1600000075995922, 0.11200000531971455, 1.008000047877431, 0.0, 0.0, 0.0, 0.0, 0.0, 1.6518362747871227E9, 0.0, 2022-05-06 12:24:34.787
45.0, -233.62968028197065, -77.3504808335565, -115.30298558389768, -150.9648016113788, 0.1600000075995922, 0.11200000531971455, 1.008000047877431, 0.0, 0.0, 0.0, 0.0, 0.0, 1.6518362747880292E9, 0.0, 2022-05-06 12:24:34.788
45.0, -203.5608846382238, -74.1266870717518, -121.06617141561583, -137.68441686872393, 0.1600000075995922, 0.11200000531971455, 1.008000047877431, 0.0, 0.0, 0.0, 0.0, 0.0, 1.6518362747880292E9, 0.0, 2022-05-06 12:24:34.788
46.0, -269.2634470597841, -196.71312781935558, -216.10824898956344, -194.36260069720447, 0.1600000075995922, 0.11200000531971455, 1.008000047877431, 0.0, 0.0, 0.0, 0.0, 0.0, 1.6518362748011272E9, 0.0, 2022-05-06 12:24:34.801
46.0, -294.06646356591955, -207.34940329333767, -216.3438626867719, -212.71428977977484, 0.1600000075995922, 0.11200000531971455, 1.008000047877431, 0.0, 0.0, 0.0, 0.0, 0.0, 1.6518362748011272E9, 0.0, 2022-05-06 12:24:34.801
47.0, -233.95131167815998, -84.97613684320822, -114.43906869413331, -158.12671002652496, 0.1600000075995922, 0.11200000531971455, 1.008000047877431, 0.0, 0.0, 0.0, 0.0, 0.0, 1.6518362748170593E9, 0.0, 2022-05-06 12:24:34.817
47.0, -194.39064994687214, -70.940292309504, -121.60845690919086, -127.13041919376701, 0.1600000075995922, 0.11200000531971455, 1.008000047877431, 0.0, 0.0, 0.0, 0.0, 0.0, 1.6518362748170593E9, 0.0, 2022-05-06 12:24:34.817
48.0, -283.2918117935769, -205.4495341158472, -227.76177725149319, -209.15390502195805, 0.1600000075995922, 0.11200000531971455, 1.008000047877431, 0.0, 0.0, 0.0, 0.0, 0.0, 1.6518362748179977E9, 0.0, 2022-05-06 12:24:34.817
48.0, -294.1562211648561, -208.8191839759238, -215.49864529678598, -213.0247014760971, 0.1600000075995922, 0.11200000531971455, 1.008000047877431, 0.0, 0.0, 0.0, 0.0, 0.0, 1.6518362748179977E9, 0.0, 2022-05-06 12:24:34.817
49.0, -217.96697926754132, -74.96442466182634, -109.41264315368608, -154.6299035679549, 0.1600000075995922, 0.11200000531971455, 1.008000047877431, 0.0, 0.0, 0.0, 0.0, 0.0, 1.6518362748470953E9, 0.0, 2022-05-06 12:24:34.847
49.0, -202.68200814863667, -77.26446313457564, -123.77011908357963, -146.45448226481676, 0.1600000075995922, 0.11200000531971455, 1.008000047877431, 0.0, 0.0, 0.0, 0.0, 0.0, 1.6518362748470953E9, 0.0, 2022-05-06 12:24:34.847
50.0, -275.2323273890652, -207.88046908704564, -218.88699465664104, -196.29238907434046, 0.1600000075995922, 0.11200000531971455, 1.008000047877431, 0.0, 0.0, 0.0, 0.0, 0.0, 1.651836274863063E9, 0.0, 2022-05-06 12:24:34.863
50.0, -276.1186836785637, -201.4889800627716, -205.5991301140748, -193.92503240238875, 0.1600000075995922, 0.11200000531971455, 1.008000047877431, 0.0, 0.0, 0.0, 0.0, 0.0, 1.651836274863063E9, 0.0, 2022-05-06 12:24:34.863
51.0, -224.43700619088486, -80.73509029345587, -119.27101943688467, -158.41842222306877, 0.1600000075995922, 0.12800000607967377, 1.008000047877431, 0.0, 0.0, 0.0, 0.0, 0.0, 1.6518362748640537E9, 0.0, 2022-05-06 12:24:34.864
51.0, -206.76597890025005, -79.04465551348403, -126.9303345461376, -151.2228547083214, 0.1600000075995922, 0.12800000607967377, 1.008000047877431, 0.0, 0.0, 0.0, 0.0, 0.0, 1.6518362748640537E9, 0.0, 2022-05-06 12:24:34.864
52.0, -266.9334893873893, -197.68176190787926, -212.8956749276258, -190.89197353832424, 0.1600000075995922, 0.12800000607967377, 1.008000047877431, 0.0, 0.0, 0.0, 0.0, 0.0, 1.6518362748650439E9, 0.0, 2022-05-06 12:24:34.865
52.0, -295.5998225477524, -209.30911087011918, -218.39332786248997, -213.6230854690075, 0.1600000075995922, 0.12800000607967377, 1.008000047877431, 0.0, 0.0, 0.0, 0.0, 0.0, 1.6518362748650439E9, 0.0, 2022-05-06 12:24:34.865
53.0, -227.40648675570264, -86.18412452889606, -123.23157348996028, -162.68190817255527, 0.1600000075995922, 0.12800000607967377, 1.008000047877431, 0.0, 0.0, 0.0, 0.0, 0.0, 1.651836274866088E9, 0.0, 2022-05-06 12:24:34.866
53.0, -199.1141435909085, -83.19968436425552, -122.91742189368233, -147.2510809553787, 0.1600000075995922, 0.12800000607967377, 1.008000047877431, 0.0, 0.0, 0.0, 0.0, 0.0, 1.651836274866088E9, 0.0, 2022-05-06 12:24:34.866
54.0, -276.4477948746644, -199.75366648333147, -213.99520551459864, -192.3505345210433, 0.1600000075995922, 0.12800000607967377, 1.008000047877431, 0.0, 0.0, 0.0, 0.0, 0.0, 1.6518362748760717E9, 0.0, 2022-05-06 12:24:34.876
54.0, -284.57833737833425, -201.27206586534157, -208.14226208394393, -205.1671716691926, 0.1600000075995922, 0.12800000607967377, 1.008000047877431, 0.0, 0.0, 0.0, 0.0, 0.0, 1.6518362748760717E9, 0.0, 2022-05-06 12:24:34.876
55.0, -235.81752175604925, -84.40393214998767, -126.46658695163205, -160.10137720312923, 0.1600000075995922, 0.12800000607967377, 1.008000047877431, 0.0, 0.0, 0.0, 0.0, 0.0, 1.6518362748911204E9, 0.0, 2022-05-06 12:24:34.891
55.0, -206.45556720392779, -80.28630229877308, -122.37887630006298, -137.49368197098374, 0.1600000075995922, 0.12800000607967377, 1.008000047877431, 0.0, 0.0, 0.0, 0.0, 0.0, 1.6518362748911204E9, 0.0, 2022-05-06 12:24:34.891
56.0, -258.6982296849601, -190.57969189202413, -208.76682537654415, -176.58311630785465, 0.1600000075995922, 0.12800000607967377, 1.008000047877431, 0.0, 0.0, 0.0, 0.0, 0.0, 1.6518362749071546E9, 0.0, 2022-05-06 12:24:34.907
56.0, -293.8570291684009, -207.9739665859379, -219.62749484786764, -221.64143097400665, 0.1600000075995922, 0.12800000607967377, 1.008000047877431, 0.0, 0.0, 0.0, 0.0, 0.0, 1.6518362749071546E9, 0.0, 2022-05-06 12:24:34.907
57.0, -236.93575184280053, -86.19534422876313, -127.65961503749713, -170.16918788384646, 0.1600000075995922, 0.12800000607967377, 1.008000047877431, 0.0, 0.0, 0.0, 0.0, 0.0, 1.651836274908049E9, 0.0, 2022-05-06 12:24:34.908
57.0, -219.15252755349502, -92.01088865986094, -135.3376296465285, -163.119476467371, 0.1600000075995922, 0.12800000607967377, 1.008000047877431, 0.0, 0.0, 0.0, 0.0, 0.0, 1.651836274908049E9, 0.0, 2022-05-06 12:24:34.908
58.0, -268.8034393652342, -207.60745639028028, -222.14070761809126, -203.38697929028422, 0.1600000075995922, 0.12800000607967377, 1.008000047877431, 0.0, 0.0, 0.0, 0.0, 0.0, 1.6518362749211144E9, 0.0, 2022-05-06 12:24:34.921
58.0, -286.73251975281164, -206.73231980064884, -211.69142714189366, -205.21579036861658, 0.1600000075995922, 0.12800000607967377, 1.008000047877431, 0.0, 0.0, 0.0, 0.0, 0.0, 1.6518362749211144E9, 0.0, 2022-05-06 12:24:34.921
59.0, -215.64824129501358, -73.04959588451311, -103.46620222413912, -136.94391667749733, 0.1600000075995922, 0.12800000607967377, 1.008000047877431, 0.0, 0.0, 0.0, 0.0, 0.0, 1.651836274937096E9, 0.0, 2022-05-06 12:24:34.937
59.0, -200.3333509764634, -76.55388214299455, -121.7430933075957, -138.72036915645003, 0.1600000075995922, 0.12800000607967377, 1.008000047877431, 0.0, 0.0, 0.0, 0.0, 0.0, 1.651836274937096E9, 0.0, 2022-05-06 12:24:34.937
60.0, -268.3247321709059, -198.56437829742208, -210.3076641582884, -186.59108858928084, 0.1600000075995922, 0.12800000607967377, 1.008000047877431, 0.0, 0.0, 0.0, 0.0, 0.0, 1.6518362749380796E9, 0.0, 2022-05-06 12:24:34.938
60.0, -285.5170522672124, -198.95706779276952, -211.53435134375468, -209.6176526164636, 0.1600000075995922, 0.12800000607967377, 1.008000047877431, 0.0, 0.0, 0.0, 0.0, 0.0, 1.6518362749380796E9, 0.0, 2022-05-06 12:24:34.938
61.0, -212.13647523662075, -72.5334896906279, -104.2179221152328, -142.5163676114753, 0.1600000075995922, 0.11200000531971455, 1.008000047877431, 0.0, 0.0, 0.0, 0.0, 0.0, 1.651836274968188E9, 0.0, 2022-05-06 12:24:34.968
61.0, -197.19183501368389, -83.91774515574798, -128.45621372805908, -138.4735357593745, 0.1600000075995922, 0.11200000531971455, 1.008000047877431, 0.0, 0.0, 0.0, 0.0, 0.0, 1.651836274968188E9, 0.0, 2022-05-06 12:24:34.968
62.0, -269.78703305358067, -196.90386271709576, -216.91980727994815, -200.58953412342817, 0.1600000075995922, 0.11200000531971455, 1.008000047877431, 0.0, 0.0, 0.0, 0.0, 0.0, 1.6518362749690225E9, 0.0, 2022-05-06 12:24:34.969
62.0, -303.88370094960555, -216.0446706903167, -228.65187344094738, -227.9581219991669, 0.1600000075995922, 0.11200000531971455, 1.008000047877431, 0.0, 0.0, 0.0, 0.0, 0.0, 1.6518362749690225E9, 0.0, 2022-05-06 12:24:34.969
63.0, -218.43820666195825, -77.82918802788481, -113.60507100401446, -154.966494563967, 0.1600000075995922, 0.11200000531971455, 1.008000047877431, 0.0, 0.0, 0.0, 0.0, 0.0, 1.6518362749700153E9, 0.0, 2022-05-06 12:24:34.970
63.0, -196.89638291718438, -76.9054327388294, -121.43642151122913, -132.3999382313341, 0.1600000075995922, 0.11200000531971455, 1.008000047877431, 0.0, 0.0, 0.0, 0.0, 0.0, 1.6518362749700153E9, 0.0, 2022-05-06 12:24:34.970
64.0, -267.71886837808415, -201.8592301583849, -213.80073071690276, -195.95205817837268, 0.1600000075995922, 0.11200000531971455, 1.008000047877431, 0.0, 0.0, 0.0, 0.0, 0.0, 1.6518362749812622E9, 0.0, 2022-05-06 12:24:34.981
64.0, -290.7192531055771, -200.00797968031839, -208.81170417601243, -205.54864146467298, 0.1600000075995922, 0.11200000531971455, 1.008000047877431, 0.0, 0.0, 0.0, 0.0, 0.0, 1.6518362749812622E9, 0.0, 2022-05-06 12:24:34.981
65.0, -204.79879152355716, -75.7572834524326, -114.16979589732364, -153.0703652864322, 0.1600000075995922, 0.11200000531971455, 1.008000047877431, 0.0, 0.0, 0.0, 0.0, 0.0, 1.6518362749970613E9, 0.0, 2022-05-06 12:24:34.997
65.0, -211.8971216394566, -71.85282789869234, -116.38755657104775, -135.64617139287293, 0.1600000075995922, 0.11200000531971455, 1.008000047877431, 0.0, 0.0, 0.0, 0.0, 0.0, 1.6518362749970613E9, 0.0, 2022-05-06 12:24:34.997
