%OpenBCI Raw EEG Data
%Number of channels = 4
%Sample Rate = 200 Hz
%Board = OpenBCI_GUI$BoardGanglionBLE
Sample Index, EXG Channel 0, EXG Channel 1, EXG Channel 2, EXG Channel 3, Accel Channel 0, Accel Channel 1, Accel Channel 2, Other, Other, Other, Other, Other, Timestamp, Other, Timestamp (Formatted)
31.0, -35.0914812842384, -5.022685640491545, -25.42383989877999, -37.08858786057681, 0.0, 0.12800000607967377, 0.0, 0.0, 0.0, 0.0, 0.0, 0.0, 1.6518371378051224E9, 0.0, 2022-05-06 12:38:57.805
31.0, -220.9065406327136, 220.22400889080018, 213.20421667397022, 193.60340100619942, 0.0, 0.12800000607967377, 0.0, 0.0, 0.0, 0.0, 0.0, 0.0, 1.6518371378051224E9, 0.0, 2022-05-06 12:38:57.805
0.0, -314.15720612788573, -239.22831051563844, -258.0904959421605, -231.9018465024419, 0.0, 0.12800000607967377, 0.0, 0.0, 0.0, 0.0, 0.0, 0.0, 1.651837137830124E9, 0.0, 2022-05-06 12:38:57.830
1.0, -246.27802193211392, -94.99532882450148, -157.0346592394635, -177.5835395460017, 0.0, 0.06400000303983688, 0.0, 0.0, 0.0, 0.0, 0.0, 0.0, 1.6518371378431342E9, 0.0, 2022-05-06 12:38:57.843
1.0, -213.23974572354928, -82.82569436868653, -127.64278548769653, -161.53188893618062, 0.0, 0.06400000303983688, 0.0, 0.0, 0.0, 0.0, 0.0, 0.0, 1.6518371378431342E9, 0.0, 2022-05-06 12:38:57.843
2.0, -277.34537086403, -223.54691000143066, -225.2167753316462, -219.1936664530076, 0.06400000303983688, 0.06400000303983688, 0.0, 0.0, 0.0, 0.0, 0.0, 0.0, 1.6518371378601038E9, 0.0, 2022-05-06 12:38:57.860
2.0, -301.47146547818556, -238.0988607290201, -246.07045748457313, -229.10066143563017, 0.06400000303983688, 0.06400000303983688, 0.0, 0.0, 0.0, 0.0, 0.0, 0.0, 1.6518371378601038E9, 0.0, 2022-05-06 12:38:57.860
3.0, -240.49239670066163, -99.42711027199402, -150.97228141129017, -169.8756057373248, 0.06400000303983688, 0.06400000303983688, 0.0, 0.0, 0.0, 0.0, 0.0, 0.0, 1.6518371378611047E9, 0.0, 2022-05-06 12:38:57.861
3.0, -211.84102314012125, -75.63760665385053, -123.51767583657056, -145.40170042729005, 0.06400000303983688, 0.06400000303983688, 0.0, 0.0, 0.0, 0.0, 0.0, 0.0, 1.6518371378611047E9, 0.0, 2022-05-06 12:38:57.861
4.0, -262.42317004082724, -215.39766799798235, -208.1740512335673, -198.01461300393566, 0.06400000303983688, 0.06400000303983688, 0.0, 0.0, 0.0, 0.0, 0.0, 0.0, 1.6518371378721695E9, 0.0, 2022-05-06 12:38:57.872
4.0, -294.2758979634382, -227.73185805184767, -227.00444751046598, -207.23720629466698, 0.06400000303983688, 0.06400000303983688, 0.0, 0.0, 0.0, 0.0, 0.0, 0.0, 1.6518371378721695E9, 0.0, 2022-05-06 12:38:57.872
5.0, -246.0611077346839, -88.51408220129088, -156.41383584681898, -169.49787584180012, 0.06400000303983688, 0.06400000303983688, 0.0, 0.0, 0.0, 0.0, 0.0, 0.0, 1.6518371379042146E9, 0.0, 2022-05-06 12:38:57.904
5.0, -214.42903390945867, -76.20981134707108, -130.9563368484378, -167.22775656869635, 0.06400000303983688, 0.06400000303983688, 0.0, 0.0, 0.0, 0.0, 0.0, 0.0, 1.6518371379042146E9, 0.0, 2022-05-06 12:38:57.904
6.0, -282.76822579978034, -223.14300080621615, -217.94640981778502, -219.99774494348094, 0.06400000303983688, 0.06400000303983688, 0.0, 0.0, 0.0, 0.0, 0.0, 0.0, 1.651837137905099E9, 0.0, 2022-05-06 12:38:57.905
6.0, -297.2977371276356, -242.89715237217024, -247.65243516582996, -240.9449245953001, 0.06400000303983688, 0.06400000303983688, 0.0, 0.0, 0.0, 0.0, 0.0, 0.0, 1.651837137905099E9, 0.0, 2022-05-06 12:38:57.905
7.0, -245.4290646421723, -98.1779836867936, -158.67647532001138, -175.83326636673883, 0.06400000303983688, 0.06400000303983688, 0.0, 0.0, 0.0, 0.0, 0.0, 0.0, 1.6518371379061236E9, 0.0, 2022-05-06 12:38:57.906
7.0, -215.70807969430462, -70.85801451047882, -103.6401075720787, -124.46948037529364, 0.06400000303983688, 0.06400000303983688, 0.0, 0.0, 0.0, 0.0, 0.0, 0.0, 1.6518371379061236E9, 0.0, 2022-05-06 12:38:57.906
8.0, -264.19588261982426, -213.34820282226428, -207.92347793653607, -191.10327788582072, 0.06400000303983688, 0.06400000303983688, 0.0, 0.0, 0.0, 0.0, 0.0, 0.0, 1.6518371379071236E9, 0.0, 2022-05-06 12:38:57.907
8.0, -308.5286566945724, -231.88688690261915, -246.14525548368692, -244.96905694762245, 0.06400000303983688, 0.06400000303983688, 0.0, 0.0, 0.0, 0.0, 0.0, 0.0, 1.6518371379071236E9, 0.0, 2022-05-06 12:38:57.907
9.0, -248.26390880858526, -101.81316644372419, -173.68843374215066, -181.46555570000783, 0.06400000303983688, 0.06400000303983688, 0.0, 0.0, 0.0, 0.0, 0.0, 0.0, 1.651837137917238E9, 0.0, 2022-05-06 12:38:57.917
9.0, -212.14021513657644, -85.47728343727067, -133.3947516195476, -161.08684084145352, 0.06400000303983688, 0.06400000303983688, 0.0, 0.0, 0.0, 0.0, 0.0, 0.0, 1.651837137917238E9, 0.0, 2022-05-06 12:38:57.917
10.0, -277.05739856744185, -228.17316624661908, -212.0298880878836, -205.65522861341015, 0.06400000303983688, 0.06400000303983688, 0.5120000243186951, 0.0, 0.0, 0.0, 0.0, 0.0, 1.6518371379321537E9, 0.0, 2022-05-06 12:38:57.932
10.0, -299.51549780135974, -233.7231777808629, -237.49486688617617, -218.25869146408513, 0.06400000303983688, 0.06400000303983688, 0.5120000243186951, 0.0, 0.0, 0.0, 0.0, 0.0, 1.6518371379321537E9, 0.0, 2022-05-06 12:38:57.932
11.0, -225.58889537723735, -78.71554431738332, -149.1846092324704, -156.06415520096198, 0.06400000303983688, 0.09600000455975533, 0.5120000243186951, 0.0, 0.0, 0.0, 0.0, 0.0, 1.651837137948213E9, 0.0, 2022-05-06 12:38:57.948
11.0, -212.31225053453818, -79.00351661397144, -123.25962273962796, -149.9793379730545, 0.06400000303983688, 0.09600000455975533, 0.5120000243186951, 0.0, 0.0, 0.0, 0.0, 0.0, 1.651837137948213E9, 0.0, 2022-05-06 12:38:57.948
12.0, -284.54093837877735, -237.979183930438, -228.11893769726157, -222.047210119199, 0.09600000455975533, 0.09600000455975533, 0.5120000243186951, 0.0, 0.0, 0.0, 0.0, 0.0, 1.6518371379491577E9, 0.0, 2022-05-06 12:38:57.949
12.0, -297.4922119253315, -232.04022280080244, -252.25999191123992, -222.46981881419197, 0.09600000455975533, 0.09600000455975533, 0.5120000243186951, 0.0, 0.0, 0.0, 0.0, 0.0, 1.6518371379491577E9, 0.0, 2022-05-06 12:38:57.949
13.0, -240.66069219866768, -87.21633691666648, -160.50902629829943, -170.77318172669038, 0.09600000455975533, 0.09600000455975533, 0.5120000243186951, 0.0, 0.0, 0.0, 0.0, 0.0, 1.6518371379621475E9, 0.0, 2022-05-06 12:38:57.962
13.0, -212.33468993427232, -92.88602524949238, -135.94536338932812, -143.47191205015406, 0.09600000455975533, 0.09600000455975533, 0.5120000243186951, 0.0, 0.0, 0.0, 0.0, 0.0, 1.6518371379621475E9, 0.0, 2022-05-06 12:38:57.962
14.0, -264.8466252121143, -234.23554407479241, -226.58183881547302, -203.59080383786932, 0.09600000455975533, 0.09600000455975533, 0.5120000243186951, 0.0, 0.0, 0.0, 0.0, 0.0, 1.6518371379781544E9, 0.0, 2022-05-06 12:38:57.978
14.0, -302.5298571656458, -218.09413586603478, -242.08372413180768, -226.28077686903998, 0.09600000455975533, 0.09600000455975533, 0.5120000243186951, 0.0, 0.0, 0.0, 0.0, 0.0, 1.6518371379781544E9, 0.0, 2022-05-06 12:38:57.978
15.0, -227.14095385884866, -63.26601760042831, -154.60372426826507, -174.9955287766643, 0.09600000455975533, 0.09600000455975533, 0.5120000243186951, 0.0, 0.0, 0.0, 0.0, 0.0, 1.651837137979103E9, 0.0, 2022-05-06 12:38:57.979
15.0, -218.91317395633087, -105.86347809573635, -134.42696400731802, -166.27408207999542, 0.09600000455975533, 0.09600000455975533, 0.5120000243186951, 0.0, 0.0, 0.0, 0.0, 0.0, 1.651837137979103E9, 0.0, 2022-05-06 12:38:57.979
16.0, -292.6490414827131, -258.86278528301045, -251.42225432116538, -221.4226468265988, 0.09600000455975533, 0.09600000455975533, 0.5120000243186951, 0.0, 0.0, 0.0, 0.0, 0.0, 1.65183713799217E9, 0.0, 2022-05-06 12:38:57.992
16.0, -305.241284633521, -224.02935709571466, -245.21028049476445, -238.2783759268932, 0.09600000455975533, 0.09600000455975533, 0.5120000243186951, 0.0, 0.0, 0.0, 0.0, 0.0, 1.65183713799217E9, 0.0, 2022-05-06 12:38:57.992
17.0, -228.19186574639753, -60.13198143756017, -139.04574045259506, -164.93893779581413, 0.09600000455975533, 0.09600000455975533, 0.5120000243186951, 0.0, 0.0, 0.0, 0.0, 0.0, 1.6518371380081675E9, 0.0, 2022-05-06 12:38:58.008
17.0, -216.1942666885443, -99.53556737070903, -142.2882337141782, -160.6904114461504, 0.09600000455975533, 0.09600000455975533, 0.5120000243186951, 0.0, 0.0, 0.0, 0.0, 0.0, 1.6518371380081675E9, 0.0, 2022-05-06 12:38:58.008
18.0, -283.0113192969002, -251.78315466688946, -222.8456787597388, -212.46932633267716, 0.09600000455975533, 0.09600000455975533, 0.5120000243186951, 0.0, 0.0, 0.0, 0.0, 0.0, 1.651837138009123E9, 0.0, 2022-05-06 12:38:58.009
18.0, -285.3076178696938, -212.27859143493697, -235.5987376086414, -217.70518627064303, 0.09600000455975533, 0.09600000455975533, 0.5120000243186951, 0.0, 0.0, 0.0, 0.0, 0.0, 1.651837138009123E9, 0.0, 2022-05-06 12:38:58.009
19.0, -216.3812616863288, -45.28083871351555, -119.18687168788165, -140.57722948445007, 0.09600000455975533, 0.09600000455975533, 0.5120000243186951, 0.0, 0.0, 0.0, 0.0, 0.0, 1.6518371380221975E9, 0.0, 2022-05-06 12:38:58.022
19.0, -231.51289690705016, -117.97701405221596, -146.13659076858312, -183.14851068006828, 0.09600000455975533, 0.09600000455975533, 0.5120000243186951, 0.0, 0.0, 0.0, 0.0, 0.0, 1.6518371380221975E9, 0.0, 2022-05-06 12:38:58.022
20.0, -298.2289722166024, -269.1101111616008, -240.23247365374118, -230.58166181808338, 0.09600000455975533, 0.09600000455975533, 0.7680000364780426, 0.0, 0.0, 0.0, 0.0, 0.0, 1.651837138038196E9, 0.0, 2022-05-06 12:38:58.038
20.0, -300.06526309484616, -214.29065761109814, -242.31559792906046, -227.77673685131595, 0.09600000455975533, 0.09600000455975533, 0.7680000364780426, 0.0, 0.0, 0.0, 0.0, 0.0, 1.651837138038196E9, 0.0, 2022-05-06 12:38:58.038
21.0, -233.48382418369874, -64.96393218031153, -140.74739493243396, -169.0603075469844, 0.09600000455975533, 0.11200000531971455, 0.7680000364780426, 0.0, 0.0, 0.0, 0.0, 0.0, 1.6518371380391176E9, 0.0, 2022-05-06 12:38:58.039
21.0, -208.0786837846972, -97.63195829326287, -132.53831452969462, -157.2796226865612, 0.09600000455975533, 0.11200000531971455, 0.7680000364780426, 0.0, 0.0, 0.0, 0.0, 0.0, 1.6518371380391176E9, 0.0, 2022-05-06 12:38:58.039
22.0, -283.6994608887471, -259.1731969793327, -235.1910885134712, -222.36510161543265, 0.11200000531971455, 0.11200000531971455, 0.7680000364780426, 0.0, 0.0, 0.0, 0.0, 0.0, 1.651837138052168E9, 0.0, 2022-05-06 12:38:58.052
22.0, -301.47894527809694, -218.69625975890085, -235.1836087135598, -223.43471300275996, 0.11200000531971455, 0.11200000531971455, 0.7680000364780426, 0.0, 0.0, 0.0, 0.0, 0.0, 1.651837138052168E9, 0.0, 2022-05-06 12:38:58.052
23.0, -222.26412431662902, -53.43382061691955, -126.30390130355954, -154.78884931607172, 0.11200000531971455, 0.11200000531971455, 0.7680000364780426, 0.0, 0.0, 0.0, 0.0, 0.0, 1.6518371380681849E9, 0.0, 2022-05-06 12:38:58.068
23.0, -216.5682566841133, -106.98544808244333, -132.53083472978324, -151.84928795089945, 0.11200000531971455, 0.11200000531971455, 0.7680000364780426, 0.0, 0.0, 0.0, 0.0, 0.0, 1.6518371380681849E9, 0.0, 2022-05-06 12:38:58.068
24.0, -292.6714808824472, -257.60617889789864, -231.06223896238953, -209.98229286214337, 0.11200000531971455, 0.11200000531971455, 0.7680000364780426, 0.0, 0.0, 0.0, 0.0, 0.0, 1.65183713806911E9, 0.0, 2022-05-06 12:38:58.069
24.0, -288.6286490303464, -207.68599428934976, -224.9587222347036, -212.94429362704977, 0.11200000531971455, 0.11200000531971455, 0.7680000364780426, 0.0, 0.0, 0.0, 0.0, 0.0, 1.65183713806911E9, 0.0, 2022-05-06 12:38:58.069
25.0, -221.3104498279281, -49.854736359324306, -137.33286627288908, -156.66627909382805, 0.11200000531971455, 0.11200000531971455, 0.7680000364780426, 0.0, 0.0, 0.0, 0.0, 0.0, 1.6518371380821645E9, 0.0, 2022-05-06 12:38:58.082
25.0, -212.9704729267396, -110.80762583715841, -149.37908403016627, -171.11725252261385, 0.11200000531971455, 0.11200000531971455, 0.7680000364780426, 0.0, 0.0, 0.0, 0.0, 0.0, 1.6518371380821645E9, 0.0, 2022-05-06 12:38:58.082
26.0, -294.724685958121, -267.2850399832241, -253.70733319409192, -228.17690614657477, 0.11200000531971455, 0.11200000531971455, 0.7680000364780426, 0.0, 0.0, 0.0, 0.0, 0.0, 1.6518371380982707E9, 0.0, 2022-05-06 12:38:58.098
26.0, -298.18409341713414, -218.00063836714253, -245.32995729334652, -225.99654447240755, 0.11200000531971455, 0.11200000531971455, 0.7680000364780426, 0.0, 0.0, 0.0, 0.0, 0.0, 1.6518371380982707E9, 0.0, 2022-05-06 12:38:58.098
27.0, -216.4934586849995, -50.344663253519684, -135.23852229770273, -155.15161961177364, 0.11200000531971455, 0.11200000531971455, 0.7680000364780426, 0.0, 0.0, 0.0, 0.0, 0.0, 1.6518371380991476E9, 0.0, 2022-05-06 12:38:58.099
27.0, -210.32636365806684, -104.96216220641509, -139.33371274918318, -152.82166193937883, 0.11200000531971455, 0.11200000531971455, 0.7680000364780426, 0.0, 0.0, 0.0, 0.0, 0.0, 1.6518371380991476E9, 0.0, 2022-05-06 12:38:58.099
28.0, -289.2644320228137, -261.5854324507527, -237.35649058781564, -225.47295847861096, 0.11200000531971455, 0.11200000531971455, 0.7680000364780426, 0.0, 0.0, 0.0, 0.0, 0.0, 1.6518371381121514E9, 0.0, 2022-05-06 12:38:58.112
28.0, -289.55240431940183, -205.21766031859443, -225.01482073403895, -219.99026514356956, 0.11200000531971455, 0.11200000531971455, 0.7680000364780426, 0.0, 0.0, 0.0, 0.0, 0.0, 1.6518371381121514E9, 0.0, 2022-05-06 12:38:58.112
29.0, -210.55449755536392, -42.45347434701398, -118.62214679457247, -147.25669080531225, 0.11200000531971455, 0.11200000531971455, 0.7680000364780426, 0.0, 0.0, 0.0, 0.0, 0.0, 1.6518371381281812E9, 0.0, 2022-05-06 12:38:58.128
29.0, -205.56921091442928, -106.01681399391964, -128.48052307777107, -145.80934952246025, 0.11200000531971455, 0.11200000531971455, 0.7680000364780426, 0.0, 0.0, 0.0, 0.0, 0.0, 1.6518371381281812E9, 0.0, 2022-05-06 12:38:58.128
30.0, -290.2293262113817, -254.285147737246, -220.57929938659072, -211.25759874703363, 0.11200000531971455, 0.11200000531971455, 0.8960000425577164, 0.0, 0.0, 0.0, 0.0, 0.0, 1.6518371381291192E9, 0.0, 2022-05-06 12:38:58.129
30.0, -289.8254170161672, -205.40465531637892, -216.15499773900956, -210.7527122530155, 0.11200000531971455, 0.11200000531971455, 0.8960000425577164, 0.0, 0.0, 0.0, 0.0, 0.0, 1.6518371381291192E9, 0.0, 2022-05-06 12:38:58.129
31.0, -216.73655218211934, -45.037745216395706, -129.07516717072576, -167.78500166209415, 0.11200000531971455, 0.11200000531971455, 0.8960000425577164, 0.0, 0.0, 0.0, 0.0, 0.0, 1.651837138142167E9, 0.0, 2022-05-06 12:38:58.142
31.0, -206.39198890468106, -97.47862239507958, -126.84618679713458, -157.1300266883336, 0.11200000531971455, 0.11200000531971455, 0.8960000425577164, 0.0, 0.0, 0.0, 0.0, 0.0, 1.651837138142167E9, 0.0, 2022-05-06 12:38:58.142
32.0, -295.29315075138584, -272.255367024336, -241.3394840406254, -224.85213508596644, 0.11200000531971455, 0.11200000531971455, 0.8960000425577164, 0.0, 0.0, 0.0, 0.0, 0.0, 1.651837138158234E9, 0.0, 2022-05-06 12:38:58.158
32.0, -304.3025697446428, -210.40864145709202, -230.50125396903604, -214.03260451415554, 0.11200000531971455, 0.11200000531971455, 0.8960000425577164, 0.0, 0.0, 0.0, 0.0, 0.0, 1.651837138158234E9, 0.0, 2022-05-06 12:38:58.158
33.0, -217.59672917192802, -50.39702185289934, -131.01617524772882, -142.8660482573323, 0.11200000531971455, 0.11200000531971455, 0.8960000425577164, 0.0, 0.0, 0.0, 0.0, 0.0, 1.6518371381591444E9, 0.0, 2022-05-06 12:38:58.159
33.0, -210.88734865142033, -110.8113657371141, -137.13091167528182, -169.8793456372805, 0.11200000531971455, 0.11200000531971455, 0.8960000425577164, 0.0, 0.0, 0.0, 0.0, 0.0, 1.6518371381591444E9, 0.0, 2022-05-06 12:38:58.159
34.0, -290.84266980411485, -260.45224276417866, -226.19662912003696, -207.44290079222992, 0.11200000531971455, 0.11200000531971455, 0.8960000425577164, 0.0, 0.0, 0.0, 0.0, 0.0, 1.6518371381721551E9, 0.0, 2022-05-06 12:38:58.172
34.0, -288.62490913039073, -193.17518246127293, -231.05475916247815, -211.0107653499581, 0.11200000531971455, 0.11200000531971455, 0.8960000425577164, 0.0, 0.0, 0.0, 0.0, 0.0, 1.6518371381721551E9, 0.0, 2022-05-06 12:38:58.172
35.0, -205.6365291136317, -40.83783756615594, -119.70297788176686, -165.93375118402764, 0.11200000531971455, 0.11200000531971455, 0.8960000425577164, 0.0, 0.0, 0.0, 0.0, 0.0, 1.651837138188176E9, 0.0, 2022-05-06 12:38:58.188
35.0, -208.87528247525916, -112.22878782032058, -133.5069486182183, -161.2065176400356, 0.11200000531971455, 0.11200000531971455, 0.8960000425577164, 0.0, 0.0, 0.0, 0.0, 0.0, 1.651837138188176E9, 0.0, 2022-05-06 12:38:58.188
36.0, -292.54058438399807, -265.7816002010368, -238.72155407164246, -235.43231206061319, 0.11200000531971455, 0.11200000531971455, 0.8960000425577164, 0.0, 0.0, 0.0, 0.0, 0.0, 1.65183713818912E9, 0.0, 2022-05-06 12:38:58.189
36.0, -297.95595951983705, -209.31659067003056, -243.34781031683087, -224.77359718689695, 0.11200000531971455, 0.11200000531971455, 0.8960000425577164, 0.0, 0.0, 0.0, 0.0, 0.0, 1.65183713818912E9, 0.0, 2022-05-06 12:38:58.189
37.0, -215.99979189084843, -44.81335121905431, -124.78176202159375, -156.4306653966196, 0.11200000531971455, 0.11200000531971455, 0.8960000425577164, 0.0, 0.0, 0.0, 0.0, 0.0, 1.6518371382021818E9, 0.0, 2022-05-06 12:38:58.202
37.0, -213.29210432292894, -107.9241629713215, -134.16891091037542, -156.45684469630942, 0.11200000531971455, 0.11200000531971455, 0.8960000425577164, 0.0, 0.0, 0.0, 0.0, 0.0, 1.6518371382021818E9, 0.0, 2022-05-06 12:38:58.202
38.0, -298.95077290805057, -264.5923120151274, -239.64904926065356, -233.14349328773096, 0.11200000531971455, 0.11200000531971455, 0.8960000425577164, 0.0, 0.0, 0.0, 0.0, 0.0, 1.65183713821818E9, 0.0, 2022-05-06 12:38:58.218
38.0, -295.62600184744224, -200.89807586977258, -232.98080763965845, -221.90883382083848, 0.11200000531971455, 0.11200000531971455, 0.8960000425577164, 0.0, 0.0, 0.0, 0.0, 0.0, 1.65183713821818E9, 0.0, 2022-05-06 12:38:58.218
39.0, -217.31997657520697, -44.49919962277636, -128.33466697949916, -154.3176219216548, 0.11200000531971455, 0.11200000531971455, 0.8960000425577164, 0.0, 0.0, 0.0, 0.0, 0.0, 1.6518371382191396E9, 0.0, 2022-05-06 12:38:58.219
39.0, -230.14409352326766, -122.7416465957649, -155.47138105798513, -178.3988377363421, 0.11200000531971455, 0.11200000531971455, 0.8960000425577164, 0.0, 0.0, 0.0, 0.0, 0.0, 1.6518371382191396E9, 0.0, 2022-05-06 12:38:58.219
40.0, -290.7117733056657, -270.5873716440983, -246.21257368288934, -235.18547866353765, 0.11200000531971455, 0.11200000531971455, 0.9600000455975533, 0.0, 0.0, 0.0, 0.0, 0.0, 1.6518371382321613E9, 0.0, 2022-05-06 12:38:58.232
40.0, -299.3172831037082, -218.55788346054032, -237.58836438506842, -228.61447444139048, 0.11200000531971455, 0.11200000531971455, 0.9600000455975533, 0.0, 0.0, 0.0, 0.0, 0.0, 1.6518371382321613E9, 0.0, 2022-05-06 12:38:58.232
41.0, -235.21165796322748, -63.224878700915724, -140.8446323312819, -161.95823753112927, 0.11200000531971455, 0.12800000607967377, 0.9600000455975533, 0.0, 0.0, 0.0, 0.0, 0.0, 1.6518371382481909E9, 0.0, 2022-05-06 12:38:58.248
41.0, -217.66030747117475, -115.66949577955529, -144.05720639321953, -152.48507094336674, 0.11200000531971455, 0.12800000607967377, 0.9600000455975533, 0.0, 0.0, 0.0, 0.0, 0.0, 1.6518371382481909E9, 0.0, 2022-05-06 12:38:58.248
42.0, -288.0078256377019, -262.1838164436631, -226.9595687109977, -206.8968753986992, 0.12800000607967377, 0.12800000607967377, 0.9600000455975533, 0.0, 0.0, 0.0, 0.0, 0.0, 1.651837138249136E9, 0.0, 2022-05-06 12:38:58.249
42.0, -291.0895032011904, -202.71566724823788, -231.02483996283263, -219.42554025026038, 0.12800000607967377, 0.12800000607967377, 0.9600000455975533, 0.0, 0.0, 0.0, 0.0, 0.0, 1.651837138249136E9, 0.0, 2022-05-06 12:38:58.249
43.0, -212.51794503210112, -41.66061555640772, -120.19290477596223, -164.73698319820687, 0.12800000607967377, 0.12800000607967377, 0.9600000455975533, 0.0, 0.0, 0.0, 0.0, 0.0, 1.65183713826218E9, 0.0, 2022-05-06 12:38:58.262
43.0, -204.6005768259056, -109.62207755120471, -131.55846074130386, -153.74541722843423, 0.12800000607967377, 0.12800000607967377, 0.9600000455975533, 0.0, 0.0, 0.0, 0.0, 0.0, 1.65183713826218E9, 0.0, 2022-05-06 12:38:58.262
44.0, -289.3766290214844, -265.94241589913145, -241.4479411393404, -225.33084228029475, 0.12800000607967377, 0.12800000607967377, 0.9600000455975533, 0.0, 0.0, 0.0, 0.0, 0.0, 1.6518371382781732E9, 0.0, 2022-05-06 12:38:58.278
44.0, -297.7540049222298, -201.14490926684812, -230.71068836655468, -227.6869792523794, 0.12800000607967377, 0.12800000607967377, 0.9600000455975533, 0.0, 0.0, 0.0, 0.0, 0.0, 1.6518371382781732E9, 0.0, 2022-05-06 12:38:58.278
45.0, -203.01859914464876, -33.50389375304803, -108.23270471766591, -142.85482855746523, 0.12800000607967377, 0.12800000607967377, 0.9600000455975533, 0.0, 0.0, 0.0, 0.0, 0.0, 1.6518371382791152E9, 0.0, 2022-05-06 12:38:58.279
45.0, -204.24528633011505, -105.38851080136374, -125.76909560989588, -138.24727181205526, 0.12800000607967377, 0.12800000607967377, 0.9600000455975533, 0.0, 0.0, 0.0, 0.0, 0.0, 1.6518371382791152E9, 0.0, 2022-05-06 12:38:58.279
46.0, -277.5585451615043, -256.4842089111917, -220.42596348840743, -204.28642522962764, 0.12800000607967377, 0.12800000607967377, 0.9600000455975533, 0.0, 0.0, 0.0, 0.0, 0.0, 1.6518371382921636E9, 0.0, 2022-05-06 12:38:58.292
46.0, -276.3430776759051, -189.11739100934938, -212.86388577800244, -202.28931865328923, 0.12800000607967377, 0.12800000607967377, 0.9600000455975533, 0.0, 0.0, 0.0, 0.0, 0.0, 1.6518371382921636E9, 0.0, 2022-05-06 12:38:58.292
47.0, -219.59757564822212, -41.23052706150338, -130.82170045003295, -156.03049610136077, 0.12800000607967377, 0.12800000607967377, 0.9600000455975533, 0.0, 0.0, 0.0, 0.0, 0.0, 1.6518371383081596E9, 0.0, 2022-05-06 12:38:58.308
47.0, -214.66464760666713, -114.71208139089867, -135.50031529460102, -165.67569808708504, 0.12800000607967377, 0.12800000607967377, 0.9600000455975533, 0.0, 0.0, 0.0, 0.0, 0.0, 1.6518371383081596E9, 0.0, 2022-05-06 12:38:58.308
48.0, -285.80128466384485, -264.94760251091793, -237.91373568121344, -214.0438242140226, 0.12800000607967377, 0.12800000607967377, 0.9600000455975533, 0.0, 0.0, 0.0, 0.0, 0.0, 1.6518371383091338E9, 0.0, 2022-05-06 12:38:58.309
48.0, -282.9365212977864, -194.63748334394768, -223.15609045606107, -212.63014203077182, 0.12800000607967377, 0.12800000607967377, 0.9600000455975533, 0.0, 0.0, 0.0, 0.0, 0.0, 1.6518371383091338E9, 0.0, 2022-05-06 12:38:58.309
49.0, -223.8236625981517, -55.7114196899347, -135.62747189309448, -174.65145798074082, 0.12800000607967377, 0.12800000607967377, 0.9600000455975533, 0.0, 0.0, 0.0, 0.0, 0.0, 1.6518371383221745E9, 0.0, 2022-05-06 12:38:58.322
49.0, -224.9381527849473, -124.85842997068539, -149.7717735255137, -173.67534409230575, 0.12800000607967377, 0.12800000607967377, 0.9600000455975533, 0.0, 0.0, 0.0, 0.0, 0.0, 1.6518371383221745E9, 0.0, 2022-05-06 12:38:58.322
50.0, -296.3515424388461, -270.2208614484407, -239.95572105702013, -228.45365874329582, 0.12800000607967377, 0.12800000607967377, 0.9920000471174717, 0.0, 0.0, 0.0, 0.0, 0.0, 1.6518371383381968E9, 0.0, 2022-05-06 12:38:58.338
50.0, -293.3409229745157, -200.69238137220964, -231.20809506066144, -217.20777957653627, 0.12800000607967377, 0.12800000607967377, 0.9920000471174717, 0.0, 0.0, 0.0, 0.0, 0.0, 1.6518371383381968E9, 0.0, 2022-05-06 12:38:58.338
51.0, -209.05479767313227, -41.009872964117676, -114.81866853963584, -150.61512096552178, 0.12800000607967377, 0.12800000607967377, 0.9920000471174717, 0.0, 0.0, 0.0, 0.0, 0.0, 1.6518371383391008E9, 0.0, 2022-05-06 12:38:58.339
51.0, -215.86889539239928, -120.50518642226234, -146.72375506162643, -169.52031524153426, 0.12800000607967377, 0.12800000607967377, 0.9920000471174717, 0.0, 0.0, 0.0, 0.0, 0.0, 1.6518371383391008E9, 0.0, 2022-05-06 12:38:58.339
52.0, -302.99734466010705, -279.6977679361589, -253.55773719586432, -240.5821542995982, 0.12800000607967377, 0.12800000607967377, 0.9920000471174717, 0.0, 0.0, 0.0, 0.0, 0.0, 1.6518371383521647E9, 0.0, 2022-05-06 12:38:58.352
52.0, -309.85258127888665, -207.62615589005873, -238.1830084780231, -228.28536324528977, 0.12800000607967377, 0.12800000607967377, 0.9920000471174717, 0.0, 0.0, 0.0, 0.0, 0.0, 1.6518371383521647E9, 0.0, 2022-05-06 12:38:58.352
53.0, -199.5255325860344, -29.63683719886467, -112.39895326830447, -135.94349343935028, 0.12800000607967377, 0.12800000607967377, 0.9920000471174717, 0.0, 0.0, 0.0, 0.0, 0.0, 1.6518371383681543E9, 0.0, 2022-05-06 12:38:58.368
53.0, -204.7800920237787, -109.92874934757128, -128.86573277320713, -129.51086551556364, 0.12800000607967377, 0.12800000607967377, 0.9920000471174717, 0.0, 0.0, 0.0, 0.0, 0.0, 1.6518371383681543E9, 0.0, 2022-05-06 12:38:58.368
54.0, -294.39183486206457, -268.42196956975386, -238.8935894696042, -242.77373567363247, 0.12800000607967377, 0.12800000607967377, 0.9920000471174717, 0.0, 0.0, 0.0, 0.0, 0.0, 1.651837138369184E9, 0.0, 2022-05-06 12:38:58.369
54.0, -274.9256555926986, -183.1036318806, -213.53332787007093, -211.44085384486243, 0.12800000607967377, 0.12800000607967377, 0.9920000471174717, 0.0, 0.0, 0.0, 0.0, 0.0, 1.651837138369184E9, 0.0, 2022-05-06 12:38:58.369
55.0, -199.47691388661042, -31.050519382115453, -106.1981991417706, -124.99680626904592, 0.12800000607967377, 0.12800000607967377, 0.9920000471174717, 0.0, 0.0, 0.0, 0.0, 0.0, 1.6518371383992157E9, 0.0, 2022-05-06 12:38:58.399
55.0, -209.76163876475766, -112.93188901199028, -131.03113484755158, -149.26875698147342, 0.12800000607967377, 0.12800000607967377, 0.9920000471174717, 0.0, 0.0, 0.0, 0.0, 0.0, 1.6518371383992157E9, 0.0, 2022-05-06 12:38:58.399
56.0, -284.593296978157, -256.9255171059631, -235.21726781316102, -209.43626746861264, 0.12800000607967377, 0.12800000607967377, 0.9920000471174717, 0.0, 0.0, 0.0, 0.0, 0.0, 1.6518371384001265E9, 0.0, 2022-05-06 12:38:58.400
56.0, -273.98694070382044, -176.4690493592061, -213.6978834681213, -203.377629540395, 0.12800000607967377, 0.12800000607967377, 0.9920000471174717, 0.0, 0.0, 0.0, 0.0, 0.0, 1.6518371384001265E9, 0.0, 2022-05-06 12:38:58.400
57.0, -214.859122404363, -41.38012305973098, -126.73398979846388, -160.89984584366903, 0.12800000607967377, 0.12800000607967377, 0.9920000471174717, 0.0, 0.0, 0.0, 0.0, 0.0, 1.6518371384011433E9, 0.0, 2022-05-06 12:38:58.401
57.0, -221.6096418243833, -125.83080395916477, -132.08578663505614, -154.76640991633758, 0.12800000607967377, 0.12800000607967377, 0.9920000471174717, 0.0, 0.0, 0.0, 0.0, 0.0, 1.6518371384011433E9, 0.0, 2022-05-06 12:38:58.401
58.0, -300.88056128518656, -274.0318195032887, -250.62191573064774, -231.38200040860102, 0.12800000607967377, 0.12800000607967377, 0.9920000471174717, 0.0, 0.0, 0.0, 0.0, 0.0, 1.6518371384121506E9, 0.0, 2022-05-06 12:38:58.412
58.0, -293.28482447518036, -195.97262762812898, -230.76678686589003, -226.50891076633707, 0.12800000607967377, 0.12800000607967377, 0.9920000471174717, 0.0, 0.0, 0.0, 0.0, 0.0, 1.6518371384121506E9, 0.0, 2022-05-06 12:38:58.412
59.0, -220.4614925379865, -48.79634467186406, -130.724463051185, -161.2027777400799, 0.12800000607967377, 0.12800000607967377, 0.9920000471174717, 0.0, 0.0, 0.0, 0.0, 0.0, 1.651837138428196E9, 0.0, 2022-05-06 12:38:58.428
59.0, -220.7494648345746, -129.95217371033505, -145.71398207359016, -173.19289699802175, 0.12800000607967377, 0.12800000607967377, 0.9920000471174717, 0.0, 0.0, 0.0, 0.0, 0.0, 1.651837138428196E9, 0.0, 2022-05-06 12:38:58.428
60.0, -305.0542896357365, -279.76134623540565, -249.88889533933252, -232.60120779415593, 0.12800000607967377, 0.12800000607967377, 1.008000047877431, 0.0, 0.0, 0.0, 0.0, 0.0, 1.6518371384291177E9, 0.0, 2022-05-06 12:38:58.429
60.0, -291.347556298133, -190.21318169636652, -222.57266606297344, -215.83523629279807, 0.12800000607967377, 0.12800000607967377, 1.008000047877431, 0.0, 0.0, 0.0, 0.0, 0.0, 1.6518371384291177E9, 0.0, 2022-05-06 12:38:58.429
61.0, -207.97770648589358, -36.237760620657355, -121.46821066085249, -144.6462406362407, 0.12800000607967377, 0.12800000607967377, 1.008000047877431, 0.0, 0.0, 0.0, 0.0, 0.0, 1.6518371384421499E9, 0.0, 2022-05-06 12:38:58.442
61.0, -228.1993455463089, -146.1571602183394, -163.7402998600155, -180.9195303064771, 0.12800000607967377, 0.12800000607967377, 1.008000047877431, 0.0, 0.0, 0.0, 0.0, 0.0, 1.6518371384421499E9, 0.0, 2022-05-06 12:38:58.442
62.0, -309.691765580792, -282.0464251083322, -251.20160022377968, -237.4256787369959, 0.12800000607967377, 0.12800000607967377, 1.008000047877431, 0.0, 0.0, 0.0, 0.0, 0.0, 1.6518371384582076E9, 0.0, 2022-05-06 12:38:58.458
62.0, -294.54891066020355, -194.34577114740387, -224.53237363975495, -213.31080382270738, 0.12800000607967377, 0.12800000607967377, 1.008000047877431, 0.0, 0.0, 0.0, 0.0, 0.0, 1.6518371384582076E9, 0.0, 2022-05-06 12:38:58.458
63.0, -217.30127707542852, -41.57833775738254, -124.55362812429667, -156.88693319121376, 0.12800000607967377, 0.12800000607967377, 1.008000047877431, 0.0, 0.0, 0.0, 0.0, 0.0, 1.6518371384591193E9, 0.0, 2022-05-06 12:38:58.459
63.0, -224.77733708685264, -129.1892341193743, -141.00170812942088, -159.49364346032962, 0.12800000607967377, 0.12800000607967377, 1.008000047877431, 0.0, 0.0, 0.0, 0.0, 0.0, 1.6518371384591193E9, 0.0, 2022-05-06 12:38:58.459
64.0, -301.8604150735773, -275.24354708893225, -247.57015736680478, -221.63208122411743, 0.12800000607967377, 0.12800000607967377, 1.008000047877431, 0.0, 0.0, 0.0, 0.0, 0.0, 1.6518371384721613E9, 0.0, 2022-05-06 12:38:58.472
64.0, -284.219306982588, -185.4822082524188, -217.26948792580515, -208.07120398478583, 0.12800000607967377, 0.12800000607967377, 1.008000047877431, 0.0, 0.0, 0.0, 0.0, 0.0, 1.6518371384721613E9, 0.0, 2022-05-06 12:38:58.472
65.0, -214.6796072064899, -38.87812998937443, -125.87007290869951, -160.77642914513126, 0.12800000607967377, 0.12800000607967377, 1.008000047877431, 0.0, 0.0, 0.0, 0.0, 0.0, 1.6518371384881594E9, 0.0, 2022-05-06 12:38:58.488
65.0, -232.7994224918075, -131.66130799008533, -155.39284315891564, -178.67933023301885, 0.12800000607967377, 0.12800000607967377, 1.008000047877431, 0.0, 0.0, 0.0, 0.0, 0.0, 1.6518371384881594E9, 0.0, 2022-05-06 12:38:58.488
66.0, -305.9817848247476, -280.4120888276957, -257.8960211444646, -238.92911851918325, 0.12800000607967377, 0.12800000607967377, 1.008000047877431, 0.0, 0.0, 0.0, 0.0, 0.0, 1.651837138489128E9, 0.0, 2022-05-06 12:38:58.489
66.0, -299.61647510016337, -200.27351257717237, -227.24754100758582, -217.43591347383335, 0.12800000607967377, 0.12800000607967377, 1.008000047877431, 0.0, 0.0, 0.0, 0.0, 0.0, 1.651837138489128E9, 0.0, 2022-05-06 12:38:58.489
67.0, -207.4877795916982, -35.837591325398535, -123.86922643240541, -151.37058075657114, 0.12800000607967377, 0.12800000607967377, 1.008000047877431, 0.0, 0.0, 0.0, 0.0, 0.0, 1.6518371385021532E9, 0.0, 2022-05-06 12:38:58.502
67.0, -230.93695231387392, -132.39806828135625, -149.09485163353384, -171.76051531499252, 0.12800000607967377, 0.12800000607967377, 1.008000047877431, 0.0, 0.0, 0.0, 0.0, 0.0, 1.6518371385021532E9, 0.0, 2022-05-06 12:38:58.502
68.0, -309.8974600783549, -275.32208498800173, -242.51007272675633, -235.70906465733424, 0.12800000607967377, 0.12800000607967377, 1.008000047877431, 0.0, 0.0, 0.0, 0.0, 0.0, 1.651837138518195E9, 0.0, 2022-05-06 12:38:58.518
68.0, -283.6695416891016, -177.81915324321017, -220.50076148752123, -208.2694186824374, 0.12800000607967377, 0.12800000607967377, 1.008000047877431, 0.0, 0.0, 0.0, 0.0, 0.0, 1.651837138518195E9, 0.0, 2022-05-06 12:38:58.518
69.0, -207.35688309324905, -37.75242010271177, -118.94003829080611, -151.09756805980578, 0.12800000607967377, 0.12800000607967377, 1.008000047877431, 0.0, 0.0, 0.0, 0.0, 0.0, 1.6518371385191157E9, 0.0, 2022-05-06 12:38:58.519
69.0, -216.6767137828283, -124.98932646913454, -142.6210848102346, -166.12448608176783, 0.12800000607967377, 0.12800000607967377, 1.008000047877431, 0.0, 0.0, 0.0, 0.0, 0.0, 1.6518371385191157E9, 0.0, 2022-05-06 12:38:58.519
70.0, -298.25141161633655, -276.1411230782978, -248.90156175103039, -224.25001119310036, 0.12800000607967377, 0.12800000607967377, 1.008000047877431, 0.0, 0.0, 0.0, 0.0, 0.0, 1.6518371385321715E9, 0.0, 2022-05-06 12:38:58.532
70.0, -294.0103650665842, -195.53879923326895, -225.14945713244379, -208.6695879776962, 0.12800000607967377, 0.12800000607967377, 1.008000047877431, 0.0, 0.0, 0.0, 0.0, 0.0, 1.6518371385321715E9, 0.0, 2022-05-06 12:38:58.532
71.0, -221.87143482128158, -37.19143510935828, -113.09457466006279, -140.25185818830505, 0.12800000607967377, 0.12800000607967377, 1.008000047877431, 0.0, 0.0, 0.0, 0.0, 0.0, 1.6518371385481749E9, 0.0, 2022-05-06 12:38:58.548
71.0, -222.39128091512248, -124.58541727392003, -139.1055788518861, -149.39965347992256, 0.12800000607967377, 0.12800000607967377, 1.008000047877431, 0.0, 0.0, 0.0, 0.0, 0.0, 1.6518371385481749E9, 0.0, 2022-05-06 12:38:58.548
72.0, -304.0819156472571, -275.6250168844126, -238.72529397159815, -230.7948361155577, 0.12800000607967377, 0.12800000607967377, 1.008000047877431, 0.0, 0.0, 0.0, 0.0, 0.0, 1.651837138549142E9, 0.0, 2022-05-06 12:38:58.549
72.0, -297.1182219297625, -186.15165034448728, -229.2932662833482, -206.12645600782707, 0.12800000607967377, 0.12800000607967377, 1.008000047877431, 0.0, 0.0, 0.0, 0.0, 0.0, 1.651837138549142E9, 0.0, 2022-05-06 12:38:58.549
73.0, -209.42130786878988, -29.281546703074127, -113.83507485128939, -134.41013445751742, 0.12800000607967377, 0.12800000607967377, 1.008000047877431, 0.0, 0.0, 0.0, 0.0, 0.0, 1.6518371385621617E9, 0.0, 2022-05-06 12:38:58.562
73.0, -223.0906422068365, -131.17886089580134, -153.01800668705255, -173.67534409230575, 0.12800000607967377, 0.12800000607967377, 1.008000047877431, 0.0, 0.0, 0.0, 0.0, 0.0, 1.6518371385621617E9, 0.0, 2022-05-06 12:38:58.562
74.0, -305.9817848247476, -278.4112423514016, -246.91193497460335, -233.51374338334426, 0.12800000607967377, 0.12800000607967377, 1.008000047877431, 0.0, 0.0, 0.0, 0.0, 0.0, 1.6518371385781765E9, 0.0, 2022-05-06 12:38:58.578
74.0, -299.51923770131543, -192.20654837274924, -226.74639441352338, -208.3367368816398, 0.12800000607967377, 0.12800000607967377, 1.008000047877431, 0.0, 0.0, 0.0, 0.0, 0.0, 1.6518371385781765E9, 0.0, 2022-05-06 12:38:58.578
75.0, -207.7869715881534, -37.20639470918104, -116.9466716144234, -152.69076544092968, 0.12800000607967377, 0.12800000607967377, 1.008000047877431, 0.0, 0.0, 0.0, 0.0, 0.0, 1.651837138579115E9, 0.0, 2022-05-06 12:38:58.579
75.0, -240.75044979760423, -145.4166600271128, -169.09583659656346, -178.81396663142368, 0.12800000607967377, 0.12800000607967377, 1.008000047877431, 0.0, 0.0, 0.0, 0.0, 0.0, 1.651837138579115E9, 0.0, 2022-05-06 12:38:58.579
76.0, -297.03594413073733, -268.0404997742735, -232.3375448472798, -220.52133093727753, 0.12800000607967377, 0.12800000607967377, 1.008000047877431, 0.0, 0.0, 0.0, 0.0, 0.0, 1.651837138592157E9, 0.0, 2022-05-06 12:38:58.592
76.0, -284.12954938365147, -183.20834907935932, -219.01228130515665, -216.36630208650604, 0.12800000607967377, 0.12800000607967377, 1.008000047877431, 0.0, 0.0, 0.0, 0.0, 0.0, 1.651837138592157E9, 0.0, 2022-05-06 12:38:58.592
77.0, -215.36026899842545, -42.83494414249435, -129.6174526643008, -164.99877619510517, 0.12800000607967377, 0.12800000607967377, 1.008000047877431, 0.0, 0.0, 0.0, 0.0, 0.0, 1.6518371386081598E9, 0.0, 2022-05-06 12:38:58.608
77.0, -234.41131937270984, -138.1986531126313, -155.291865860112, -162.04799513006583, 0.12800000607967377, 0.12800000607967377, 1.008000047877431, 0.0, 0.0, 0.0, 0.0, 0.0, 1.6518371386081598E9, 0.0, 2022-05-06 12:38:58.608
78.0, -314.85656741959974, -286.50064595555887, -252.8247168045491, -239.96507080690935, 0.12800000607967377, 0.12800000607967377, 1.008000047877431, 0.0, 0.0, 0.0, 0.0, 0.0, 1.6518371386091285E9, 0.0, 2022-05-06 12:38:58.609
78.0, -295.2258325521834, -183.586078974884, -220.23896849062294, -207.83185038762167, 0.12800000607967377, 0.12800000607967377, 1.008000047877431, 0.0, 0.0, 0.0, 0.0, 0.0, 1.6518371386091285E9, 0.0, 2022-05-06 12:38:58.609
79.0, -210.87238905159757, -34.667002639267594, -117.63855310622603, -139.48143879743293, 0.12800000607967377, 0.12800000607967377, 1.008000047877431, 0.0, 0.0, 0.0, 0.0, 0.0, 1.6518371386221614E9, 0.0, 2022-05-06 12:38:58.622
79.0, -231.10898771183565, -133.6771140662022, -155.4826007578522, -180.956929306034, 0.12800000607967377, 0.12800000607967377, 1.008000047877431, 0.0, 0.0, 0.0, 0.0, 0.0, 1.6518371386221614E9, 0.0, 2022-05-06 12:38:58.622
80.0, -306.5016309185885, -277.8240780583583, -245.8535432871431, -222.4959981138818, 0.12800000607967377, 0.12800000607967377, 1.0240000486373901, 0.0, 0.0, 0.0, 0.0, 0.0, 1.6518371386381643E9, 0.0, 2022-05-06 12:38:58.638
80.0, -295.0163981546648, -176.79816055530682, -217.53876072261482, -204.79879152355716, 0.12800000607967377, 0.12800000607967377, 1.0240000486373901, 0.0, 0.0, 0.0, 0.0, 0.0, 1.6518371386381643E9, 0.0, 2022-05-06 12:38:58.638
81.0, -209.76911856466904, -34.69318193895742, -117.3917197091505, -145.10998823074624, 0.12800000607967377, 0.12800000607967377, 1.0240000486373901, 0.0, 0.0, 0.0, 0.0, 0.0, 1.6518371386391351E9, 0.0, 2022-05-06 12:38:58.639
81.0, -228.15072684688494, -137.31603672308847, -154.68600206729025, -165.70935718668625, 0.12800000607967377, 0.12800000607967377, 1.0240000486373901, 0.0, 0.0, 0.0, 0.0, 0.0, 1.6518371386391351E9, 0.0, 2022-05-06 12:38:58.639
82.0, -307.8779141022824, -280.5504651260562, -257.263978051953, -240.55597499990836, 0.12800000607967377, 0.12800000607967377, 1.0240000486373901, 0.0, 0.0, 0.0, 0.0, 0.0, 1.651837138652181E9, 0.0, 2022-05-06 12:38:58.652
82.0, -297.59318922413513, -187.3633779301308, -231.8513578530401, -220.61108853621408, 0.12800000607967377, 0.12800000607967377, 1.0240000486373901, 0.0, 0.0, 0.0, 0.0, 0.0, 1.651837138652181E9, 0.0, 2022-05-06 12:38:58.652
83.0, -207.40550179267302, -40.34417077200487, -116.4978836197406, -156.59896089462563, 0.12800000607967377, 0.12800000607967377, 1.0240000486373901, 0.0, 0.0, 0.0, 0.0, 0.0, 1.6518371386681588E9, 0.0, 2022-05-06 12:38:58.668
83.0, -229.50831053080037, -136.272604635451, -152.71881469059736, -165.4999227891676, 0.12800000607967377, 0.12800000607967377, 1.0240000486373901, 0.0, 0.0, 0.0, 0.0, 0.0, 1.6518371386681588E9, 0.0, 2022-05-06 12:38:58.668
84.0, -312.9866174417548, -285.46469366783276, -256.29160406347364, -241.4348514894955, 0.12800000607967377, 0.12800000607967377, 1.0240000486373901, 0.0, 0.0, 0.0, 0.0, 0.0, 1.6518371386690948E9, 0.0, 2022-05-06 12:38:58.669
84.0, -284.4923196793534, -177.01507475273684, -206.56589425262064, -201.930288257543, 0.12800000607967377, 0.12800000607967377, 1.0240000486373901, 0.0, 0.0, 0.0, 0.0, 0.0, 1.6518371386690948E9, 0.0, 2022-05-06 12:38:58.669
85.0, -221.01873763138428, -34.80163903767243, -118.17335879988968, -153.70427832892165, 0.12800000607967377, 0.12800000607967377, 1.0240000486373901, 0.0, 0.0, 0.0, 0.0, 0.0, 1.651837138682178E9, 0.0, 2022-05-06 12:38:58.682
85.0, -224.95685228472576, -132.2297727833502, -143.87769119534642, -157.69849148159847, 0.12800000607967377, 0.12800000607967377, 1.0240000486373901, 0.0, 0.0, 0.0, 0.0, 0.0, 1.651837138682178E9, 0.0, 2022-05-06 12:38:58.682
86.0, -306.7634239154868, -279.3050784408115, -254.9714193791151, -236.89461294328794, 0.12800000607967377, 0.12800000607967377, 1.0240000486373901, 0.0, 0.0, 0.0, 0.0, 0.0, 1.651837138698183E9, 0.0, 2022-05-06 12:38:58.698
86.0, -291.0558441015892, -182.65110398596153, -213.9521966651082, -206.23865300649777, 0.12800000607967377, 0.12800000607967377, 1.0240000486373901, 0.0, 0.0, 0.0, 0.0, 0.0, 1.651837138698183E9, 0.0, 2022-05-06 12:38:58.698
87.0, -213.54641751991585, -31.63020387524739, -123.1698651406914, -157.8705268795602, 0.12800000607967377, 0.12800000607967377, 1.0240000486373901, 0.0, 0.0, 0.0, 0.0, 0.0, 1.6518371386991248E9, 0.0, 2022-05-06 12:38:58.699
87.0, -241.0608614939265, -149.80730257509276, -165.98423983342946, -179.6554441214539, 0.12800000607967377, 0.12800000607967377, 1.0240000486373901, 0.0, 0.0, 0.0, 0.0, 0.0, 1.6518371386991248E9, 0.0, 2022-05-06 12:38:58.699
88.0, -309.9759979774244, -284.24548628227785, -263.3899341793731, -247.03722162311897, 0.12800000607967377, 0.12800000607967377, 1.0240000486373901, 0.0, 0.0, 0.0, 0.0, 0.0, 1.6518371387121797E9, 0.0, 2022-05-06 12:38:58.712
88.0, -288.0863635367714, -171.68571731587872, -211.35296619590372, -208.56861067889258, 0.12800000607967377, 0.12800000607967377, 1.0240000486373901, 0.0, 0.0, 0.0, 0.0, 0.0, 1.6518371387121797E9, 0.0, 2022-05-06 12:38:58.712
89.0, -203.7852786355652, -26.39434393728152, -113.22921105846763, -132.5626238794066, 0.12800000607967377, 0.12800000607967377, 1.0240000486373901, 0.0, 0.0, 0.0, 0.0, 0.0, 1.6518371387281563E9, 0.0, 2022-05-06 12:38:58.728
89.0, -230.95939171360806, -137.32351652299985, -149.5174603285268, -181.61515169823542, 0.12800000607967377, 0.12800000607967377, 1.0240000486373901, 0.0, 0.0, 0.0, 0.0, 0.0, 1.6518371387281563E9, 0.0, 2022-05-06 12:38:58.728
90.0, -306.17625962244347, -273.2576602124609, -241.87054983433336, -237.81462833238766, 0.12800000607967377, 0.12800000607967377, 1.0240000486373901, 0.0, 0.0, 0.0, 0.0, 0.0, 1.6518371387290993E9, 0.0, 2022-05-06 12:38:58.729
90.0, -294.3058171630837, -190.74424749007449, -228.9192762877792, -212.27485153498128, 0.12800000607967377, 0.12800000607967377, 1.0240000486373901, 0.0, 0.0, 0.0, 0.0, 0.0, 1.6518371387290993E9, 0.0, 2022-05-06 12:38:58.729
91.0, -219.51903774915263, -49.66400146158412, -126.5058559011668, -160.12194665288553, 0.12800000607967377, 0.12800000607967377, 1.0240000486373901, 0.0, 0.0, 0.0, 0.0, 0.0, 1.651837138742179E9, 0.0, 2022-05-06 12:38:58.742
91.0, -231.8719273027964, -142.39108096295968, -162.5547515740618, -180.6278181099333, 0.12800000607967377, 0.12800000607967377, 1.0240000486373901, 0.0, 0.0, 0.0, 0.0, 0.0, 1.651837138742179E9, 0.0, 2022-05-06 12:38:58.742
92.0, -304.6092415410094, -274.9219156927429, -252.27495151106268, -237.13770644040778, 0.12800000607967377, 0.12800000607967377, 1.0240000486373901, 0.0, 0.0, 0.0, 0.0, 0.0, 1.6518371387581768E9, 0.0, 2022-05-06 12:38:58.758
92.0, -282.4391146036796, -176.64856455707923, -213.63056526891887, -206.11523630796, 0.12800000607967377, 0.12800000607967377, 1.0240000486373901, 0.0, 0.0, 0.0, 0.0, 0.0, 1.6518371387581768E9, 0.0, 2022-05-06 12:38:58.758
93.0, -224.65018048835918, -43.69138123234734, -127.94571738410741, -157.54889548337087, 0.12800000607967377, 0.12800000607967377, 1.0240000486373901, 0.0, 0.0, 0.0, 0.0, 0.0, 1.6518371387591121E9, 0.0, 2022-05-06 12:38:58.759
93.0, -238.40553252538666, -151.55383585439995, -164.20778735447675, -184.00868766987696, 0.12800000607967377, 0.12800000607967377, 1.0240000486373901, 0.0, 0.0, 0.0, 0.0, 0.0, 1.6518371387591121E9, 0.0, 2022-05-06 12:38:58.759
94.0, -303.18807955784723, -278.31400495255366, -256.42998036183417, -230.52930321870372, 0.12800000607967377, 0.12800000607967377, 1.0240000486373901, 0.0, 0.0, 0.0, 0.0, 0.0, 1.651837138772179E9, 0.0, 2022-05-06 12:38:58.772
94.0, -281.0740511198528, -178.6568908332847, -212.62827208079398, -200.54278537398204, 0.12800000607967377, 0.12800000607967377, 1.0240000486373901, 0.0, 0.0, 0.0, 0.0, 0.0, 1.651837138772179E9, 0.0, 2022-05-06 12:38:58.772
95.0, -200.97287386888638, -30.478314688894898, -111.71081167645752, -135.58072314364836, 0.12800000607967377, 0.12800000607967377, 1.0240000486373901, 0.0, 0.0, 0.0, 0.0, 0.0, 1.651837138788157E9, 0.0, 2022-05-06 12:38:58.788
95.0, -240.4624775010161, -150.5665022660978, -155.12731026206166, -180.0630932166241, 0.12800000607967377, 0.12800000607967377, 1.0240000486373901, 0.0, 0.0, 0.0, 0.0, 0.0, 1.651837138788157E9, 0.0, 2022-05-06 12:38:58.788
96.0, -309.2467174860649, -282.54383180243894, -249.69068064168096, -228.08340864768252, 0.12800000607967377, 0.12800000607967377, 1.0240000486373901, 0.0, 0.0, 0.0, 0.0, 0.0, 1.651837138789096E9, 0.0, 2022-05-06 12:38:58.789
96.0, -286.95317385019735, -176.08383966377005, -223.05885305721313, -219.7135125468485, 0.12800000607967377, 0.12800000607967377, 1.0240000486373901, 0.0, 0.0, 0.0, 0.0, 0.0, 1.651837138789096E9, 0.0, 2022-05-06 12:38:58.789
97.0, -211.81484384043142, -28.30543281463906, -116.6100806184113, -148.1954056941904, 0.12800000607967377, 0.12800000607967377, 1.0240000486373901, 0.0, 0.0, 0.0, 0.0, 0.0, 1.651837138802185E9, 0.0, 2022-05-06 12:38:58.802
97.0, -231.22866451041773, -143.9057404450141, -151.61928410362452, -163.71973041025922, 0.12800000607967377, 0.12800000607967377, 1.0240000486373901, 0.0, 0.0, 0.0, 0.0, 0.0, 1.651837138802185E9, 0.0, 2022-05-06 12:38:58.802
98.0, -302.0586297712289, -278.24294685339555, -254.1598610887304, -236.6141204466112, 0.12800000607967377, 0.12800000607967377, 1.0240000486373901, 0.0, 0.0, 0.0, 0.0, 0.0, 1.6518371388181584E9, 0.0, 2022-05-06 12:38:58.818
98.0, -285.8199841636233, -175.2535818736069, -222.8494186596945, -209.3726891693659, 0.12800000607967377, 0.12800000607967377, 1.0240000486373901, 0.0, 0.0, 0.0, 0.0, 0.0, 1.6518371388181584E9, 0.0, 2022-05-06 12:38:58.818
99.0, -204.87732942262664, -38.77341279061511, -115.85462082736194, -124.65273547312245, 0.12800000607967377, 0.12800000607967377, 1.0240000486373901, 0.0, 0.0, 0.0, 0.0, 0.0, 1.6518371388191164E9, 0.0, 2022-05-06 12:38:58.819
99.0, -222.6792532117106, -138.4529663096182, -154.82437836565077, -159.15331256436184, 0.12800000607967377, 0.12800000607967377, 1.0240000486373901, 0.0, 0.0, 0.0, 0.0, 0.0, 1.6518371388191164E9, 0.0, 2022-05-06 12:38:58.819
100.0, -304.276390444953, -277.61464366083965, -253.1949669001624, -249.51677529374138, 0.12800000607967377, 0.12800000607967377, 1.0240000486373901, 0.0, 0.0, 0.0, 0.0, 0.0, 1.6518371388331845E9, 0.0, 2022-05-06 12:38:58.833
100.0, -274.7386605949141, -171.48376271827146, -216.65240443311632, -212.87323552789167, 0.12800000607967377, 0.12800000607967377, 1.0240000486373901, 0.0, 0.0, 0.0, 0.0, 0.0, 1.6518371388331845E9, 0.0, 2022-05-06 12:38:58.833
0.0, -214.23829901171848, -46.20459400257096, -124.47883012518287, -155.92577890260145, 0.12800000607967377, 0.12800000607967377, 1.0240000486373901, 0.0, 0.0, 0.0, 0.0, 0.0, 1.6518371388341377E9, 0.0, 2022-05-06 12:38:58.834
1.0, -232.41795269632712, -149.02566348435357, -168.93876079842448, -180.1752902152948, 0.12800000607967377, 0.12800000607967377, 1.0240000486373901, 0.0, 0.0, 0.0, 0.0, 0.0, 1.651837138847149E9, 0.0, 2022-05-06 12:38:58.847
1.0, -304.48208494251594, -276.5599918733351, -257.43975334987044, -241.78266218537465, 0.12800000607967377, 0.12800000607967377, 1.0240000486373901, 0.0, 0.0, 0.0, 0.0, 0.0, 1.651837138847149E9, 0.0, 2022-05-06 12:38:58.847
2.0, -278.1831084541045, -166.11326638190076, -201.85362030845135, -192.06443217443302, 0.12800000607967377, 0.12800000607967377, 1.0240000486373901, 0.0, 0.0, 0.0, 0.0, 0.0, 1.6518371388632088E9, 0.0, 2022-05-06 12:38:58.863
2.0, -213.49779882049188, -39.820584778208286, -116.53154271934181, -151.15740645909682, 0.12800000607967377, 0.12800000607967377, 1.0240000486373901, 0.0, 0.0, 0.0, 0.0, 0.0, 1.6518371388632088E9, 0.0, 2022-05-06 12:38:58.863
3.0, -237.11526704067364, -148.74143108772114, -167.80183121189475, -186.45084234094247, 0.12800000607967377, 0.12800000607967377, 1.0240000486373901, 0.0, 0.0, 0.0, 0.0, 0.0, 1.651837138864132E9, 0.0, 2022-05-06 12:38:58.864
3.0, -309.052242688369, -282.72334700031206, -250.72663292940706, -240.6120734992437, 0.12800000607967377, 0.12800000607967377, 1.0240000486373901, 0.0, 0.0, 0.0, 0.0, 0.0, 1.651837138864132E9, 0.0, 2022-05-06 12:38:58.864
4.0, -287.3832623451017, -170.48146953014657, -215.59401274565607, -204.4098419281654, 0.12800000607967377, 0.12800000607967377, 1.0240000486373901, 0.0, 0.0, 0.0, 0.0, 0.0, 1.651837138877175E9, 0.0, 2022-05-06 12:38:58.877
4.0, -207.95152718620375, -38.75097339088097, -121.44577126111835, -151.5351363546215, 0.12800000607967377, 0.12800000607967377, 1.0240000486373901, 0.0, 0.0, 0.0, 0.0, 0.0, 1.651837138877175E9, 0.0, 2022-05-06 12:38:58.877
5.0, -234.91620586672798, -155.99309710180387, -176.13432831317186, -180.38098471285775, 0.12800000607967377, 0.12800000607967377, 1.0240000486373901, 0.0, 0.0, 0.0, 0.0, 0.0, 1.6518371388931704E9, 0.0, 2022-05-06 12:38:58.893
5.0, -299.6763134994544, -280.6290030251257, -253.87188879214227, -231.13890691148117, 0.12800000607967377, 0.12800000607967377, 1.0240000486373901, 0.0, 0.0, 0.0, 0.0, 0.0, 1.6518371388931704E9, 0.0, 2022-05-06 12:38:58.893
6.0, -281.6350361132063, -170.21967653324828, -208.61161952838302, -202.13972265506163, 0.12800000607967377, 0.12800000607967377, 1.0240000486373901, 0.0, 0.0, 0.0, 0.0, 0.0, 1.651837138894102E9, 0.0, 2022-05-06 12:38:58.894
6.0, -214.81798350485042, -36.89224311290309, -123.23718333989382, -158.43899167282507, 0.12800000607967377, 0.12800000607967377, 1.0240000486373901, 0.0, 0.0, 0.0, 0.0, 0.0, 1.651837138894102E9, 0.0, 2022-05-06 12:38:58.894
7.0, -235.81004195613787, -146.37407441576943, -160.87553649395704, -183.79551337240264, 0.12800000607967377, 0.12800000607967377, 1.0240000486373901, 0.0, 0.0, 0.0, 0.0, 0.0, 1.6518371389241712E9, 0.0, 2022-05-06 12:38:58.924
7.0, -298.47206571372226, -270.60981104383245, -241.62371643725783, -225.6075948770158, 0.12800000607967377, 0.12800000607967377, 1.0240000486373901, 0.0, 0.0, 0.0, 0.0, 0.0, 1.6518371389241712E9, 0.0, 2022-05-06 12:38:58.924
8.0, -283.3105112933554, -169.45673694228753, -209.64009201619774, -197.7079412075691, 0.12800000607967377, 0.12800000607967377, 1.0240000486373901, 0.0, 0.0, 0.0, 0.0, 0.0, 1.6518371389252207E9, 0.0, 2022-05-06 12:38:58.925
8.0, -203.16445524292067, -34.558545540552586, -111.88658697437495, -140.2668177881278, 0.12800000607967377, 0.12800000607967377, 1.0240000486373901, 0.0, 0.0, 0.0, 0.0, 0.0, 1.6518371389252207E9, 0.0, 2022-05-06 12:38:58.925
9.0, -237.54535553557798, -153.93615212617442, -159.20754111371934, -168.5442013530992, 0.12800000607967377, 0.12800000607967377, 1.0240000486373901, 0.0, 0.0, 0.0, 0.0, 0.0, 1.651837138926129E9, 0.0, 2022-05-06 12:38:58.926
9.0, -305.30112303281203, -277.21073446562514, -244.88116929866374, -237.496736836154, 0.12800000607967377, 0.12800000607967377, 1.0240000486373901, 0.0, 0.0, 0.0, 0.0, 0.0, 1.651837138926129E9, 0.0, 2022-05-06 12:38:58.926
10.0, -269.35320465872064, -162.90069231996313, -216.04654064029455, -204.4472409277223, 0.12800000607967377, 0.12800000607967377, 1.0240000486373901, 0.0, 0.0, 0.0, 0.0, 0.0, 1.6518371389371488E9, 0.0, 2022-05-06 12:38:58.937
10.0, -210.89108855137601, -36.16296262154356, -111.07502868399024, -141.84505556942895, 0.12800000607967377, 0.12800000607967377, 1.0240000486373901, 0.0, 0.0, 0.0, 0.0, 0.0, 1.6518371389371488E9, 0.0, 2022-05-06 12:38:58.937
11.0, -233.7194378809072, -149.00322408461943, -156.32407824788243, -153.72671772865579, 0.12800000607967377, 0.12800000607967377, 1.0240000486373901, 0.0, 0.0, 0.0, 0.0, 0.0, 1.651837138953195E9, 0.0, 2022-05-06 12:38:58.953
11.0, -303.66678675217554, -277.91009575733915, -258.9731123317033, -244.18741785688326, 0.12800000607967377, 0.12800000607967377, 1.0240000486373901, 0.0, 0.0, 0.0, 0.0, 0.0, 1.651837138953195E9, 0.0, 2022-05-06 12:38:58.953
12.0, -276.23836047714576, -163.66363191092387, -212.85266607813537, -205.17652141908184, 0.12800000607967377, 0.12800000607967377, 1.0240000486373901, 0.0, 0.0, 0.0, 0.0, 0.0, 1.6518371389541328E9, 0.0, 2022-05-06 12:38:58.954
12.0, -208.87902237521484, -42.700307744089514, -121.88707945588976, -152.58978814212605, 0.12800000607967377, 0.12800000607967377, 1.0240000486373901, 0.0, 0.0, 0.0, 0.0, 0.0, 1.6518371389541328E9, 0.0, 2022-05-06 12:38:58.954
13.0, -225.83946867426857, -150.20747187035158, -153.8557442771271, -163.1699651167728, 0.12800000607967377, 0.12800000607967377, 1.0240000486373901, 0.0, 0.0, 0.0, 0.0, 0.0, 1.6518371389672E9, 0.0, 2022-05-06 12:38:58.967
13.0, -310.88479366665706, -284.110849883873, -258.35976873897016, -226.7220850638114, 0.12800000607967377, 0.12800000607967377, 1.0240000486373901, 0.0, 0.0, 0.0, 0.0, 0.0, 1.6518371389672E9, 0.0, 2022-05-06 12:38:58.967
14.0, -284.1445089834742, -170.66846452793106, -217.09371262788773, -223.67032669996843, 0.12800000607967377, 0.12800000607967377, 1.0240000486373901, 0.0, 0.0, 0.0, 0.0, 0.0, 1.6518371389831743E9, 0.0, 2022-05-06 12:38:58.983
14.0, -209.95237366249785, -41.38012305973098, -117.07756811287254, -148.93590588541701, 0.12800000607967377, 0.12800000607967377, 1.0240000486373901, 0.0, 0.0, 0.0, 0.0, 0.0, 1.6518371389831743E9, 0.0, 2022-05-06 12:38:58.983
15.0, -240.15580570464954, -163.01288931863382, -166.6312425257638, -180.20146951498464, 0.12800000607967377, 0.12800000607967377, 1.0240000486373901, 0.0, 0.0, 0.0, 0.0, 0.0, 1.65183713898412E9, 0.0, 2022-05-06 12:38:58.984
15.0, -305.06550933560356, -282.9701803973876, -251.42225432116538, -237.82584803225473, 0.12800000607967377, 0.12800000607967377, 1.0240000486373901, 0.0, 0.0, 0.0, 0.0, 0.0, 1.65183713898412E9, 0.0, 2022-05-06 12:38:58.984
16.0, -275.7035547834821, -166.3600997789763, -203.66747178696096, -194.88057684106752, 0.12800000607967377, 0.12800000607967377, 1.0240000486373901, 0.0, 0.0, 0.0, 0.0, 0.0, 1.651837139014174E9, 0.0, 2022-05-06 12:38:59.014
16.0, -208.24323938274756, -44.5964370216243, -129.84932646155357, -164.32559420308098, 0.12800000607967377, 0.12800000607967377, 1.0240000486373901, 0.0, 0.0, 0.0, 0.0, 0.0, 1.651837139014174E9, 0.0, 2022-05-06 12:38:59.014
17.0, -228.9024467379786, -152.99369733734056, -160.31081160064787, -179.1056788279675, 0.12800000607967377, 0.12800000607967377, 1.0240000486373901, 0.0, 0.0, 0.0, 0.0, 0.0, 1.6518371390151224E9, 0.0, 2022-05-06 12:38:59.015
17.0, -304.8224158384837, -275.8568906816654, -254.51141168456525, -232.44039209606126, 0.12800000607967377, 0.12800000607967377, 1.0240000486373901, 0.0, 0.0, 0.0, 0.0, 0.0, 1.6518371390151224E9, 0.0, 2022-05-06 12:38:59.015
18.0, -277.0723581672646, -162.44442452536896, -200.74287002161145, -199.65268918452784, 0.12800000607967377, 0.12800000607967377, 1.0240000486373901, 0.0, 0.0, 0.0, 0.0, 0.0, 1.6518371390161326E9, 0.0, 2022-05-06 12:38:59.016
18.0, -200.12765647890046, -35.69921502703801, -119.03353578969836, -150.9030932621099, 0.12800000607967377, 0.12800000607967377, 1.0240000486373901, 0.0, 0.0, 0.0, 0.0, 0.0, 1.6518371390161326E9, 0.0, 2022-05-06 12:38:59.016
19.0, -232.55258909473196, -153.91371272644028, -148.2159751439467, -173.7725814911537, 0.12800000607967377, 0.12800000607967377, 1.0240000486373901, 0.0, 0.0, 0.0, 0.0, 0.0, 1.6518371390271971E9, 0.0, 2022-05-06 12:38:59.027
19.0, -296.7517117341049, -271.31665213545784, -244.76523240003735, -233.63342018192634, 0.12800000607967377, 0.12800000607967377, 1.0240000486373901, 0.0, 0.0, 0.0, 0.0, 0.0, 1.6518371390271971E9, 0.0, 2022-05-06 12:38:59.027
20.0, -281.09275061963126, -171.2107500215061, -210.59376650489867, -208.65088847791776, 0.12800000607967377, 0.12800000607967377, 1.0240000486373901, 0.0, 0.0, 0.0, 0.0, 0.0, 1.6518371390431778E9, 0.0, 2022-05-06 12:38:59.043
20.0, -216.81135018123314, -38.13762979814783, -113.59946115408093, -132.81319717643782, 0.12800000607967377, 0.12800000607967377, 1.0240000486373901, 0.0, 0.0, 0.0, 0.0, 0.0, 1.6518371390431778E9, 0.0, 2022-05-06 12:38:59.043
21.0, -238.70846442179754, -147.91491319751367, -154.60372426826507, -161.04196204198524, 0.12800000607967377, 0.12800000607967377, 1.0240000486373901, 0.0, 0.0, 0.0, 0.0, 0.0, 1.6518371390441067E9, 0.0, 2022-05-06 12:38:59.044
21.0, -301.51634427765384, -275.19866828946397, -249.24189264699817, -228.76407043961808, 0.12800000607967377, 0.12800000607967377, 1.0240000486373901, 0.0, 0.0, 0.0, 0.0, 0.0, 1.6518371390441067E9, 0.0, 2022-05-06 12:38:59.044
22.0, -276.006486679893, -155.55178890703246, -200.22676382772624, -205.36725631682202, 0.12800000607967377, 0.12800000607967377, 1.0240000486373901, 0.0, 0.0, 0.0, 0.0, 0.0, 1.651837139057185E9, 0.0, 2022-05-06 12:38:59.057
22.0, -212.16639443626627, -45.59873020974919, -127.35107329115272, -156.71489779325202, 0.12800000607967377, 0.12800000607967377, 1.0240000486373901, 0.0, 0.0, 0.0, 0.0, 0.0, 1.651837139057185E9, 0.0, 2022-05-06 12:38:59.057
23.0, -248.14797190995887, -170.23089623311535, -181.05977655481547, -205.62904931372032, 0.12800000607967377, 0.12800000607967377, 1.0240000486373901, 0.0, 0.0, 0.0, 0.0, 0.0, 1.6518371390731633E9, 0.0, 2022-05-06 12:38:59.073
23.0, -311.9357055542059, -286.02193876123056, -246.8969753747806, -235.43231206061319, 0.12800000607967377, 0.12800000607967377, 1.0240000486373901, 0.0, 0.0, 0.0, 0.0, 0.0, 1.6518371390731633E9, 0.0, 2022-05-06 12:38:59.073
24.0, -269.0427929623984, -156.22123099910095, -195.14423978794366, -192.58053836831823, 0.12800000607967377, 0.12800000607967377, 1.0240000486373901, 0.0, 0.0, 0.0, 0.0, 0.0, 1.6518371390741131E9, 0.0, 2022-05-06 12:38:59.074
24.0, -195.01521323947236, -25.302293150220066, -107.83253542240709, -137.40579432202503, 0.12800000607967377, 0.12800000607967377, 1.0240000486373901, 0.0, 0.0, 0.0, 0.0, 0.0, 1.6518371390741131E9, 0.0, 2022-05-06 12:38:59.074
25.0, -241.07208119379357, -160.21918405173346, -166.25351263023913, -178.20436293864623, 0.12800000607967377, 0.12800000607967377, 1.0240000486373901, 0.0, 0.0, 0.0, 0.0, 0.0, 1.651837139087186E9, 0.0, 2022-05-06 12:38:59.087
25.0, -297.3463558270596, -269.64491685526446, -239.1553824665025, -208.86780267534778, 0.12800000607967377, 0.12800000607967377, 1.0240000486373901, 0.0, 0.0, 0.0, 0.0, 0.0, 1.651837139087186E9, 0.0, 2022-05-06 12:38:59.087
26.0, -272.6630161195062, -160.81008824473247, -208.94073072448373, -204.92220822209492, 0.12800000607967377, 0.12800000607967377, 1.0240000486373901, 0.0, 0.0, 0.0, 0.0, 0.0, 1.65183713910316E9, 0.0, 2022-05-06 12:38:59.103
26.0, -202.23696005390957, -39.442854882683605, -116.69235841743648, -154.19046532316133, 0.12800000607967377, 0.12800000607967377, 1.0240000486373901, 0.0, 0.0, 0.0, 0.0, 0.0, 1.65183713910316E9, 0.0, 2022-05-06 12:38:59.103
27.0, -235.00596346566454, -162.04425523011014, -161.10367039125413, -178.0323275406845, 0.12800000607967377, 0.12800000607967377, 1.0240000486373901, 0.0, 0.0, 0.0, 0.0, 0.0, 1.6518371391041117E9, 0.0, 2022-05-06 12:38:59.104
27.0, -301.85293527366593, -264.53247361583635, -243.19821431860328, -220.4577526380308, 0.12800000607967377, 0.12800000607967377, 1.0240000486373901, 0.0, 0.0, 0.0, 0.0, 0.0, 1.6518371391041117E9, 0.0, 2022-05-06 12:38:59.104
28.0, -270.41907614609227, -154.96088471403345, -198.45031134877354, -188.89299701200798, 0.12800000607967377, 0.12800000607967377, 1.0240000486373901, 0.0, 0.0, 0.0, 0.0, 0.0, 1.6518371391171992E9, 0.0, 2022-05-06 12:38:59.117
28.0, -200.65124247269705, -33.68340895092115, -122.21245075203478, -152.36165424482897, 0.12800000607967377, 0.12800000607967377, 1.0240000486373901, 0.0, 0.0, 0.0, 0.0, 0.0, 1.6518371391171992E9, 0.0, 2022-05-06 12:38:59.117
29.0, -228.06470914790407, -152.76930333999917, -163.71412056032568, -179.27397432597354, 0.12800000607967377, 0.12800000607967377, 1.0240000486373901, 0.0, 0.0, 0.0, 0.0, 0.0, 1.6518371391332283E9, 0.0, 2022-05-06 12:38:59.133
29.0, -312.66124614560977, -288.14246203610674, -262.88130778539926, -248.3611462074332, 0.12800000607967377, 0.12800000607967377, 1.0240000486373901, 0.0, 0.0, 0.0, 0.0, 0.0, 1.6518371391332283E9, 0.0, 2022-05-06 12:38:59.133
30.0, -274.0729584028013, -165.05113479448482, -213.327633372508, -207.65981498965994, 0.12800000607967377, 0.12800000607967377, 1.0240000486373901, 0.0, 0.0, 0.0, 0.0, 0.0, 1.6518371391341164E9, 0.0, 2022-05-06 12:38:59.134
30.0, -206.43312780419365, -55.3411695943214, -125.48486321326345, -152.02506324881688, 0.12800000607967377, 0.12800000607967377, 1.0240000486373901, 0.0, 0.0, 0.0, 0.0, 0.0, 1.6518371391341164E9, 0.0, 2022-05-06 12:38:59.134
31.0, -242.38478607824072, -171.56978041725233, -167.18474771920592, -176.2857942613773, 0.12800000607967377, 0.12800000607967377, 1.0240000486373901, 0.0, 0.0, 0.0, 0.0, 0.0, 1.6518371391471672E9, 0.0, 2022-05-06 12:38:59.147
31.0, -300.4504727902822, -289.83663671603426, -268.21814502216876, -238.52520932396874, 0.12800000607967377, 0.12800000607967377, 1.0240000486373901, 0.0, 0.0, 0.0, 0.0, 0.0, 1.6518371391471672E9, 0.0, 2022-05-06 12:38:59.147
32.0, -266.1855093962513, -152.76556344004348, -197.45175806060433, -193.38461685879156, 0.12800000607967377, 0.12800000607967377, 1.0240000486373901, 0.0, 0.0, 0.0, 0.0, 0.0, 1.6518371391631737E9, 0.0, 2022-05-06 12:38:59.163
32.0, -207.96274688607082, -33.51885335287079, -113.66303945332766, -141.87123486911878, 0.12800000607967377, 0.12800000607967377, 1.0240000486373901, 0.0, 0.0, 0.0, 0.0, 0.0, 1.6518371391631737E9, 0.0, 2022-05-06 12:38:59.163
33.0, -232.9078795905225, -157.95280467858538, -162.5996303735301, -185.44854915281758, 0.12800000607967377, 0.12800000607967377, 1.0240000486373901, 0.0, 0.0, 0.0, 0.0, 0.0, 1.6518371391641157E9, 0.0, 2022-05-06 12:38:59.164
33.0, -301.1722734817304, -268.2910730713047, -252.58162330742925, -227.4251862554811, 0.12800000607967377, 0.12800000607967377, 1.0240000486373901, 0.0, 0.0, 0.0, 0.0, 0.0, 1.6518371391641157E9, 0.0, 2022-05-06 12:38:59.164
34.0, -267.16536318464205, -149.62404747726396, -196.18019207566977, -194.24479384860024, 0.12800000607967377, 0.12800000607967377, 1.0240000486373901, 0.0, 0.0, 0.0, 0.0, 0.0, 1.6518371391771555E9, 0.0, 2022-05-06 12:38:59.177
34.0, -202.28183885337785, -39.99262017617002, -116.87561351526529, -157.78824908053502, 0.12800000607967377, 0.12800000607967377, 1.0240000486373901, 0.0, 0.0, 0.0, 0.0, 0.0, 1.6518371391771555E9, 0.0, 2022-05-06 12:38:59.177
35.0, -233.30804888578132, -161.3149747387506, -162.53979197423905, -175.01422827644274, 0.12800000607967377, 0.12800000607967377, 1.0240000486373901, 0.0, 0.0, 0.0, 0.0, 0.0, 1.6518371391931798E9, 0.0, 2022-05-06 12:38:59.193
35.0, -303.29653665656224, -275.71851438330486, -251.65786801837385, -227.9076333497651, 0.12800000607967377, 0.12800000607967377, 1.0240000486373901, 0.0, 0.0, 0.0, 0.0, 0.0, 1.6518371391931798E9, 0.0, 2022-05-06 12:38:59.193
36.0, -264.9289030111395, -147.2342514055781, -197.70607125759125, -192.63663686765358, 0.12800000607967377, 0.12800000607967377, 1.0240000486373901, 0.0, 0.0, 0.0, 0.0, 0.0, 1.6518371391941345E9, 0.0, 2022-05-06 12:38:59.194
36.0, -195.7818927303888, -32.961608259472996, -104.58256236091256, -134.78038455313072, 0.12800000607967377, 0.12800000607967377, 1.0240000486373901, 0.0, 0.0, 0.0, 0.0, 0.0, 1.6518371391941345E9, 0.0, 2022-05-06 12:38:59.194
37.0, -225.4205998792313, -151.82310865120962, -162.43133487552404, -162.99044991889969, 0.12800000607967377, 0.12800000607967377, 1.0240000486373901, 0.0, 0.0, 0.0, 0.0, 0.0, 1.6518371392071736E9, 0.0, 2022-05-06 12:38:59.207
37.0, -297.5744897243567, -269.5888183559291, -251.69900691788644, -228.5321966423653, 0.12800000607967377, 0.12800000607967377, 1.0240000486373901, 0.0, 0.0, 0.0, 0.0, 0.0, 1.6518371392071736E9, 0.0, 2022-05-06 12:38:59.207
38.0, -264.2258018194698, -143.52427064953372, -191.21734483446926, -180.11545181600377, 0.12800000607967377, 0.12800000607967377, 1.0240000486373901, 0.0, 0.0, 0.0, 0.0, 0.0, 1.6518371392232375E9, 0.0, 2022-05-06 12:38:59.223
38.0, -190.9275025879033, -27.729488221462816, -105.40160045120865, -142.18164656544104, 0.12800000607967377, 0.12800000607967377, 1.0240000486373901, 0.0, 0.0, 0.0, 0.0, 0.0, 1.6518371392232375E9, 0.0, 2022-05-06 12:38:59.223
39.0, -232.75080379238352, -165.2792686917819, -177.27499779965729, -192.5169600690715, 0.12800000607967377, 0.12800000607967377, 1.0240000486373901, 0.0, 0.0, 0.0, 0.0, 0.0, 1.6518371392241113E9, 0.0, 2022-05-06 12:38:59.224
39.0, -305.9369060252793, -273.8859634050168, -246.5603843787685, -236.9806306422688, 0.12800000607967377, 0.12800000607967377, 1.0240000486373901, 0.0, 0.0, 0.0, 0.0, 0.0, 1.6518371392241113E9, 0.0, 2022-05-06 12:38:59.224
40.0, -277.08731776708737, -157.28710248647258, -213.11071917507797, -207.98144638584927, 0.12800000607967377, 0.12800000607967377, 1.0240000486373901, 0.0, 0.0, 0.0, 0.0, 0.0, 1.6518371392371547E9, 0.0, 2022-05-06 12:38:59.237
40.0, -205.55051141465083, -46.855336594861, -120.97828376665711, -153.02735643694177, 0.12800000607967377, 0.12800000607967377, 1.0240000486373901, 0.0, 0.0, 0.0, 0.0, 0.0, 1.6518371392371547E9, 0.0, 2022-05-06 12:38:59.237
41.0, -237.59023433504626, -168.1739512574859, -176.44847990944982, -190.0374063984491, 0.12800000607967377, 0.12800000607967377, 1.0240000486373901, 0.0, 0.0, 0.0, 0.0, 0.0, 1.6518371392531967E9, 0.0, 2022-05-06 12:38:59.253
41.0, -298.28881061589345, -271.23437433643267, -248.50139245577157, -230.21141172247007, 0.12800000607967377, 0.12800000607967377, 1.0240000486373901, 0.0, 0.0, 0.0, 0.0, 0.0, 1.6518371392531967E9, 0.0, 2022-05-06 12:38:59.253
42.0, -263.01033433387056, -144.24981124093756, -189.92333944980055, -189.24080770788714, 0.12800000607967377, 0.12800000607967377, 1.0240000486373901, 0.0, 0.0, 0.0, 0.0, 0.0, 1.6518371392541175E9, 0.0, 2022-05-06 12:38:59.254
42.0, -193.17892236122862, -35.845071125309914, -107.495944426395, -140.63332798378542, 0.12800000607967377, 0.12800000607967377, 1.0240000486373901, 0.0, 0.0, 0.0, 0.0, 0.0, 1.6518371392541175E9, 0.0, 2022-05-06 12:38:59.254
43.0, -240.5036164005287, -166.12074618181214, -169.4099881928414, -187.86452452419326, 0.12800000607967377, 0.12800000607967377, 1.0240000486373901, 0.0, 0.0, 0.0, 0.0, 0.0, 1.651837139267269E9, 0.0, 2022-05-06 12:38:59.267
43.0, -294.0141049665399, -273.437175410334, -250.57703693117946, -234.93864526646212, 0.12800000607967377, 0.12800000607967377, 1.0240000486373901, 0.0, 0.0, 0.0, 0.0, 0.0, 1.651837139267269E9, 0.0, 2022-05-06 12:38:59.267
44.0, -270.000207351055, -151.14992665918544, -196.8683336675167, -190.05984579818323, 0.12800000607967377, 0.12800000607967377, 1.0240000486373901, 0.0, 0.0, 0.0, 0.0, 0.0, 1.6518371392831788E9, 0.0, 2022-05-06 12:38:59.283
44.0, -194.89553644089028, -38.5190995936282, -106.68438613601029, -131.94554038671777, 0.12800000607967377, 0.12800000607967377, 1.0240000486373901, 0.0, 0.0, 0.0, 0.0, 0.0, 1.6518371392831788E9, 0.0, 2022-05-06 12:38:59.283
45.0, -219.04407045478, -155.25633681053296, -159.76104630716145, -164.8342205970548, 0.12800000607967377, 0.12800000607967377, 1.0240000486373901, 0.0, 0.0, 0.0, 0.0, 0.0, 1.6518371392841156E9, 0.0, 2022-05-06 12:38:59.284
45.0, -305.2076255339198, -270.13484374945983, -253.3819618979469, -235.80630205618218, 0.12800000607967377, 0.12800000607967377, 1.0240000486373901, 0.0, 0.0, 0.0, 0.0, 0.0, 1.6518371392841156E9, 0.0, 2022-05-06 12:38:59.284
46.0, -276.4851938742213, -149.78486317535862, -206.1320658577606, -194.1886953492649, 0.12800000607967377, 0.12800000607967377, 1.0240000486373901, 0.0, 0.0, 0.0, 0.0, 0.0, 1.651837139297224E9, 0.0, 2022-05-06 12:38:59.297
46.0, -199.3310577883385, -34.9250557362102, -105.6409540483728, -138.40808751014993, 0.12800000607967377, 0.12800000607967377, 1.0240000486373901, 0.0, 0.0, 0.0, 0.0, 0.0, 1.651837139297224E9, 0.0, 2022-05-06 12:38:59.297
47.0, -242.52690227655694, -168.5068023535423, -177.43955339770764, -194.6711424435489, 0.12800000607967377, 0.12800000607967377, 1.0240000486373901, 0.0, 0.0, 0.0, 0.0, 0.0, 1.651837139313152E9, 0.0, 2022-05-06 12:38:59.313
47.0, -305.2076255339198, -270.916482840199, -250.75655212905258, -236.54680224740878, 0.12800000607967377, 0.12800000607967377, 1.0240000486373901, 0.0, 0.0, 0.0, 0.0, 0.0, 1.651837139313152E9, 0.0, 2022-05-06 12:38:59.313
48.0, -279.27889914112166, -156.85701399156824, -198.12494005262852, -203.54966493835673, 0.12800000607967377, 0.12800000607967377, 1.0240000486373901, 0.0, 0.0, 0.0, 0.0, 0.0, 1.6518371393141031E9, 0.0, 2022-05-06 12:38:59.314
48.0, -203.2990916413255, -36.3312581195496, -113.56206215452403, -129.42110791662708, 0.12800000607967377, 0.12800000607967377, 1.0240000486373901, 0.0, 0.0, 0.0, 0.0, 0.0, 1.6518371393141031E9, 0.0, 2022-05-06 12:38:59.314
49.0, -237.88194653159007, -164.78560189763084, -171.87458226364106, -172.31028060847893, 0.12800000607967377, 0.12800000607967377, 1.0240000486373901, 0.0, 0.0, 0.0, 0.0, 0.0, 1.6518371393271651E9, 0.0, 2022-05-06 12:38:59.327
49.0, -310.15551317529753, -276.50389337399974, -259.28726392798126, -256.22615581424907, 0.12800000607967377, 0.12800000607967377, 1.0240000486373901, 0.0, 0.0, 0.0, 0.0, 0.0, 1.6518371393271651E9, 0.0, 2022-05-06 12:38:59.327
50.0, -272.195528625045, -148.87606748612598, -202.78859529737383, -198.61673689680174, 0.12800000607967377, 0.12800000607967377, 1.0240000486373901, 0.0, 0.0, 0.0, 0.0, 0.0, 1.6518371393431623E9, 0.0, 2022-05-06 12:38:59.343
50.0, -204.7800920237787, -44.686194620560855, -120.1330663766712, -152.2382375462912, 0.12800000607967377, 0.12800000607967377, 1.0240000486373901, 0.0, 0.0, 0.0, 0.0, 0.0, 1.6518371393431623E9, 0.0, 2022-05-06 12:38:59.343
51.0, -252.07860676338896, -184.28544026659802, -188.17306627053767, -197.80517860641703, 0.12800000607967377, 0.12800000607967377, 1.0240000486373901, 0.0, 0.0, 0.0, 0.0, 0.0, 1.651837139344094E9, 0.0, 2022-05-06 12:38:59.344
51.0, -316.5357824997045, -287.7909114402719, -268.4948976188898, -245.6945975390263, 0.12800000607967377, 0.12800000607967377, 1.0240000486373901, 0.0, 0.0, 0.0, 0.0, 0.0, 1.651837139344094E9, 0.0, 2022-05-06 12:38:59.344
52.0, -282.1586221070029, -155.88090010313317, -204.86049987282604, -204.33130402909592, 0.12800000607967377, 0.12800000607967377, 1.0240000486373901, 0.0, 0.0, 0.0, 0.0, 0.0, 1.6518371393572056E9, 0.0, 2022-05-06 12:38:59.357
52.0, -211.06312394933775, -47.18070789100602, -121.8347208565101, -161.74880313361064, 0.12800000607967377, 0.12800000607967377, 1.0240000486373901, 0.0, 0.0, 0.0, 0.0, 0.0, 1.6518371393572056E9, 0.0, 2022-05-06 12:38:59.357
53.0, -260.399884164799, -192.4795610695146, -197.1263867644593, -211.03320474969223, 0.12800000607967377, 0.12800000607967377, 1.0240000486373901, 0.0, 0.0, 0.0, 0.0, 0.0, 1.6518371393731573E9, 0.0, 2022-05-06 12:38:59.373
53.0, -318.32719457848, -289.94509381474927, -268.37522082030773, -249.2811615965329, 0.12800000607967377, 0.12800000607967377, 1.0240000486373901, 0.0, 0.0, 0.0, 0.0, 0.0, 1.6518371393731573E9, 0.0, 2022-05-06 12:38:59.373
54.0, -283.10481679579243, -157.55637528328225, -196.47190427221358, -208.17218128358945, 0.12800000607967377, 0.12800000607967377, 1.0240000486373901, 0.0, 0.0, 0.0, 0.0, 0.0, 1.6518371393741148E9, 0.0, 2022-05-06 12:38:59.374
54.0, -213.06397042563185, -44.95920731732622, -116.59138111863285, -147.03977660788223, 0.12800000607967377, 0.12800000607967377, 1.0240000486373901, 0.0, 0.0, 0.0, 0.0, 0.0, 1.6518371393741148E9, 0.0, 2022-05-06 12:38:59.374
55.0, -252.6171523570083, -177.33670614892617, -180.33797586336732, -194.87309704115614, 0.12800000607967377, 0.12800000607967377, 1.0240000486373901, 0.0, 0.0, 0.0, 0.0, 0.0, 1.651837139387172E9, 0.0, 2022-05-06 12:38:59.387
55.0, -311.10544776404276, -278.5570984496735, -260.1137818181887, -238.56634822348133, 0.12800000607967377, 0.12800000607967377, 1.0240000486373901, 0.0, 0.0, 0.0, 0.0, 0.0, 1.651837139387172E9, 0.0, 2022-05-06 12:38:59.387
56.0, -265.1084182090126, -136.28382433531806, -191.78580962773412, -189.72699470212683, 0.12800000607967377, 0.12800000607967377, 1.0240000486373901, 0.0, 0.0, 0.0, 0.0, 0.0, 1.651837139403169E9, 0.0, 2022-05-06 12:38:59.403
56.0, -207.09509009635076, -44.97790681710467, -119.88997287955135, -140.9026007805951, 0.12800000607967377, 0.12800000607967377, 1.0240000486373901, 0.0, 0.0, 0.0, 0.0, 0.0, 1.651837139403169E9, 0.0, 2022-05-06 12:38:59.403
57.0, -257.6697571971454, -181.26360110240057, -183.79738332238048, -184.79406666057184, 0.12800000607967377, 0.12800000607967377, 1.0240000486373901, 0.0, 0.0, 0.0, 0.0, 0.0, 1.6518371394181812E9, 0.0, 2022-05-06 12:38:59.418
57.0, -304.55314304167405, -276.2271407772787, -258.6066021360457, -245.15231204545125, 0.12800000607967377, 0.12800000607967377, 1.0240000486373901, 0.0, 0.0, 0.0, 0.0, 0.0, 1.6518371394181812E9, 0.0, 2022-05-06 12:38:59.418
58.0, -277.99611345632, -149.84844147460535, -206.30410125572234, -203.43746793968603, 0.12800000607967377, 0.12800000607967377, 1.0240000486373901, 0.0, 0.0, 0.0, 0.0, 0.0, 1.651837139419142E9, 0.0, 2022-05-06 12:38:59.419
58.0, -215.81279689306393, -52.96259322250262, -122.70611754618585, -158.42029217304662, 0.12800000607967377, 0.12800000607967377, 1.0240000486373901, 0.0, 0.0, 0.0, 0.0, 0.0, 1.651837139419142E9, 0.0, 2022-05-06 12:38:59.419
59.0, -245.36922624288127, -168.11785275815055, -153.48923408146948, -165.615859687794, 0.12800000607967377, 0.12800000607967377, 1.0240000486373901, 0.0, 0.0, 0.0, 0.0, 0.0, 1.651837139433172E9, 0.0, 2022-05-06 12:38:59.433
59.0, -299.3098033037968, -261.3984374529682, -247.98154636193067, -224.63522088853642, 0.12800000607967377, 0.12800000607967377, 1.0240000486373901, 0.0, 0.0, 0.0, 0.0, 0.0, 1.651837139433172E9, 0.0, 2022-05-06 12:38:59.433
60.0, -262.93927623471245, -139.27574429986998, -187.7878565751016, -187.97298162290826, 0.12800000607967377, 0.12800000607967377, 1.0240000486373901, 0.0, 0.0, 0.0, 0.0, 0.0, 1.651837139434113E9, 0.0, 2022-05-06 12:38:59.434
60.0, -203.50478613888845, -34.94001533603296, -102.88838768098503, -126.91163504635915, 0.12800000607967377, 0.12800000607967377, 1.0240000486373901, 0.0, 0.0, 0.0, 0.0, 0.0, 1.651837139434113E9, 0.0, 2022-05-06 12:38:59.434
61.0, -245.60857984004542, -175.00674847653136, -172.82825675234199, -179.46844912366942, 0.12800000607967377, 0.12800000607967377, 1.0240000486373901, 0.0, 0.0, 0.0, 0.0, 0.0, 1.6518371394471612E9, 0.0, 2022-05-06 12:38:59.447
61.0, -302.73555166320875, -272.1095109260641, -250.87996882759035, -225.96288537280634, 0.12800000607967377, 0.12800000607967377, 1.0240000486373901, 0.0, 0.0, 0.0, 0.0, 0.0, 1.6518371394471612E9, 0.0, 2022-05-06 12:38:59.447
62.0, -270.1797225489281, -142.18912636535242, -203.84324708487839, -209.47366646816954, 0.12800000607967377, 0.12800000607967377, 1.0240000486373901, 0.0, 0.0, 0.0, 0.0, 0.0, 1.6518371394631639E9, 0.0, 2022-05-06 12:38:59.463
62.0, -210.84620975190774, -44.58521732175723, -116.2772295223549, -159.54974195966497, 0.12800000607967377, 0.12800000607967377, 1.0240000486373901, 0.0, 0.0, 0.0, 0.0, 0.0, 1.6518371394631639E9, 0.0, 2022-05-06 12:38:59.463
63.0, -244.90547864837572, -175.66871076868847, -171.98677926231176, -182.6660635857843, 0.12800000607967377, 0.12800000607967377, 1.0240000486373901, 0.0, 0.0, 0.0, 0.0, 0.0, 1.6518371394641263E9, 0.0, 2022-05-06 12:38:59.464
63.0, -304.5755824414082, -261.8846244472079, -248.1909807594493, -223.03454370750114, 0.12800000607967377, 0.12800000607967377, 1.0240000486373901, 0.0, 0.0, 0.0, 0.0, 0.0, 1.6518371394641263E9, 0.0, 2022-05-06 12:38:59.464
64.0, -271.93747552810237, -141.35886857518926, -200.4661174248904, -199.23756028944626, 0.12800000607967377, 0.12800000607967377, 1.0240000486373901, 0.0, 0.0, 0.0, 0.0, 0.0, 1.6518371394771523E9, 0.0, 2022-05-06 12:38:59.477
64.0, -215.14335480099544, -49.34984986530617, -120.22282397560775, -154.29144262196496, 0.12800000607967377, 0.12800000607967377, 1.0240000486373901, 0.0, 0.0, 0.0, 0.0, 0.0, 1.6518371394771523E9, 0.0, 2022-05-06 12:38:59.477
65.0, -253.64562484482303, -183.35046527767554, -189.88968035019934, -198.81121169449762, 0.12800000607967377, 0.12800000607967377, 1.0240000486373901, 0.0, 0.0, 0.0, 0.0, 0.0, 1.651837139493184E9, 0.0, 2022-05-06 12:38:59.493
65.0, -309.52347008278593, -270.0376063506119, -257.40609425026923, -238.10634052893147, 0.12800000607967377, 0.12800000607967377, 1.0240000486373901, 0.0, 0.0, 0.0, 0.0, 0.0, 1.651837139493184E9, 0.0, 2022-05-06 12:38:59.493
66.0, -275.1089106905274, -142.5257173613645, -199.8340743323788, -200.24359337752685, 0.12800000607967377, 0.12800000607967377, 1.0240000486373901, 0.0, 0.0, 0.0, 0.0, 0.0, 1.651837139494172E9, 0.0, 2022-05-06 12:38:59.494
66.0, -204.1555287311785, -48.13438237970695, -115.77234302833676, -148.66663308860734, 0.12800000607967377, 0.12800000607967377, 1.0240000486373901, 0.0, 0.0, 0.0, 0.0, 0.0, 1.651837139494172E9, 0.0, 2022-05-06 12:38:59.494
67.0, -256.23737551411614, -177.1347515513189, -171.87458226364106, -178.6980297327973, 0.12800000607967377, 0.12800000607967377, 1.0240000486373901, 0.0, 0.0, 0.0, 0.0, 0.0, 1.6518371395071554E9, 0.0, 2022-05-06 12:38:59.507
67.0, -315.63446661038324, -272.8574909172021, -261.87901459727436, -238.2409769273363, 0.12800000607967377, 0.12800000607967377, 1.0240000486373901, 0.0, 0.0, 0.0, 0.0, 0.0, 1.6518371395071554E9, 0.0, 2022-05-06 12:38:59.507
68.0, -269.4504420575686, -137.8620621166192, -193.96991120185703, -200.03041908005252, 0.12800000607967377, 0.12800000607967377, 1.0240000486373901, 0.0, 0.0, 0.0, 0.0, 0.0, 1.6518371395401635E9, 0.0, 2022-05-06 12:38:59.540
68.0, -208.7069869772531, -47.2255866904743, -114.35492094513029, -144.70233913557604, 0.12800000607967377, 0.12800000607967377, 1.0240000486373901, 0.0, 0.0, 0.0, 0.0, 0.0, 1.6518371395401635E9, 0.0, 2022-05-06 12:38:59.540
69.0, -257.8455324950628, -181.8844244950451, -183.827302522026, -183.64591737417504, 0.12800000607967377, 0.12800000607967377, 1.0240000486373901, 0.0, 0.0, 0.0, 0.0, 0.0, 1.6518371395411062E9, 0.0, 2022-05-06 12:38:59.541
69.0, -314.11980712832883, -273.41847591055557, -255.76053826976568, -241.22915699193254, 0.12800000607967377, 0.12800000607967377, 1.0240000486373901, 0.0, 0.0, 0.0, 0.0, 0.0, 1.6518371395411062E9, 0.0, 2022-05-06 12:38:59.541
70.0, -275.9316886807792, -135.36006904626265, -195.8361212797463, -207.58875689050183, 0.12800000607967377, 0.12800000607967377, 1.0240000486373901, 0.0, 0.0, 0.0, 0.0, 0.0, 1.651837139542101E9, 0.0, 2022-05-06 12:38:59.542
70.0, -213.9391070152633, -49.136675567831844, -118.74182359315455, -154.37372042099014, 0.12800000607967377, 0.12800000607967377, 1.0240000486373901, 0.0, 0.0, 0.0, 0.0, 0.0, 1.651837139542101E9, 0.0, 2022-05-06 12:38:59.542
71.0, -252.27682146104053, -185.7402613493614, -178.66624058317393, -188.01038062246516, 0.12800000607967377, 0.12800000607967377, 1.0240000486373901, 0.0, 0.0, 0.0, 0.0, 0.0, 1.6518371395431197E9, 0.0, 2022-05-06 12:38:59.543
71.0, -306.74098451575264, -266.12193109700456, -244.3014848055318, -209.75789886480197, 0.12800000607967377, 0.12800000607967377, 1.0240000486373901, 0.0, 0.0, 0.0, 0.0, 0.0, 1.6518371395431197E9, 0.0, 2022-05-06 12:38:59.543
72.0, -261.5779526508413, -127.70075393700972, -186.11238139495254, -184.1807230678387, 0.12800000607967377, 0.12800000607967377, 1.0240000486373901, 0.0, 0.0, 0.0, 0.0, 0.0, 1.6518371395682385E9, 0.0, 2022-05-06 12:38:59.568
72.0, -213.75959181739017, -45.5949903097935, -115.1290802359581, -157.85182737978175, 0.12800000607967377, 0.12800000607967377, 1.0240000486373901, 0.0, 0.0, 0.0, 0.0, 0.0, 1.6518371395682385E9, 0.0, 2022-05-06 12:38:59.568
73.0, -247.32893381966278, -177.74061534414068, -170.01585198566318, -186.7762136370875, 0.12800000607967377, 0.12800000607967377, 1.0240000486373901, 0.0, 0.0, 0.0, 0.0, 0.0, 1.6518371395691433E9, 0.0, 2022-05-06 12:38:59.569
73.0, -311.47569785965607, -265.2654940071516, -256.9797456553206, -241.99209658289328, 0.12800000607967377, 0.12800000607967377, 1.0240000486373901, 0.0, 0.0, 0.0, 0.0, 0.0, 1.6518371395691433E9, 0.0, 2022-05-06 12:38:59.569
74.0, -270.8454247410409, -135.17307404847816, -195.80246218014508, -205.50937251513824, 0.12800000607967377, 0.12800000607967377, 1.0240000486373901, 0.0, 0.0, 0.0, 0.0, 0.0, 1.651837139583227E9, 0.0, 2022-05-06 12:38:59.583
74.0, -217.77250446984544, -54.697906801942736, -117.34684090968221, -156.6887184935622, 0.12800000607967377, 0.12800000607967377, 1.0240000486373901, 0.0, 0.0, 0.0, 0.0, 0.0, 1.651837139583227E9, 0.0, 2022-05-06 12:38:59.583
75.0, -265.79655980085954, -202.05370495608076, -206.12084615789354, -194.77211974235252, 0.12800000607967377, 0.12800000607967377, 1.0240000486373901, 0.0, 0.0, 0.0, 0.0, 0.0, 1.651837139584113E9, 0.0, 2022-05-06 12:38:59.584
75.0, -305.70129232807085, -271.69064213102683, -259.0067714313045, -233.9400919782929, 0.12800000607967377, 0.12800000607967377, 1.0240000486373901, 0.0, 0.0, 0.0, 0.0, 0.0, 1.651837139584113E9, 0.0, 2022-05-06 12:38:59.584
76.0, -263.71343552554026, -135.9771525389515, -190.89571343827993, -197.4835472102277, 0.12800000607967377, 0.12800000607967377, 1.0240000486373901, 0.0, 0.0, 0.0, 0.0, 0.0, 1.6518371395971448E9, 0.0, 2022-05-06 12:38:59.597
76.0, -203.88251603441313, -43.6689418326132, -106.50487093813717, -137.96303941542283, 0.12800000607967377, 0.12800000607967377, 1.0240000486373901, 0.0, 0.0, 0.0, 0.0, 0.0, 1.6518371395971448E9, 0.0, 2022-05-06 12:38:59.597
77.0, -259.1470176796429, -184.19194276770577, -185.73091159947217, -191.41742948209867, 0.12800000607967377, 0.12800000607967377, 1.0240000486373901, 0.0, 0.0, 0.0, 0.0, 0.0, 1.6518371396131496E9, 0.0, 2022-05-06 12:38:59.613
77.0, -317.5081564881839, -267.61041127936915, -258.5280642369762, -239.74815660947934, 0.12800000607967377, 0.12800000607967377, 1.0240000486373901, 0.0, 0.0, 0.0, 0.0, 0.0, 1.6518371396131496E9, 0.0, 2022-05-06 12:38:59.613
78.0, -272.0309730269946, -133.69955346593633, -188.62185426522046, -188.78827981324866, 0.12800000607967377, 0.12800000607967377, 1.0240000486373901, 0.0, 0.0, 0.0, 0.0, 0.0, 1.6518371396141093E9, 0.0, 2022-05-06 12:38:59.614
78.0, -212.63014203077182, -49.521885263267905, -116.99529031384736, -152.4626315436326, 0.12800000607967377, 0.12800000607967377, 1.0240000486373901, 0.0, 0.0, 0.0, 0.0, 0.0, 1.6518371396141093E9, 0.0, 2022-05-06 12:38:59.614
79.0, -255.5866329218261, -191.76524017797783, -193.62584040593356, -185.5906653511338, 0.12800000607967377, 0.12800000607967377, 1.0240000486373901, 0.0, 0.0, 0.0, 0.0, 0.0, 1.6518371396271548E9, 0.0, 2022-05-06 12:38:59.627
79.0, -311.2849629619159, -270.87534394068643, -260.1511808177456, -245.4365444420837, 0.12800000607967377, 0.12800000607967377, 1.0240000486373901, 0.0, 0.0, 0.0, 0.0, 0.0, 1.6518371396271548E9, 0.0, 2022-05-06 12:38:59.627
80.0, -260.2989068659954, -129.98583280993626, -190.63766034133732, -194.89553644089028, 0.12800000607967377, 0.12800000607967377, 1.008000047877431, 0.0, 0.0, 0.0, 0.0, 0.0, 1.651837139643178E9, 0.0, 2022-05-06 12:38:59.643
80.0, -211.75874534109607, -52.81673712423071, -120.73145036958158, -154.59437451837584, 0.12800000607967377, 0.12800000607967377, 1.008000047877431, 0.0, 0.0, 0.0, 0.0, 0.0, 1.651837139643178E9, 0.0, 2022-05-06 12:38:59.643
81.0, -250.0291415876709, -186.4770216406323, -182.25654454063624, -185.43358955299482, 0.12800000607967377, 0.12800000607967377, 1.008000047877431, 0.0, 0.0, 0.0, 0.0, 0.0, 1.6518371396441157E9, 0.0, 2022-05-06 12:38:59.644
81.0, -314.5424158233218, -265.49736780440435, -255.21077297627926, -223.98821819620207, 0.12800000607967377, 0.12800000607967377, 1.008000047877431, 0.0, 0.0, 0.0, 0.0, 0.0, 1.6518371396441157E9, 0.0, 2022-05-06 12:38:59.644
82.0, -269.1362904612906, -133.61727566691115, -187.89257377386093, -189.37918400624767, 0.12800000607967377, 0.12800000607967377, 1.008000047877431, 0.0, 0.0, 0.0, 0.0, 0.0, 1.6518371396571827E9, 0.0, 2022-05-06 12:38:59.657
82.0, -208.54617127915844, -47.0049325930886, -119.06345498934388, -146.4189532152377, 0.12800000607967377, 0.12800000607967377, 1.008000047877431, 0.0, 0.0, 0.0, 0.0, 0.0, 1.6518371396571827E9, 0.0, 2022-05-06 12:38:59.657
83.0, -253.37261214805767, -187.19882233208045, -184.79967651050538, -190.32163879508153, 0.12800000607967377, 0.12800000607967377, 1.008000047877431, 0.0, 0.0, 0.0, 0.0, 0.0, 1.6518371396731567E9, 0.0, 2022-05-06 12:38:59.673
83.0, -306.2734970212914, -263.294566730503, -239.87718315795064, -215.84271609270945, 0.12800000607967377, 0.12800000607967377, 1.008000047877431, 0.0, 0.0, 0.0, 0.0, 0.0, 1.6518371396731567E9, 0.0, 2022-05-06 12:38:59.673
84.0, -250.8818387775682, -114.8878566888161, -161.94514788128436, -161.50944953644648, 0.12800000607967377, 0.12800000607967377, 1.008000047877431, 0.0, 0.0, 0.0, 0.0, 0.0, 1.6518371396741567E9, 0.0, 2022-05-06 12:38:59.674
84.0, -195.97636752808467, -47.72673328453675, -104.2721506645903, -157.85930717969313, 0.12800000607967377, 0.12800000607967377, 1.008000047877431, 0.0, 0.0, 0.0, 0.0, 0.0, 1.6518371396741567E9, 0.0, 2022-05-06 12:38:59.674
85.0, -242.56056137615815, -186.3311655423604, -193.0199766131118, -193.9269023523666, 0.12800000607967377, 0.12800000607967377, 1.008000047877431, 0.0, 0.0, 0.0, 0.0, 0.0, 1.6518371396871529E9, 0.0, 2022-05-06 12:38:59.687
85.0, -328.8063942543231, -280.0455786320381, -268.5061173187569, -265.68062290223315, 0.12800000607967377, 0.12800000607967377, 1.008000047877431, 0.0, 0.0, 0.0, 0.0, 0.0, 1.6518371396871529E9, 0.0, 2022-05-06 12:38:59.687
86.0, -273.09684451436624, -131.36585589358583, -196.86459376756102, -206.23491310654208, 0.12800000607967377, 0.12800000607967377, 1.008000047877431, 0.0, 0.0, 0.0, 0.0, 0.0, 1.6518371397031677E9, 0.0, 2022-05-06 12:38:59.703
86.0, -215.68938019452617, -55.77499798918143, -124.88273932039738, -160.96716404287145, 0.12800000607967377, 0.12800000607967377, 1.008000047877431, 0.0, 0.0, 0.0, 0.0, 0.0, 1.6518371397031677E9, 0.0, 2022-05-06 12:38:59.703
87.0, -264.20336241973564, -201.09255066746846, -206.42003815434873, -201.23840676574036, 0.12800000607967377, 0.12800000607967377, 1.008000047877431, 0.0, 0.0, 0.0, 0.0, 0.0, 1.6518371397040937E9, 0.0, 2022-05-06 12:38:59.704
87.0, -321.1620387448929, -280.565424725879, -265.29354325681925, -245.45524394186214, 0.12800000607967377, 0.12800000607967377, 1.008000047877431, 0.0, 0.0, 0.0, 0.0, 0.0, 1.6518371397040937E9, 0.0, 2022-05-06 12:38:59.704
88.0, -265.224355107639, -131.29105789447203, -187.29044988099486, -196.88142331736162, 0.12800000607967377, 0.12800000607967377, 1.008000047877431, 0.0, 0.0, 0.0, 0.0, 0.0, 1.651837139717194E9, 0.0, 2022-05-06 12:38:59.717
88.0, -204.30886462936178, -49.24887256650254, -119.67679858207703, -146.7929432108067, 0.12800000607967377, 0.12800000607967377, 1.008000047877431, 0.0, 0.0, 0.0, 0.0, 0.0, 1.651837139717194E9, 0.0, 2022-05-06 12:38:59.717
89.0, -270.0301265507005, -204.1106499317102, -195.47709088400006, -205.04936482058838, 0.12800000607967377, 0.12800000607967377, 1.008000047877431, 0.0, 0.0, 0.0, 0.0, 0.0, 1.651837139733163E9, 0.0, 2022-05-06 12:38:59.733
89.0, -308.18084599869326, -261.2189222550951, -247.54771796707064, -226.14614047063515, 0.12800000607967377, 0.12800000607967377, 1.008000047877431, 0.0, 0.0, 0.0, 0.0, 0.0, 1.651837139733163E9, 0.0, 2022-05-06 12:38:59.733
90.0, -262.6326044383459, -123.38490938814357, -186.5312501899898, -183.49632137594745, 0.12800000607967377, 0.12800000607967377, 1.0240000486373901, 0.0, 0.0, 0.0, 0.0, 0.0, 1.651837139734114E9, 0.0, 2022-05-06 12:38:59.734
90.0, -205.7861251118593, -49.144155367743224, -112.5709886662662, -146.47879161452875, 0.12800000607967377, 0.12800000607967377, 1.0240000486373901, 0.0, 0.0, 0.0, 0.0, 0.0, 1.651837139734114E9, 0.0, 2022-05-06 12:38:59.734
91.0, -246.67071142746136, -184.5883721630089, -181.70303934719414, -185.141877356451, 0.12800000607967377, 0.12800000607967377, 1.0240000486373901, 0.0, 0.0, 0.0, 0.0, 0.0, 1.6518371397471695E9, 0.0, 2022-05-06 12:38:59.747
91.0, -299.80720999790356, -255.62777182133868, -237.24055368918926, -196.41393582290038, 0.12800000607967377, 0.12800000607967377, 1.0240000486373901, 0.0, 0.0, 0.0, 0.0, 0.0, 1.6518371397471695E9, 0.0, 2022-05-06 12:38:59.747
92.0, -255.98306231712922, -109.71183515014127, -166.71726022474468, -161.34115403844044, 0.12800000607967377, 0.12800000607967377, 1.0240000486373901, 0.0, 0.0, 0.0, 0.0, 0.0, 1.6518371397631805E9, 0.0, 2022-05-06 12:38:59.763
92.0, -207.88420898700133, -49.895875258836895, -137.6582375690341, -170.3243937320076, 0.12800000607967377, 0.12800000607967377, 1.0240000486373901, 0.0, 0.0, 0.0, 0.0, 0.0, 1.6518371397631805E9, 0.0, 2022-05-06 12:38:59.763
93.0, -256.20371641451493, -196.63832982024178, -192.28321632184088, -197.2965522124432, 0.12800000607967377, 0.12800000607967377, 1.0240000486373901, 0.0, 0.0, 0.0, 0.0, 0.0, 1.6518371397781596E9, 0.0, 2022-05-06 12:38:59.778
93.0, -311.73375095659867, -268.31725237099454, -253.72229279391468, -235.79134245635942, 0.12800000607967377, 0.12800000607967377, 1.0240000486373901, 0.0, 0.0, 0.0, 0.0, 0.0, 1.6518371397781596E9, 0.0, 2022-05-06 12:38:59.778
94.0, -258.2419618903659, -118.88206984149292, -176.87108860444278, -184.89504395937547, 0.12800000607967377, 0.12800000607967377, 1.0240000486373901, 0.0, 0.0, 0.0, 0.0, 0.0, 1.6518371397791023E9, 0.0, 2022-05-06 12:38:59.779
94.0, -202.47631365107372, -47.70055398484692, -114.48207754362375, -153.30036913370714, 0.12800000607967377, 0.12800000607967377, 1.0240000486373901, 0.0, 0.0, 0.0, 0.0, 0.0, 1.6518371397791023E9, 0.0, 2022-05-06 12:38:59.779
95.0, -249.19140399759635, -190.1421235972084, -174.5261713322252, -181.46181580005214, 0.12800000607967377, 0.12800000607967377, 1.0240000486373901, 0.0, 0.0, 0.0, 0.0, 0.0, 1.651837139793183E9, 0.0, 2022-05-06 12:38:59.793
95.0, -306.47545161889866, -263.186109631788, -255.5623235721141, -224.36594809172675, 0.12800000607967377, 0.12800000607967377, 1.0240000486373901, 0.0, 0.0, 0.0, 0.0, 0.0, 1.651837139793183E9, 0.0, 2022-05-06 12:38:59.793
96.0, -251.3268868722953, -115.1085107862018, -171.32481697015464, -180.4370832121931, 0.12800000607967377, 0.12800000607967377, 1.0240000486373901, 0.0, 0.0, 0.0, 0.0, 0.0, 1.6518371397941847E9, 0.0, 2022-05-06 12:38:59.794
96.0, -204.8885491224937, -55.26263169525191, -127.99807598348707, -164.05258150631562, 0.12800000607967377, 0.12800000607967377, 1.0240000486373901, 0.0, 0.0, 0.0, 0.0, 0.0, 1.6518371397941847E9, 0.0, 2022-05-06 12:38:59.794
97.0, -251.5064020701684, -191.04343948652968, -188.77893006335944, -201.72833365993574, 0.12800000607967377, 0.12800000607967377, 1.0240000486373901, 0.0, 0.0, 0.0, 0.0, 0.0, 1.6518371398071504E9, 0.0, 2022-05-06 12:38:59.807
97.0, -304.119314646814, -257.97268909355626, -249.55604424327612, -231.37826050864533, 0.12800000607967377, 0.12800000607967377, 1.0240000486373901, 0.0, 0.0, 0.0, 0.0, 0.0, 1.6518371398071504E9, 0.0, 2022-05-06 12:38:59.807
98.0, -256.1476179151796, -122.12082320312038, -183.30371652822942, -191.82133867731318, 0.12800000607967377, 0.12800000607967377, 1.0240000486373901, 0.0, 0.0, 0.0, 0.0, 0.0, 1.651837139823171E9, 0.0, 2022-05-06 12:38:59.823
98.0, -209.16699467180297, -64.1972526893951, -127.36977279093117, -160.574474547524, 0.12800000607967377, 0.12800000607967377, 1.0240000486373901, 0.0, 0.0, 0.0, 0.0, 0.0, 1.651837139823171E9, 0.0, 2022-05-06 12:38:59.823
99.0, -244.90173874842003, -192.0307730748318, -168.377775805071, -176.8392994548194, 0.12800000607967377, 0.12800000607967377, 1.0240000486373901, 0.0, 0.0, 0.0, 0.0, 0.0, 1.6518371398241367E9, 0.0, 2022-05-06 12:38:59.824
99.0, -309.9759979774244, -262.6288645383902, -250.39004193339497, -215.91377419186756, 0.12800000607967377, 0.12800000607967377, 1.0240000486373901, 0.0, 0.0, 0.0, 0.0, 0.0, 1.6518371398241367E9, 0.0, 2022-05-06 12:38:59.824
100.0, -260.60931856231764, -114.86915718903765, -171.98677926231176, -192.73387426650152, 0.12800000607967377, 0.12800000607967377, 1.0240000486373901, 0.0, 0.0, 0.0, 0.0, 0.0, 1.6518371398381872E9, 0.0, 2022-05-06 12:38:59.838
100.0, -204.53699852665886, -52.682100725825876, -127.68766428716481, -149.63900707708672, 0.12800000607967377, 0.12800000607967377, 1.0240000486373901, 0.0, 0.0, 0.0, 0.0, 0.0, 1.6518371398381872E9, 0.0, 2022-05-06 12:38:59.838
0.0, -248.99879914987832, -187.76167727541178, -194.15690619964153, -179.58251607231796, 0.12800000607967377, 0.12800000607967377, 1.0240000486373901, 0.0, 0.0, 0.0, 0.0, 0.0, 1.6518371398391194E9, 0.0, 2022-05-06 12:38:59.839
1.0, -302.49058821611106, -259.10400883015245, -245.28507849387825, -215.57531324587762, 0.12800000607967377, 0.12800000607967377, 1.0240000486373901, 0.0, 0.0, 0.0, 0.0, 0.0, 1.6518371398521528E9, 0.0, 2022-05-06 12:38:59.852
1.0, -254.69092688243836, -114.41475934442133, -179.3469023751095, -179.48153877351433, 0.12800000607967377, 0.12800000607967377, 1.0240000486373901, 0.0, 0.0, 0.0, 0.0, 0.0, 1.6518371398521528E9, 0.0, 2022-05-06 12:38:59.852
2.0, -205.44766416586936, -55.18596374616027, -118.78296249266714, -159.69372810795903, 0.12800000607967377, 0.12800000607967377, 1.0240000486373901, 0.0, 0.0, 0.0, 0.0, 0.0, 1.6518371398681607E9, 0.0, 2022-05-06 12:38:59.868
2.0, -254.88914158008993, -200.34270072635263, -199.32918783836067, -184.03299701958895, 0.12800000607967377, 0.12800000607967377, 1.0240000486373901, 0.0, 0.0, 0.0, 0.0, 0.0, 1.6518371398681607E9, 0.0, 2022-05-06 12:38:59.868
3.0, -309.45054203365, -267.24951093364507, -259.7622312223539, -242.2594994297251, 0.12800000607967377, 0.12800000607967377, 1.0240000486373901, 0.0, 0.0, 0.0, 0.0, 0.0, 1.6518371398691087E9, 0.0, 2022-05-06 12:38:59.869
3.0, -256.6057556597516, -116.45674472022802, -180.89148105680943, -194.50845679547638, 0.12800000607967377, 0.12800000607967377, 1.0240000486373901, 0.0, 0.0, 0.0, 0.0, 0.0, 1.6518371398691087E9, 0.0, 2022-05-06 12:38:59.869
4.0, -203.5440550884232, -54.550180753692985, -108.60295481327921, -140.94186973012984, 0.12800000607967377, 0.12800000607967377, 1.0240000486373901, 0.0, 0.0, 0.0, 0.0, 0.0, 1.6518371398821888E9, 0.0, 2022-05-06 12:38:59.882
4.0, -258.4981450373307, -199.42268533725291, -192.44029211997986, -195.69400508143008, 0.12800000607967377, 0.12800000607967377, 1.0240000486373901, 0.0, 0.0, 0.0, 0.0, 0.0, 1.6518371398821888E9, 0.0, 2022-05-06 12:38:59.882
5.0, -308.2949129473418, -253.47171949688345, -245.25515929423273, -228.2573139956221, 0.12800000607967377, 0.12800000607967377, 1.0240000486373901, 0.0, 0.0, 0.0, 0.0, 0.0, 1.6518371398981626E9, 0.0, 2022-05-06 12:38:59.898
5.0, -258.46822583768517, -118.36409369762987, -174.5598304318264, -194.54959569498897, 0.12800000607967377, 0.12800000607967377, 1.0240000486373901, 0.0, 0.0, 0.0, 0.0, 0.0, 1.6518371398981626E9, 0.0, 2022-05-06 12:38:59.898
6.0, -203.47299698926508, -56.60712572932243, -121.39715256169438, -151.21163500845432, 0.12800000607967377, 0.12800000607967377, 1.0240000486373901, 0.0, 0.0, 0.0, 0.0, 0.0, 1.6518371398991385E9, 0.0, 2022-05-06 12:38:59.899
6.0, -251.47461292054504, -199.759276333265, -191.06774883624166, -191.1986453346908, 0.12800000607967377, 0.12800000607967377, 1.0240000486373901, 0.0, 0.0, 0.0, 0.0, 0.0, 1.6518371398991385E9, 0.0, 2022-05-06 12:38:59.899
7.0, -312.6743357954547, -266.49031124264, -256.17192726489156, -229.68969567865133, 0.12800000607967377, 0.12800000607967377, 1.0240000486373901, 0.0, 0.0, 0.0, 0.0, 0.0, 1.6518371399121685E9, 0.0, 2022-05-06 12:38:59.912
7.0, -260.7233855109662, -120.85860696807504, -185.30082310456783, -189.11178115941584, 0.12800000607967377, 0.12800000607967377, 1.0240000486373901, 0.0, 0.0, 0.0, 0.0, 0.0, 1.6518371399121685E9, 0.0, 2022-05-06 12:38:59.912
8.0, -204.98017667140812, -55.8778452379629, -128.6525584757328, -154.83185816556215, 0.12800000607967377, 0.12800000607967377, 1.0240000486373901, 0.0, 0.0, 0.0, 0.0, 0.0, 1.6518371399281688E9, 0.0, 2022-05-06 12:38:59.928
8.0, -251.80746401660144, -201.40483231376857, -190.4282259438187, -193.18453221116215, 0.12800000607967377, 0.12800000607967377, 1.0240000486373901, 0.0, 0.0, 0.0, 0.0, 0.0, 1.6518371399281688E9, 0.0, 2022-05-06 12:38:59.928
9.0, -309.3981834342703, -258.3784682387486, -244.64181570149958, -219.95099619403481, 0.12800000607967377, 0.12800000607967377, 1.0240000486373901, 0.0, 0.0, 0.0, 0.0, 0.0, 1.6518371399290936E9, 0.0, 2022-05-06 12:38:59.929
9.0, -258.72627893462777, -112.6083876658231, -186.63596738874912, -191.59507472999394, 0.12800000607967377, 0.12800000607967377, 1.0240000486373901, 0.0, 0.0, 0.0, 0.0, 0.0, 1.6518371399290936E9, 0.0, 2022-05-06 12:38:59.929
10.0, -210.05148101132363, -59.66636389307678, -115.11038073617965, -157.13563653826714, 0.12800000607967377, 0.12800000607967377, 1.0240000486373901, 0.0, 0.0, 0.0, 0.0, 0.0, 1.6518371399421773E9, 0.0, 2022-05-06 12:38:59.942
10.0, -258.1503343414515, -204.30699467938393, -200.0622082296759, -202.06679460592568, 0.12800000607967377, 0.12800000607967377, 1.0240000486373901, 0.0, 0.0, 0.0, 0.0, 0.0, 1.6518371399421773E9, 0.0, 2022-05-06 12:38:59.942
11.0, -308.9942742390558, -262.1520272940397, -256.54217736050487, -234.5515656210482, 0.12800000607967377, 0.12800000607967377, 1.0240000486373901, 0.0, 0.0, 0.0, 0.0, 0.0, 1.6518371399581535E9, 0.0, 2022-05-06 12:38:59.958
11.0, -243.97985340934247, -104.1225546663627, -162.76792587153614, -174.62714863102883, 0.12800000607967377, 0.12800000607967377, 1.0240000486373901, 0.0, 0.0, 0.0, 0.0, 0.0, 1.6518371399581535E9, 0.0, 2022-05-06 12:38:59.958
12.0, -205.5411616647616, -54.976529348641634, -113.60320105403662, -150.42625601775944, 0.12800000607967377, 0.12800000607967377, 1.0240000486373901, 0.0, 0.0, 0.0, 0.0, 0.0, 1.651837139959119E9, 0.0, 2022-05-06 12:38:59.959
12.0, -263.18423968181014, -213.0284413760528, -210.23099620919675, -203.89186578430235, 0.12800000607967377, 0.12800000607967377, 1.0240000486373901, 0.0, 0.0, 0.0, 0.0, 0.0, 1.651837139959119E9, 0.0, 2022-05-06 12:38:59.959
13.0, -309.8881103284657, -259.6799534233287, -253.25106539949775, -234.45058832224458, 0.12800000607967377, 0.12800000607967377, 1.0240000486373901, 0.0, 0.0, 0.0, 0.0, 0.0, 1.6518371399721708E9, 0.0, 2022-05-06 12:38:59.972
13.0, -251.680307418108, -116.38194672111422, -171.83344336412847, -168.860222899355, 0.12800000607967377, 0.12800000607967377, 1.0240000486373901, 0.0, 0.0, 0.0, 0.0, 0.0, 1.6518371399721708E9, 0.0, 2022-05-06 12:38:59.972
14.0, -205.75807586219162, -55.92272403743118, -119.09711408894509, -147.67368965037167, 0.12800000607967377, 0.12800000607967377, 1.0240000486373901, 0.0, 0.0, 0.0, 0.0, 0.0, 1.6518371399881513E9, 0.0, 2022-05-06 12:38:59.988
14.0, -247.9703266620636, -196.15775267593563, -184.54536331351846, -189.59048835374415, 0.12800000607967377, 0.12800000607967377, 1.0240000486373901, 0.0, 0.0, 0.0, 0.0, 0.0, 1.6518371399881513E9, 0.0, 2022-05-06 12:38:59.988
15.0, -297.6287182737142, -243.23935321811587, -245.82736398745328, -212.45997658278793, 0.12800000607967377, 0.12800000607967377, 1.0240000486373901, 0.0, 0.0, 0.0, 0.0, 0.0, 1.6518371399891176E9, 0.0, 2022-05-06 12:38:59.989
15.0, -246.24623278249055, -105.26696405280381, -171.30985737033188, -181.5347438491881, 0.12800000607967377, 0.12800000607967377, 1.0240000486373901, 0.0, 0.0, 0.0, 0.0, 0.0, 1.6518371399891176E9, 0.0, 2022-05-06 12:38:59.989
16.0, -209.2100035212934, -60.84069247916341, -123.43539803754538, -166.68360112514347, 0.12800000607967377, 0.12800000607967377, 1.0240000486373901, 0.0, 0.0, 0.0, 0.0, 0.0, 1.651837140002187E9, 0.0, 2022-05-06 12:39:00.002
16.0, -239.13294306676835, -193.07233521249145, -180.09862226620317, -189.33991505671293, 0.12800000607967377, 0.12800000607967377, 1.0240000486373901, 0.0, 0.0, 0.0, 0.0, 0.0, 1.651837140002187E9, 0.0, 2022-05-06 12:39:00.002
17.0, -319.79510531108826, -259.0179911311716, -254.80312388110906, -224.87644443567842, 0.12800000607967377, 0.12800000607967377, 1.0240000486373901, 0.0, 0.0, 0.0, 0.0, 0.0, 1.651837140018185E9, 0.0, 2022-05-06 12:39:00.018
17.0, -256.0185913667083, -107.69415912404656, -161.87034988217056, -174.05120403785259, 0.12800000607967377, 0.12800000607967377, 1.0240000486373901, 0.0, 0.0, 0.0, 0.0, 0.0, 1.651837140018185E9, 0.0, 2022-05-06 12:39:00.018
18.0, -199.12349334079772, -51.85745278559625, -109.99793749675155, -137.76295476779342, 0.12800000607967377, 0.12800000607967377, 1.0240000486373901, 0.0, 0.0, 0.0, 0.0, 0.0, 1.6518371400191207E9, 0.0, 2022-05-06 12:39:00.019
18.0, -260.84306230954826, -208.19275073334575, -204.0601612823084, -217.56494002230465, 0.12800000607967377, 0.12800000607967377, 1.0240000486373901, 0.0, 0.0, 0.0, 0.0, 0.0, 1.6518371400191207E9, 0.0, 2022-05-06 12:39:00.019
19.0, -308.8072792412713, -256.94982645567507, -260.81314310990274, -237.86511698178947, 0.12800000607967377, 0.12800000607967377, 1.0240000486373901, 0.0, 0.0, 0.0, 0.0, 0.0, 1.6518371400321755E9, 0.0, 2022-05-06 12:39:00.032
19.0, -254.83678298071027, -115.97803752589971, -171.2649785708636, -182.25654454063624, 0.12800000607967377, 0.12800000607967377, 1.0240000486373901, 0.0, 0.0, 0.0, 0.0, 0.0, 1.6518371400321755E9, 0.0, 2022-05-06 12:39:00.032
20.0, -212.05606738757342, -74.69702181499451, -126.82000749744475, -152.53555959276855, 0.12800000607967377, 0.12800000607967377, 1.0240000486373901, 0.0, 0.0, 0.0, 0.0, 0.0, 1.6518371400481756E9, 0.0, 2022-05-06 12:39:00.048
20.0, -274.96118464227766, -230.2992993714288, -223.48894155211747, -215.82962644286454, 0.12800000607967377, 0.12800000607967377, 1.0240000486373901, 0.0, 0.0, 0.0, 0.0, 0.0, 1.6518371400481756E9, 0.0, 2022-05-06 12:39:00.048
21.0, -316.05520535539836, -266.52023044228554, -268.3789607202634, -251.25769872311503, 0.12800000607967377, 0.12800000607967377, 1.0240000486373901, 0.0, 0.0, 0.0, 0.0, 0.0, 1.6518371400491128E9, 0.0, 2022-05-06 12:39:00.049
21.0, -255.39776797406375, -117.10000751260668, -174.81414362881333, -187.57842217758298, 0.12800000607967377, 0.12800000607967377, 1.0240000486373901, 0.0, 0.0, 0.0, 0.0, 0.0, 1.6518371400491128E9, 0.0, 2022-05-06 12:39:00.049
22.0, -197.07028826512396, -59.385871396400034, -124.2058174284175, -149.95128872338682, 0.12800000607967377, 0.12800000607967377, 1.0240000486373901, 0.0, 0.0, 0.0, 0.0, 0.0, 1.6518371400622127E9, 0.0, 2022-05-06 12:39:00.062
22.0, -248.88660215120763, -201.5432086121291, -193.27054991014302, -198.30819515045732, 0.12800000607967377, 0.12800000607967377, 1.0240000486373901, 0.0, 0.0, 0.0, 0.0, 0.0, 1.6518371400622127E9, 0.0, 2022-05-06 12:39:00.062
23.0, -298.6272715618834, -250.40500153321773, -243.04487842042, -229.12123088538647, 0.12800000607967377, 0.12800000607967377, 1.0240000486373901, 0.0, 0.0, 0.0, 0.0, 0.0, 1.6518371400781505E9, 0.0, 2022-05-06 12:39:00.078
23.0, -257.9670792436227, -108.21774511784315, -176.21660611219704, -181.2392917526886, 0.12800000607967377, 0.12800000607967377, 1.0240000486373901, 0.0, 0.0, 0.0, 0.0, 0.0, 1.6518371400781505E9, 0.0, 2022-05-06 12:39:00.078
24.0, -198.79064224474132, -50.81402069795877, -113.83507485128939, -138.24540186207741, 0.12800000607967377, 0.12800000607967377, 1.0240000486373901, 0.0, 0.0, 0.0, 0.0, 0.0, 1.651837140079116E9, 0.0, 2022-05-06 12:39:00.079
24.0, -259.62385492399335, -199.80789503268898, -202.33232750277966, -197.67989195790142, 0.12800000607967377, 0.12800000607967377, 1.0240000486373901, 0.0, 0.0, 0.0, 0.0, 0.0, 1.651837140079116E9, 0.0, 2022-05-06 12:39:00.079
25.0, -308.7474408419803, -254.58620968367904, -251.43347402103245, -228.23113469593227, 0.12800000607967377, 0.12800000607967377, 1.0240000486373901, 0.0, 0.0, 0.0, 0.0, 0.0, 1.651837140092163E9, 0.0, 2022-05-06 12:39:00.092
25.0, -232.80503234174103, -97.68992674257606, -159.7460867073387, -165.56911093834788, 0.12800000607967377, 0.12800000607967377, 1.0240000486373901, 0.0, 0.0, 0.0, 0.0, 0.0, 1.651837140092163E9, 0.0, 2022-05-06 12:39:00.092
26.0, -194.99090388976038, -54.565140353515744, -117.85546730365604, -147.31465925462544, 0.12800000607967377, 0.12800000607967377, 1.0240000486373901, 0.0, 0.0, 0.0, 0.0, 0.0, 1.6518371401242275E9, 0.0, 2022-05-06 12:39:00.124
26.0, -265.4543589549139, -204.34439367894083, -199.2394302394241, -191.80824902746826, 0.12800000607967377, 0.12800000607967377, 1.0240000486373901, 0.0, 0.0, 0.0, 0.0, 0.0, 1.6518371401242275E9, 0.0, 2022-05-06 12:39:00.124
27.0, -312.51352009736, -252.12909541279078, -248.16854135971516, -230.17214277293533, 0.12800000607967377, 0.12800000607967377, 1.0240000486373901, 0.0, 0.0, 0.0, 0.0, 0.0, 1.6518371401251495E9, 0.0, 2022-05-06 12:39:00.125
27.0, -248.99505924992263, -103.55034997314215, -161.88156958203763, -177.25629829987884, 0.12800000607967377, 0.12800000607967377, 1.0240000486373901, 0.0, 0.0, 0.0, 0.0, 0.0, 1.6518371401251495E9, 0.0, 2022-05-06 12:39:00.125
28.0, -201.86484000831842, -62.7330818567425, -111.65845307707787, -142.29571351408958, 0.12800000607967377, 0.12800000607967377, 1.0240000486373901, 0.0, 0.0, 0.0, 0.0, 0.0, 1.6518371401261592E9, 0.0, 2022-05-06 12:39:00.126
28.0, -249.81035744026303, -201.07198121771216, -180.69326635915786, -178.0117580909282, 0.12800000607967377, 0.12800000607967377, 1.0240000486373901, 0.0, 0.0, 0.0, 0.0, 0.0, 1.6518371401261592E9, 0.0, 2022-05-06 12:39:00.126
29.0, -291.18861055001616, -245.9732200857252, -237.24803348910064, -208.78365492634475, 0.12800000607967377, 0.12800000607967377, 1.0240000486373901, 0.0, 0.0, 0.0, 0.0, 0.0, 1.6518371401271043E9, 0.0, 2022-05-06 12:39:00.127
29.0, -247.10266987234354, -102.4582991860807, -175.59204281959683, -181.8675949452445, 0.12800000607967377, 0.12800000607967377, 1.0240000486373901, 0.0, 0.0, 0.0, 0.0, 0.0, 1.6518371401271043E9, 0.0, 2022-05-06 12:39:00.127
30.0, -207.00346254743636, -65.77736042067409, -123.20352424029261, -159.76852610707283, 0.12800000607967377, 0.12800000607967377, 1.0240000486373901, 0.0, 0.0, 0.0, 0.0, 0.0, 1.6518371401532211E9, 0.0, 2022-05-06 12:39:00.153
30.0, -263.3113962803036, -214.5131816584617, -196.84589426778257, -185.56261610146612, 0.12800000607967377, 0.12800000607967377, 1.0240000486373901, 0.0, 0.0, 0.0, 0.0, 0.0, 1.6518371401532211E9, 0.0, 2022-05-06 12:39:00.153
31.0, -302.68132311385125, -242.17348173074424, -236.5898110968992, -217.40786422416568, 0.12800000607967377, 0.12800000607967377, 1.0240000486373901, 0.0, 0.0, 0.0, 0.0, 0.0, 1.6518371401541128E9, 0.0, 2022-05-06 12:39:00.154
31.0, -248.99879914987832, -101.96463239192963, -176.21660611219704, -189.17161955870688, 0.12800000607967377, 0.12800000607967377, 1.0240000486373901, 0.0, 0.0, 0.0, 0.0, 0.0, 1.6518371401541128E9, 0.0, 2022-05-06 12:39:00.154
32.0, -212.63201198074967, -69.85385137237608, -138.11450536362827, -163.0745976679027, 0.12800000607967377, 0.12800000607967377, 1.0240000486373901, 0.0, 0.0, 0.0, 0.0, 0.0, 1.6518371401682053E9, 0.0, 2022-05-06 12:39:00.168
32.0, -277.2761827148497, -228.885617188178, -220.11555179208517, -224.6969292378053, 0.12800000607967377, 0.12800000607967377, 1.0240000486373901, 0.0, 0.0, 0.0, 0.0, 0.0, 1.6518371401682053E9, 0.0, 2022-05-06 12:39:00.168
33.0, -305.000061086379, -259.14888762962073, -261.47136550210416, -242.39787572808564, 0.12800000607967377, 0.12800000607967377, 1.0240000486373901, 0.0, 0.0, 0.0, 0.0, 0.0, 1.6518371401691196E9, 0.0, 2022-05-06 12:39:00.169
33.0, -241.7471331357956, -93.76303178910166, -166.6761213252321, -171.11164267268032, 0.12800000607967377, 0.12800000607967377, 1.0240000486373901, 0.0, 0.0, 0.0, 0.0, 0.0, 1.6518371401691196E9, 0.0, 2022-05-06 12:39:00.169
34.0, -206.71923015080392, -67.1424239045009, -116.56894171889871, -149.3304653307423, 0.12800000607967377, 0.12800000607967377, 1.0240000486373901, 0.0, 0.0, 0.0, 0.0, 0.0, 1.6518371401821983E9, 0.0, 2022-05-06 12:39:00.182
34.0, -255.28931087534875, -207.77762183826417, -194.5757749946788, -185.82066919840872, 0.12800000607967377, 0.12800000607967377, 1.0240000486373901, 0.0, 0.0, 0.0, 0.0, 0.0, 1.6518371401821983E9, 0.0, 2022-05-06 12:39:00.182
35.0, -304.2633007951081, -246.30981108173728, -244.73905310034752, -226.60427821520716, 0.12800000607967377, 0.12800000607967377, 1.0240000486373901, 0.0, 0.0, 0.0, 0.0, 0.0, 1.6518371401981597E9, 0.0, 2022-05-06 12:39:00.198
35.0, -239.79116545896977, -96.10046926140785, -167.87662921100855, -175.1170755252242, 0.12800000607967377, 0.12800000607967377, 1.0240000486373901, 0.0, 0.0, 0.0, 0.0, 0.0, 1.6518371401981597E9, 0.0, 2022-05-06 12:39:00.198
36.0, -210.20481690950692, -67.23592140339315, -120.0545284776017, -147.59515175130218, 0.12800000607967377, 0.12800000607967377, 1.0240000486373901, 0.0, 0.0, 0.0, 0.0, 0.0, 1.6518371401991556E9, 0.0, 2022-05-06 12:39:00.199
36.0, -257.92220044415444, -216.23727553803474, -201.9134587077424, -198.69714474584907, 0.12800000607967377, 0.12800000607967377, 1.0240000486373901, 0.0, 0.0, 0.0, 0.0, 0.0, 1.6518371401991556E9, 0.0, 2022-05-06 12:39:00.199
37.0, -298.5786528624594, -240.16141555458307, -236.6683489959687, -216.18491693865508, 0.12800000607967377, 0.12800000607967377, 1.0240000486373901, 0.0, 0.0, 0.0, 0.0, 0.0, 1.6518371402122164E9, 0.0, 2022-05-06 12:39:00.212
37.0, -244.05091150850058, -103.13896097801626, -165.4868331393227, -180.94383965618908, 0.12800000607967377, 0.12800000607967377, 1.0240000486373901, 0.0, 0.0, 0.0, 0.0, 0.0, 1.6518371402122164E9, 0.0, 2022-05-06 12:39:00.212
38.0, -205.62717936374247, -73.16740273311734, -125.12209291756153, -154.16615597344935, 0.12800000607967377, 0.12800000607967377, 1.0240000486373901, 0.0, 0.0, 0.0, 0.0, 0.0, 1.651837140228212E9, 0.0, 2022-05-06 12:39:00.228
38.0, -267.62724082916975, -216.57386653404683, -205.36538636684418, -205.51124246511608, 0.12800000607967377, 0.12800000607967377, 1.0240000486373901, 0.0, 0.0, 0.0, 0.0, 0.0, 1.651837140228212E9, 0.0, 2022-05-06 12:39:00.228
39.0, -297.60627887398005, -248.53879145532846, -252.35348941013217, -234.14017662592232, 0.12800000607967377, 0.12800000607967377, 1.0240000486373901, 0.0, 0.0, 0.0, 0.0, 0.0, 1.6518371402291093E9, 0.0, 2022-05-06 12:39:00.229
39.0, -242.8204844230786, -95.96209296304733, -156.93742184061557, -174.77300472930074, 0.12800000607967377, 0.12800000607967377, 1.0240000486373901, 0.0, 0.0, 0.0, 0.0, 0.0, 1.6518371402291093E9, 0.0, 2022-05-06 12:39:00.229
40.0, -226.0694725215435, -74.76434001419693, -123.81686783302575, -158.21646762546152, 0.12800000607967377, 0.12800000607967377, 1.0240000486373901, 0.0, 0.0, 0.0, 0.0, 0.0, 1.6518371402421885E9, 0.0, 2022-05-06 12:39:00.242
40.0, -275.6792454337701, -223.72081534937024, -212.5833932813257, -206.6519119516015, 0.12800000607967377, 0.12800000607967377, 1.0240000486373901, 0.0, 0.0, 0.0, 0.0, 0.0, 1.6518371402421885E9, 0.0, 2022-05-06 12:39:00.242
41.0, -307.2851399593055, -251.24647902324796, -249.88889533933252, -239.71262755990028, 0.12800000607967377, 0.12800000607967377, 1.0240000486373901, 0.0, 0.0, 0.0, 0.0, 0.0, 1.6518371402582095E9, 0.0, 2022-05-06 12:39:00.258
41.0, -250.87248902767897, -103.43067317456007, -163.24663306586444, -176.8972679041326, 0.12800000607967377, 0.12800000607967377, 1.0240000486373901, 0.0, 0.0, 0.0, 0.0, 0.0, 1.6518371402582095E9, 0.0, 2022-05-06 12:39:00.258
42.0, -208.74625592678785, -67.8829240957275, -122.86693324428052, -157.50588663388044, 0.12800000607967377, 0.12800000607967377, 1.0240000486373901, 0.0, 0.0, 0.0, 0.0, 0.0, 1.651837140259105E9, 0.0, 2022-05-06 12:39:00.259
42.0, -269.2353978101164, -224.1434240443632, -208.7275564270094, -200.86628672014922, 0.12800000607967377, 0.12800000607967377, 1.0240000486373901, 0.0, 0.0, 0.0, 0.0, 0.0, 1.651837140259105E9, 0.0, 2022-05-06 12:39:00.259
43.0, -304.91030348744243, -248.23959945887327, -252.8284567045048, -233.5156133333221, 0.12800000607967377, 0.12800000607967377, 1.0240000486373901, 0.0, 0.0, 0.0, 0.0, 0.0, 1.651837140272158E9, 0.0, 2022-05-06 12:39:00.272
43.0, -256.77031125780195, -112.54480936657637, -182.10320864245296, -189.72886465210468, 0.12800000607967377, 0.12800000607967377, 1.0240000486373901, 0.0, 0.0, 0.0, 0.0, 0.0, 1.651837140272158E9, 0.0, 2022-05-06 12:39:00.272
44.0, -228.41064989380538, -87.05365126859397, -138.38751806039363, -169.559584191069, 0.12800000607967377, 0.12800000607967377, 1.0240000486373901, 0.0, 0.0, 0.0, 0.0, 0.0, 1.6518371402881577E9, 0.0, 2022-05-06 12:39:00.288
44.0, -276.26640972681344, -227.24006120767444, -212.03736788779497, -210.40677150711417, 0.12800000607967377, 0.12800000607967377, 1.0240000486373901, 0.0, 0.0, 0.0, 0.0, 0.0, 1.6518371402881577E9, 0.0, 2022-05-06 12:39:00.288
45.0, -298.8105266597122, -242.7868253234774, -239.94076145719737, -211.45394349470735, 0.12800000607967377, 0.12800000607967377, 1.0240000486373901, 0.0, 0.0, 0.0, 0.0, 0.0, 1.6518371402891152E9, 0.0, 2022-05-06 12:39:00.289
45.0, -244.0396918086335, -94.97475937474519, -162.0386453801766, -161.4851401867345, 0.12800000607967377, 0.12800000607967377, 1.0240000486373901, 0.0, 0.0, 0.0, 0.0, 0.0, 1.6518371402891152E9, 0.0, 2022-05-06 12:39:00.289
46.0, -208.38348563108593, -64.62921113427728, -123.00156964268535, -151.9259558999911, 0.12800000607967377, 0.12800000607967377, 1.0240000486373901, 0.0, 0.0, 0.0, 0.0, 0.0, 1.6518371403021853E9, 0.0, 2022-05-06 12:39:00.302
46.0, -275.1967983394861, -222.553966563195, -220.22774879075587, -223.55625975131989, 0.12800000607967377, 0.12800000607967377, 1.0240000486373901, 0.0, 0.0, 0.0, 0.0, 0.0, 1.6518371403021853E9, 0.0, 2022-05-06 12:39:00.302
47.0, -303.90427039936185, -251.4895725203678, -255.36784877441823, -244.3014848055318, 0.12800000607967377, 0.12800000607967377, 1.0240000486373901, 0.0, 0.0, 0.0, 0.0, 0.0, 1.651837140318174E9, 0.0, 2022-05-06 12:39:00.318
47.0, -257.10690225381404, -107.77643692307174, -166.0066792331636, -182.8287492338568, 0.12800000607967377, 0.12800000607967377, 1.0240000486373901, 0.0, 0.0, 0.0, 0.0, 0.0, 1.651837140318174E9, 0.0, 2022-05-06 12:39:00.318
48.0, -217.54250062257051, -86.24957277812064, -132.14936493430287, -160.76333949528635, 0.12800000607967377, 0.12800000607967377, 1.0240000486373901, 0.0, 0.0, 0.0, 0.0, 0.0, 1.6518371403191552E9, 0.0, 2022-05-06 12:39:00.319
48.0, -283.63401263952255, -229.64855677913874, -221.7386683728546, -219.9547360939905, 0.12800000607967377, 0.12800000607967377, 1.0240000486373901, 0.0, 0.0, 0.0, 0.0, 0.0, 1.6518371403191552E9, 0.0, 2022-05-06 12:39:00.319
49.0, -306.65309686679393, -238.81131167057902, -245.87224278692156, -227.38591730594635, 0.12800000607967377, 0.12800000607967377, 1.0240000486373901, 0.0, 0.0, 0.0, 0.0, 0.0, 1.6518371403321753E9, 0.0, 2022-05-06 12:39:00.332
49.0, -244.3725429046899, -96.6390148550272, -168.99859919771552, -179.73959187045693, 0.12800000607967377, 0.12800000607967377, 1.0240000486373901, 0.0, 0.0, 0.0, 0.0, 0.0, 1.6518371403321753E9, 0.0, 2022-05-06 12:39:00.332
50.0, -212.1420850865543, -75.23556740861386, -131.60707944072783, -158.20150802563876, 0.12800000607967377, 0.12800000607967377, 1.0240000486373901, 0.0, 0.0, 0.0, 0.0, 0.0, 1.6518371403481743E9, 0.0, 2022-05-06 12:39:00.348
50.0, -279.5014231884852, -223.56747945118695, -217.18721012677997, -212.93120397720486, 0.12800000607967377, 0.12800000607967377, 1.0240000486373901, 0.0, 0.0, 0.0, 0.0, 0.0, 1.6518371403481743E9, 0.0, 2022-05-06 12:39:00.348
51.0, -311.1185374138877, -250.0422312375158, -252.73495920561254, -231.22679456043988, 0.12800000607967377, 0.12800000607967377, 1.0240000486373901, 0.0, 0.0, 0.0, 0.0, 0.0, 1.6518371403491251E9, 0.0, 2022-05-06 12:39:00.349
51.0, -244.39498230442405, -87.90634845849127, -152.180269096978, -168.80786429997534, 0.12800000607967377, 0.12800000607967377, 1.0240000486373901, 0.0, 0.0, 0.0, 0.0, 0.0, 1.6518371403491251E9, 0.0, 2022-05-06 12:39:00.349
52.0, -206.90622514858842, -71.57420535199344, -122.42562504950911, -149.67453612666577, 0.12800000607967377, 0.12800000607967377, 1.0240000486373901, 0.0, 0.0, 0.0, 0.0, 0.0, 1.6518371403621576E9, 0.0, 2022-05-06 12:39:00.362
52.0, -284.2510961322114, -228.68366259057075, -208.9108115248382, -205.18961106892675, 0.12800000607967377, 0.12800000607967377, 1.0240000486373901, 0.0, 0.0, 0.0, 0.0, 0.0, 1.6518371403621576E9, 0.0, 2022-05-06 12:39:00.362
53.0, -310.5126736210659, -245.22150019463152, -252.64894150663167, -232.9583682399243, 0.12800000607967377, 0.12800000607967377, 1.0240000486373901, 0.0, 0.0, 0.0, 0.0, 0.0, 1.651837140378184E9, 0.0, 2022-05-06 12:39:00.378
53.0, -238.702854571864, -94.301577382721, -158.53809902165085, -177.18150030076504, 0.12800000607967377, 0.12800000607967377, 1.0240000486373901, 0.0, 0.0, 0.0, 0.0, 0.0, 1.651837140378184E9, 0.0, 2022-05-06 12:39:00.378
54.0, -213.12193887494504, -68.9562753830105, -116.85691401548684, -149.3304653307423, 0.12800000607967377, 0.12800000607967377, 1.0240000486373901, 0.0, 0.0, 0.0, 0.0, 0.0, 1.6518371403791149E9, 0.0, 2022-05-06 12:39:00.379
54.0, -273.59612115845084, -223.74699464906007, -212.97608277667314, -210.12627901043743, 0.12800000607967377, 0.12800000607967377, 1.0240000486373901, 0.0, 0.0, 0.0, 0.0, 0.0, 1.6518371403791149E9, 0.0, 2022-05-06 12:39:00.379
55.0, -307.45343545731157, -238.1493493784219, -239.16660216636956, -216.07645983994007, 0.12800000607967377, 0.12800000607967377, 1.0240000486373901, 0.0, 0.0, 0.0, 0.0, 0.0, 1.6518371403921568E9, 0.0, 2022-05-06 12:39:00.392
55.0, -251.45965332072228, -92.81683710031211, -163.39996896404773, -171.16774117201567, 0.12800000607967377, 0.12800000607967377, 1.0240000486373901, 0.0, 0.0, 0.0, 0.0, 0.0, 1.6518371403921568E9, 0.0, 2022-05-06 12:39:00.392
56.0, -202.53054220043123, -65.14531732816249, -110.61502098944038, -139.55810674652457, 0.12800000607967377, 0.12800000607967377, 1.0240000486373901, 0.0, 0.0, 0.0, 0.0, 0.0, 1.6518371404081929E9, 0.0, 2022-05-06 12:39:00.408
56.0, -255.28183107543737, -218.39145791251212, -192.86290081497282, -183.1989993294701, 0.12800000607967377, 0.12800000607967377, 1.0240000486373901, 0.0, 0.0, 0.0, 0.0, 0.0, 1.6518371404081929E9, 0.0, 2022-05-06 12:39:00.408
57.0, -321.7174138883129, -246.21257368288934, -257.3537356508896, -243.83399731107056, 0.12800000607967377, 0.12800000607967377, 1.0240000486373901, 0.0, 0.0, 0.0, 0.0, 0.0, 1.6518371404091425E9, 0.0, 2022-05-06 12:39:00.409
57.0, -258.43082683812827, -95.34874937031418, -165.13154264353216, -186.54620978981256, 0.12800000607967377, 0.12800000607967377, 1.0240000486373901, 0.0, 0.0, 0.0, 0.0, 0.0, 1.6518371404091425E9, 0.0, 2022-05-06 12:39:00.409
58.0, -213.56324706971645, -74.37539041880518, -125.13705251738429, -144.992181382142, 0.12800000607967377, 0.12800000607967377, 1.0240000486373901, 0.0, 0.0, 0.0, 0.0, 0.0, 1.6518371404221466E9, 0.0, 2022-05-06 12:39:00.422
58.0, -279.7183373859152, -238.09325087908655, -225.46734862867743, -225.15693693235517, 0.12800000607967377, 0.12800000607967377, 1.0240000486373901, 0.0, 0.0, 0.0, 0.0, 0.0, 1.6518371404221466E9, 0.0, 2022-05-06 12:39:00.422
59.0, -318.79655202291906, -257.6005690479651, -264.32490916829556, -246.25745248235762, 0.12800000607967377, 0.12800000607967377, 1.0240000486373901, 0.0, 0.0, 0.0, 0.0, 0.0, 1.65183714043818E9, 0.0, 2022-05-06 12:39:00.438
59.0, -246.48184647969902, -94.39133498165756, -168.6320890020579, -178.14639448933303, 0.12800000607967377, 0.12800000607967377, 1.0240000486373901, 0.0, 0.0, 0.0, 0.0, 0.0, 1.65183714043818E9, 0.0, 2022-05-06 12:39:00.438
60.0, -215.02180805243552, -79.95906105265021, -116.31088862195611, -161.3729431880638, 0.12800000607967377, 0.12800000607967377, 1.0240000486373901, 0.0, 0.0, 0.0, 0.0, 0.0, 1.6518371404391165E9, 0.0, 2022-05-06 12:39:00.439
60.0, -273.4540049601346, -227.65145020280033, -215.8819850422442, -207.6504652397707, 0.12800000607967377, 0.12800000607967377, 1.0240000486373901, 0.0, 0.0, 0.0, 0.0, 0.0, 1.6518371404391165E9, 0.0, 2022-05-06 12:39:00.439
61.0, -303.2460480071604, -238.62431667279452, -234.38327012304217, -220.45214278809726, 0.12800000607967377, 0.12800000607967377, 1.0240000486373901, 0.0, 0.0, 0.0, 0.0, 0.0, 1.6518371404521556E9, 0.0, 2022-05-06 12:39:00.452
61.0, -249.5298649435863, -96.79235075321048, -167.3754826169461, -177.70882619451731, 0.12800000607967377, 0.12800000607967377, 1.0240000486373901, 0.0, 0.0, 0.0, 0.0, 0.0, 1.6518371404521556E9, 0.0, 2022-05-06 12:39:00.452
62.0, -216.4691493352875, -84.34970360063016, -136.0613002879545, -159.4132356112823, 0.12800000607967377, 0.12800000607967377, 1.0240000486373901, 0.0, 0.0, 0.0, 0.0, 0.0, 1.6518371404681487E9, 0.0, 2022-05-06 12:39:00.468
62.0, -272.51155017130077, -235.98020740412176, -216.71224283240736, -208.6527584278956, 0.12800000607967377, 0.12800000607967377, 1.0240000486373901, 0.0, 0.0, 0.0, 0.0, 0.0, 1.6518371404681487E9, 0.0, 2022-05-06 12:39:00.468
63.0, -309.1476101372391, -242.02014583256096, -248.35179645754397, -224.5548130394891, 0.12800000607967377, 0.12800000607967377, 1.0240000486373901, 0.0, 0.0, 0.0, 0.0, 0.0, 1.6518371404691105E9, 0.0, 2022-05-06 12:39:00.469
63.0, -245.4458941919729, -92.1174758085981, -156.95238144043833, -172.29345105867833, 0.12800000607967377, 0.12800000607967377, 1.0240000486373901, 0.0, 0.0, 0.0, 0.0, 0.0, 1.6518371404691105E9, 0.0, 2022-05-06 12:39:00.469
