%OpenBCI Raw EEG Data
%Number of channels = 4
%Sample Rate = 200 Hz
%Board = OpenBCI_GUI$BoardGanglionBLE
Sample Index, EXG Channel 0, EXG Channel 1, EXG Channel 2, EXG Channel 3, Accel Channel 0, Accel Channel 1, Accel Channel 2, Other, Other, Other, Other, Other, Timestamp, Other, Timestamp (Formatted)
0.0, -261.01509770751, -111.83422837499529, -174.12039218703285, -198.0576218534261, 0.0, 0.0, 0.0, 0.0, 0.0, 0.0, 0.0, 0.0, 1.6518370863942466E9, 0.0, 2022-05-06 12:38:06.394
1.0, -206.00490925926715, -79.70100795570761, -123.89727568207309, -158.0032933279872, 0.0, 0.12800000607967377, 0.0, 0.0, 0.0, 0.0, 0.0, 0.0, 1.6518370863942645E9, 0.0, 2022-05-06 12:38:06.394
1.0, -284.3184143314138, -229.22594808414578, -208.66584807774052, -199.9088723314926, 0.0, 0.12800000607967377, 0.0, 0.0, 0.0, 0.0, 0.0, 0.0, 1.6518370863942645E9, 0.0, 2022-05-06 12:38:06.394
2.0, -316.83684444613755, -236.23452060110867, -247.22421662090346, -224.58099233917892, 0.12800000607967377, 0.12800000607967377, 0.0, 0.0, 0.0, 0.0, 0.0, 0.0, 1.6518370864072523E9, 0.0, 2022-05-06 12:38:06.407
2.0, -246.3023312818259, -92.98139269836247, -164.74820289807394, -198.66348564624786, 0.12800000607967377, 0.12800000607967377, 0.0, 0.0, 0.0, 0.0, 0.0, 0.0, 1.6518370864072523E9, 0.0, 2022-05-06 12:38:06.407
3.0, -209.50171571783721, -80.890296141617, -130.35608290554956, -160.8904960937798, 0.12800000607967377, 0.12800000607967377, 0.0, 0.0, 0.0, 0.0, 0.0, 0.0, 1.651837086408228E9, 0.0, 2022-05-06 12:38:06.408
3.0, -292.8117271307856, -235.38930321112275, -226.1984990700148, -228.5490261921659, 0.12800000607967377, 0.12800000607967377, 0.0, 0.0, 0.0, 0.0, 0.0, 0.0, 1.651837086408228E9, 0.0, 2022-05-06 12:38:06.408
4.0, -309.2598071359098, -245.9694801857695, -255.5454940223135, -240.57280454970896, 0.12800000607967377, 0.12800000607967377, 0.0, 0.0, 0.0, 0.0, 0.0, 0.0, 1.6518370864233751E9, 0.0, 2022-05-06 12:38:06.423
4.0, -252.43202730920166, -102.0132510913536, -165.06609439430758, -182.1219081422314, 0.12800000607967377, 0.12800000607967377, 0.0, 0.0, 0.0, 0.0, 0.0, 0.0, 1.6518370864233751E9, 0.0, 2022-05-06 12:38:06.423
5.0, -196.50930327177048, -73.4404154298827, -118.93442844087258, -146.6265176627785, 0.12800000607967377, 0.12800000607967377, 0.0, 0.0, 0.0, 0.0, 0.0, 0.0, 1.6518370864372704E9, 0.0, 2022-05-06 12:38:06.437
5.0, -271.1764058871195, -223.46650215238333, -212.3459096341394, -205.8066945616156, 0.12800000607967377, 0.12800000607967377, 0.0, 0.0, 0.0, 0.0, 0.0, 0.0, 1.6518370864372704E9, 0.0, 2022-05-06 12:38:06.437
6.0, -310.1199841257185, -235.03027281537652, -243.19634436862543, -232.98828743956983, 0.12800000607967377, 0.12800000607967377, 0.0, 0.0, 0.0, 0.0, 0.0, 0.0, 1.6518370864382327E9, 0.0, 2022-05-06 12:38:06.438
6.0, -252.02063831407577, -98.84555582888424, -165.85147338500246, -184.6762598119676, 0.12800000607967377, 0.12800000607967377, 0.0, 0.0, 0.0, 0.0, 0.0, 0.0, 1.6518370864382327E9, 0.0, 2022-05-06 12:38:06.438
7.0, -206.74540945049375, -76.56697179283947, -122.61075009731576, -153.47427448164672, 0.12800000607967377, 0.12800000607967377, 0.0, 0.0, 0.0, 0.0, 0.0, 0.0, 1.6518370864512815E9, 0.0, 2022-05-06 12:38:06.451
7.0, -284.44557092990726, -232.94340864010155, -217.55559027241543, -208.88463222514838, 0.12800000607967377, 0.12800000607967377, 0.0, 0.0, 0.0, 0.0, 0.0, 0.0, 1.6518370864512815E9, 0.0, 2022-05-06 12:38:06.451
8.0, -308.1827159486711, -240.80841824691743, -250.67988417996094, -221.7012693732977, 0.12800000607967377, 0.12800000607967377, 0.0, 0.0, 0.0, 0.0, 0.0, 0.0, 1.6518370864672832E9, 0.0, 2022-05-06 12:38:06.467
8.0, -237.00867989193648, -87.64829536154866, -161.27383583923802, -181.99101164378226, 0.12800000607967377, 0.12800000607967377, 0.0, 0.0, 0.0, 0.0, 0.0, 0.0, 1.6518370864672832E9, 0.0, 2022-05-06 12:38:06.467
9.0, -224.592212039046, -98.25091173592955, -140.58096938440576, -180.11358186602592, 0.12800000607967377, 0.12800000607967377, 0.0, 0.0, 0.0, 0.0, 0.0, 0.0, 1.6518370864682536E9, 0.0, 2022-05-06 12:38:06.468
9.0, -279.4341049892828, -237.24429358914495, -220.3455556393601, -222.41559026483446, 0.12800000607967377, 0.12800000607967377, 0.0, 0.0, 0.0, 0.0, 0.0, 0.0, 1.6518370864682536E9, 0.0, 2022-05-06 12:38:06.468
10.0, -298.3168598655611, -233.16780263744295, -240.14832590473816, -228.89309698808938, 0.12800000607967377, 0.12800000607967377, 1.008000047877431, 0.0, 0.0, 0.0, 0.0, 0.0, 1.651837086498273E9, 0.0, 2022-05-06 12:38:06.498
10.0, -240.12401655502617, -82.00478632841259, -143.21385895321146, -157.28523253649473, 0.12800000607967377, 0.12800000607967377, 1.008000047877431, 0.0, 0.0, 0.0, 0.0, 0.0, 1.651837086498273E9, 0.0, 2022-05-06 12:38:06.498
11.0, -217.44900312367827, -87.6707347612828, -126.50398595118895, -154.0726584745571, 0.12800000607967377, 0.06400000303983688, 1.008000047877431, 0.0, 0.0, 0.0, 0.0, 0.0, 1.651837086499218E9, 0.0, 2022-05-06 12:38:06.499
11.0, -291.6598379444331, -251.7139665177092, -238.6112270229496, -233.23886073660105, 0.12800000607967377, 0.06400000303983688, 1.008000047877431, 0.0, 0.0, 0.0, 0.0, 0.0, 1.651837086499218E9, 0.0, 2022-05-06 12:38:06.499
12.0, -310.2321811243892, -235.3332047117874, -246.55103462887928, -227.3634779062122, 0.06400000303983688, 0.06400000303983688, 1.008000047877431, 0.0, 0.0, 0.0, 0.0, 0.0, 1.6518370865002267E9, 0.0, 2022-05-06 12:38:06.500
12.0, -238.4822004744783, -74.82417841348797, -159.80779505660757, -188.0907884715125, 0.06400000303983688, 0.06400000303983688, 1.008000047877431, 0.0, 0.0, 0.0, 0.0, 0.0, 1.6518370865002267E9, 0.0, 2022-05-06 12:38:06.500
13.0, -236.76184649486095, -127.00700249522924, -151.1611463590525, -184.6089416127652, 0.06400000303983688, 0.06400000303983688, 1.008000047877431, 0.0, 0.0, 0.0, 0.0, 0.0, 1.6518370865112667E9, 0.0, 2022-05-06 12:38:06.511
13.0, -295.82982639502734, -272.7696032682434, -249.3634393955581, -232.09445135015994, 0.06400000303983688, 0.06400000303983688, 1.008000047877431, 0.0, 0.0, 0.0, 0.0, 0.0, 1.6518370865112667E9, 0.0, 2022-05-06 12:38:06.511
14.0, -309.5178602328524, -234.23367412481457, -247.99463601177558, -243.635782613419, 0.06400000303983688, 0.06400000303983688, 1.008000047877431, 0.0, 0.0, 0.0, 0.0, 0.0, 1.6518370865272727E9, 0.0, 2022-05-06 12:38:06.527
14.0, -219.3264329014346, -60.7696343800053, -130.84974969970062, -156.61953034438193, 0.06400000303983688, 0.06400000303983688, 1.008000047877431, 0.0, 0.0, 0.0, 0.0, 0.0, 1.6518370865272727E9, 0.0, 2022-05-06 12:38:06.527
15.0, -199.8752132318914, -100.36769511085004, -133.53499786788598, -158.00703322794288, 0.06400000303983688, 0.06400000303983688, 1.008000047877431, 0.0, 0.0, 0.0, 0.0, 0.0, 1.6518370865283003E9, 0.0, 2022-05-06 12:38:06.528
15.0, -298.64223116170615, -262.0136509956792, -231.71111160470173, -224.86148483585566, 0.06400000303983688, 0.06400000303983688, 1.008000047877431, 0.0, 0.0, 0.0, 0.0, 0.0, 1.6518370865283003E9, 0.0, 2022-05-06 12:38:06.528
16.0, -304.90656358748674, -220.92711008246988, -238.5813078233041, -226.27890691906214, 0.06400000303983688, 0.06400000303983688, 1.008000047877431, 0.0, 0.0, 0.0, 0.0, 0.0, 1.651837086541272E9, 0.0, 2022-05-06 12:38:06.541
16.0, -215.5865329457447, -46.33736045099795, -120.06761812744662, -147.43059615325183, 0.06400000303983688, 0.06400000303983688, 1.008000047877431, 0.0, 0.0, 0.0, 0.0, 0.0, 1.651837086541272E9, 0.0, 2022-05-06 12:38:06.541
17.0, -224.56977263931185, -104.53394366148859, -136.68773353053257, -168.4114349046722, 0.06400000303983688, 0.06400000303983688, 1.008000047877431, 0.0, 0.0, 0.0, 0.0, 0.0, 1.651837086557288E9, 0.0, 2022-05-06 12:38:06.557
17.0, -290.41819115914404, -258.0792762422934, -236.55428204732016, -229.30822588317096, 0.06400000303983688, 0.06400000303983688, 1.008000047877431, 0.0, 0.0, 0.0, 0.0, 0.0, 1.651837086557288E9, 0.0, 2022-05-06 12:38:06.557
18.0, -296.0205612927675, -213.85495926626027, -236.6515194461681, -228.67992269061506, 0.06400000303983688, 0.06400000303983688, 1.008000047877431, 0.0, 0.0, 0.0, 0.0, 0.0, 1.651837086558246E9, 0.0, 2022-05-06 12:38:06.558
18.0, -218.0623467164114, -51.02719499543309, -125.31469776527956, -147.8158058486879, 0.06400000303983688, 0.06400000303983688, 1.008000047877431, 0.0, 0.0, 0.0, 0.0, 0.0, 1.651837086558246E9, 0.0, 2022-05-06 12:38:06.558
19.0, -219.6555440975353, -103.81588286999613, -130.6029163026251, -159.0355057157576, 0.06400000303983688, 0.06400000303983688, 1.008000047877431, 0.0, 0.0, 0.0, 0.0, 0.0, 1.651837086571271E9, 0.0, 2022-05-06 12:38:06.571
19.0, -291.79073444288224, -270.675259293057, -242.74755637394264, -223.8891108473763, 0.06400000303983688, 0.06400000303983688, 1.008000047877431, 0.0, 0.0, 0.0, 0.0, 0.0, 1.651837086571271E9, 0.0, 2022-05-06 12:38:06.571
20.0, -305.9312961753458, -218.18576341494918, -244.7671023500152, -237.68560178391635, 0.06400000303983688, 0.06400000303983688, 0.5120000243186951, 0.0, 0.0, 0.0, 0.0, 0.0, 1.6518370865872746E9, 0.0, 2022-05-06 12:38:06.587
20.0, -229.30074608325958, -57.725355816073716, -136.01455153850839, -167.69337411317974, 0.06400000303983688, 0.06400000303983688, 0.5120000243186951, 0.0, 0.0, 0.0, 0.0, 0.0, 1.6518370865872746E9, 0.0, 2022-05-06 12:38:06.587
21.0, -207.42607124242932, -101.2690110001713, -125.34461696492508, -163.1568754669279, 0.06400000303983688, 0.09600000455975533, 0.5120000243186951, 0.0, 0.0, 0.0, 0.0, 0.0, 1.6518370865882268E9, 0.0, 2022-05-06 12:38:06.588
21.0, -301.98196182213724, -264.99809116031975, -235.34629436163232, -224.34163874201477, 0.06400000303983688, 0.09600000455975533, 0.5120000243186951, 0.0, 0.0, 0.0, 0.0, 0.0, 1.6518370865882268E9, 0.0, 2022-05-06 12:38:06.588
22.0, -301.4434162285179, -211.68207739200443, -234.5796148707159, -222.09021896868944, 0.09600000455975533, 0.09600000455975533, 0.5120000243186951, 0.0, 0.0, 0.0, 0.0, 0.0, 1.6518370866013038E9, 0.0, 2022-05-06 12:38:06.601
22.0, -219.1431778036058, -48.528941825032234, -131.81090398831293, -160.24723330140114, 0.09600000455975533, 0.09600000455975533, 0.5120000243186951, 0.0, 0.0, 0.0, 0.0, 0.0, 1.6518370866013038E9, 0.0, 2022-05-06 12:38:06.601
23.0, -211.97378958854824, -97.36829534638673, -119.484193734359, -142.52758731134236, 0.09600000455975533, 0.09600000455975533, 0.5120000243186951, 0.0, 0.0, 0.0, 0.0, 0.0, 1.651837086617319E9, 0.0, 2022-05-06 12:38:06.617
23.0, -286.8091877019033, -259.2349053286016, -233.78675608010963, -211.41280459519476, 0.09600000455975533, 0.09600000455975533, 0.5120000243186951, 0.0, 0.0, 0.0, 0.0, 0.0, 1.651837086617319E9, 0.0, 2022-05-06 12:38:06.617
24.0, -296.847079182975, -208.89585192501545, -233.50626358343288, -227.19518240820616, 0.09600000455975533, 0.09600000455975533, 0.5120000243186951, 0.0, 0.0, 0.0, 0.0, 0.0, 1.6518370866182232E9, 0.0, 2022-05-06 12:38:06.618
24.0, -215.8034471431747, -48.536421624943614, -128.8526431233622, -148.64980353880674, 0.09600000455975533, 0.09600000455975533, 0.5120000243186951, 0.0, 0.0, 0.0, 0.0, 0.0, 1.6518370866182232E9, 0.0, 2022-05-06 12:38:06.618
25.0, -213.4323505712673, -109.66134650073946, -143.25499785272405, -166.2235934305936, 0.09600000455975533, 0.09600000455975533, 0.5120000243186951, 0.0, 0.0, 0.0, 0.0, 0.0, 1.651837086631294E9, 0.0, 2022-05-06 12:38:06.631
25.0, -293.1819772263989, -275.96347783040255, -248.24146940885112, -238.16430897824466, 0.09600000455975533, 0.09600000455975533, 0.5120000243186951, 0.0, 0.0, 0.0, 0.0, 0.0, 1.651837086631294E9, 0.0, 2022-05-06 12:38:06.631
26.0, -300.7777140364051, -217.030134328641, -239.99499000655487, -236.0363059034571, 0.09600000455975533, 0.09600000455975533, 0.5120000243186951, 0.0, 0.0, 0.0, 0.0, 0.0, 1.6518370866472752E9, 0.0, 2022-05-06 12:38:06.647
26.0, -219.71538249682635, -45.58190065994859, -123.01839919248596, -155.4115426586941, 0.09600000455975533, 0.09600000455975533, 0.5120000243186951, 0.0, 0.0, 0.0, 0.0, 0.0, 1.6518370866472752E9, 0.0, 2022-05-06 12:38:06.647
27.0, -224.77920703683048, -113.59572125412524, -146.03748341975734, -165.20634064264596, 0.09600000455975533, 0.09600000455975533, 0.5120000243186951, 0.0, 0.0, 0.0, 0.0, 0.0, 1.651837086648265E9, 0.0, 2022-05-06 12:38:06.648
27.0, -295.26884140167385, -277.3995994133875, -244.47913005342707, -233.0743051385507, 0.09600000455975533, 0.09600000455975533, 0.5120000243186951, 0.0, 0.0, 0.0, 0.0, 0.0, 1.651837086648265E9, 0.0, 2022-05-06 12:38:06.648
28.0, -297.4679025756195, -213.85495926626027, -240.3203613026999, -227.90576339978725, 0.09600000455975533, 0.09600000455975533, 0.5120000243186951, 0.0, 0.0, 0.0, 0.0, 0.0, 1.6518370866614828E9, 0.0, 2022-05-06 12:38:06.661
28.0, -218.0660866163671, -45.241569763980806, -119.73102713143453, -146.95188895892352, 0.09600000455975533, 0.09600000455975533, 0.5120000243186951, 0.0, 0.0, 0.0, 0.0, 0.0, 1.6518370866614828E9, 0.0, 2022-05-06 12:38:06.661
29.0, -218.94870300590992, -102.93326648045331, -128.4150748285465, -151.19667540863156, 0.09600000455975533, 0.09600000455975533, 0.5120000243186951, 0.0, 0.0, 0.0, 0.0, 0.0, 1.6518370866772728E9, 0.0, 2022-05-06 12:38:06.677
29.0, -296.1028390917927, -260.6111885122955, -239.03757561789826, -223.4066637530923, 0.09600000455975533, 0.09600000455975533, 0.5120000243186951, 0.0, 0.0, 0.0, 0.0, 0.0, 1.6518370866772728E9, 0.0, 2022-05-06 12:38:06.677
30.0, -289.29996107239276, -199.51244293618947, -222.8662482094951, -211.132312098518, 0.09600000455975533, 0.09600000455975533, 0.7680000364780426, 0.0, 0.0, 0.0, 0.0, 0.0, 1.651837086678228E9, 0.0, 2022-05-06 12:38:06.678
30.0, -221.05426668096334, -52.25388218089938, -142.6379143600352, -175.10585582535714, 0.09600000455975533, 0.09600000455975533, 0.7680000364780426, 0.0, 0.0, 0.0, 0.0, 0.0, 1.651837086678228E9, 0.0, 2022-05-06 12:38:06.678
31.0, -216.5888261338696, -108.22148501779884, -144.3881875392981, -160.815698094666, 0.09600000455975533, 0.11200000531971455, 0.7680000364780426, 0.0, 0.0, 0.0, 0.0, 0.0, 1.6518370866913197E9, 0.0, 2022-05-06 12:38:06.691
31.0, -299.9960749456659, -269.96841820143163, -240.8701265961863, -214.59545945748687, 0.09600000455975533, 0.11200000531971455, 0.7680000364780426, 0.0, 0.0, 0.0, 0.0, 0.0, 1.6518370866913197E9, 0.0, 2022-05-06 12:38:06.691
32.0, -296.64138468541205, -201.3898727139458, -233.18089228728786, -205.78799506183714, 0.11200000531971455, 0.11200000531971455, 0.7680000364780426, 0.0, 0.0, 0.0, 0.0, 0.0, 1.6518370867072747E9, 0.0, 2022-05-06 12:38:06.707
32.0, -224.8465252360329, -50.44751050230116, -134.43631375720724, -169.46608669217676, 0.11200000531971455, 0.11200000531971455, 0.7680000364780426, 0.0, 0.0, 0.0, 0.0, 0.0, 1.6518370867072747E9, 0.0, 2022-05-06 12:38:06.707
33.0, -231.23801426030695, -121.4644707608968, -150.30470926919952, -183.52437062561512, 0.11200000531971455, 0.11200000531971455, 0.7680000364780426, 0.0, 0.0, 0.0, 0.0, 0.0, 1.651837086708238E9, 0.0, 2022-05-06 12:38:06.708
33.0, -297.5576601745561, -277.10788721684366, -249.81222739024088, -237.4425082867965, 0.11200000531971455, 0.11200000531971455, 0.7680000364780426, 0.0, 0.0, 0.0, 0.0, 0.0, 1.651837086708238E9, 0.0, 2022-05-06 12:38:06.708
34.0, -308.49312764499336, -222.75592116080225, -246.49867602949962, -238.54203887376934, 0.11200000531971455, 0.11200000531971455, 0.7680000364780426, 0.0, 0.0, 0.0, 0.0, 0.0, 1.6518370867213E9, 0.0, 2022-05-06 12:38:06.721
34.0, -230.923862664029, -58.76504800375551, -137.9032010161318, -166.35448992904276, 0.11200000531971455, 0.11200000531971455, 0.7680000364780426, 0.0, 0.0, 0.0, 0.0, 0.0, 1.6518370867213E9, 0.0, 2022-05-06 12:38:06.721
35.0, -223.15235055610538, -117.9078259030357, -137.18888012459502, -161.3355441885069, 0.11200000531971455, 0.11200000531971455, 0.7680000364780426, 0.0, 0.0, 0.0, 0.0, 0.0, 1.651837086737292E9, 0.0, 2022-05-06 12:38:06.737
35.0, -301.4845551280305, -273.2483104625717, -243.9480642597191, -213.58942636940628, 0.11200000531971455, 0.11200000531971455, 0.7680000364780426, 0.0, 0.0, 0.0, 0.0, 0.0, 1.651837086737292E9, 0.0, 2022-05-06 12:38:06.737
36.0, -300.3214462418109, -209.81586731411517, -240.75418969755992, -234.34961102344096, 0.11200000531971455, 0.11200000531971455, 0.7680000364780426, 0.0, 0.0, 0.0, 0.0, 0.0, 1.651837086738217E9, 0.0, 2022-05-06 12:38:06.738
36.0, -217.39290462434292, -56.34533273242414, -134.24931875942275, -165.8982221344486, 0.11200000531971455, 0.11200000531971455, 0.7680000364780426, 0.0, 0.0, 0.0, 0.0, 0.0, 1.651837086738217E9, 0.0, 2022-05-06 12:38:06.738
37.0, -219.72286229673773, -118.69694479368627, -142.7949901581742, -175.80147721711546, 0.11200000531971455, 0.11200000531971455, 0.7680000364780426, 0.0, 0.0, 0.0, 0.0, 0.0, 1.6518370867513165E9, 0.0, 2022-05-06 12:38:06.751
37.0, -324.2343665584922, -287.71424349118024, -260.2502881665714, -243.51610581483692, 0.11200000531971455, 0.11200000531971455, 0.7680000364780426, 0.0, 0.0, 0.0, 0.0, 0.0, 1.6518370867513165E9, 0.0, 2022-05-06 12:38:06.751
38.0, -312.90994949266315, -215.0629469519481, -239.1647322163917, -225.68800272606313, 0.11200000531971455, 0.11200000531971455, 0.7680000364780426, 0.0, 0.0, 0.0, 0.0, 0.0, 1.6518370867672913E9, 0.0, 2022-05-06 12:38:06.767
38.0, -223.13739095628262, -49.56115421280265, -123.6354826851748, -150.2953595193103, 0.11200000531971455, 0.11200000531971455, 0.7680000364780426, 0.0, 0.0, 0.0, 0.0, 0.0, 1.6518370867672913E9, 0.0, 2022-05-06 12:38:06.767
39.0, -225.67678302619606, -119.94981127884239, -142.88848765706643, -155.68829525541514, 0.11200000531971455, 0.11200000531971455, 0.7680000364780426, 0.0, 0.0, 0.0, 0.0, 0.0, 1.6518370867682316E9, 0.0, 2022-05-06 12:38:06.768
39.0, -298.5936124622822, -272.2011384749785, -246.56973412865773, -224.41643674112856, 0.11200000531971455, 0.11200000531971455, 0.7680000364780426, 0.0, 0.0, 0.0, 0.0, 0.0, 1.6518370867682316E9, 0.0, 2022-05-06 12:38:06.768
40.0, -303.5788991032168, -205.92637136019766, -242.14543248107657, -228.24609429575503, 0.11200000531971455, 0.11200000531971455, 0.8960000425577164, 0.0, 0.0, 0.0, 0.0, 0.0, 1.651837086781325E9, 0.0, 2022-05-06 12:38:06.781
40.0, -222.07525936886668, -49.23204301670194, -125.80462465947494, -155.92016905266792, 0.11200000531971455, 0.11200000531971455, 0.8960000425577164, 0.0, 0.0, 0.0, 0.0, 0.0, 1.651837086781325E9, 0.0, 2022-05-06 12:38:06.781
41.0, -218.85146560706198, -114.94956503808498, -141.81887626973912, -166.88555572275072, 0.11200000531971455, 0.11200000531971455, 0.8960000425577164, 0.0, 0.0, 0.0, 0.0, 0.0, 1.651837086797331E9, 0.0, 2022-05-06 12:38:06.797
41.0, -290.2087567616254, -267.89277372602373, -237.7996687325649, -216.8393994309008, 0.11200000531971455, 0.11200000531971455, 0.8960000425577164, 0.0, 0.0, 0.0, 0.0, 0.0, 1.651837086797331E9, 0.0, 2022-05-06 12:38:06.797
42.0, -294.45354321133345, -196.13905317615718, -215.74173879390582, -197.01418976578861, 0.11200000531971455, 0.11200000531971455, 0.8960000425577164, 0.0, 0.0, 0.0, 0.0, 0.0, 1.651837086798229E9, 0.0, 2022-05-06 12:38:06.798
42.0, -216.5439473344013, -37.52615615539253, -126.32073085336015, -147.01920715812594, 0.11200000531971455, 0.11200000531971455, 0.8960000425577164, 0.0, 0.0, 0.0, 0.0, 0.0, 1.651837086798229E9, 0.0, 2022-05-06 12:38:06.798
43.0, -230.93134246394038, -124.21703712828457, -148.2776834932156, -171.24627907108516, 0.11200000531971455, 0.11200000531971455, 0.8960000425577164, 0.0, 0.0, 0.0, 0.0, 0.0, 1.6518370868113272E9, 0.0, 2022-05-06 12:38:06.811
43.0, -300.5234008394182, -268.1358672231436, -242.321207778994, -225.08213893324137, 0.11200000531971455, 0.11200000531971455, 0.8960000425577164, 0.0, 0.0, 0.0, 0.0, 0.0, 1.6518370868113272E9, 0.0, 2022-05-06 12:38:06.811
44.0, -297.7334354724735, -199.08235444128513, -228.85382803855464, -223.0289338575676, 0.11200000531971455, 0.11200000531971455, 0.8960000425577164, 0.0, 0.0, 0.0, 0.0, 0.0, 1.6518370868272765E9, 0.0, 2022-05-06 12:38:06.827
44.0, -219.39375110063702, -44.30285487510264, -123.22035379009321, -154.28583277203143, 0.11200000531971455, 0.11200000531971455, 0.8960000425577164, 0.0, 0.0, 0.0, 0.0, 0.0, 1.6518370868272765E9, 0.0, 2022-05-06 12:38:06.827
45.0, -216.86183883063495, -115.17395903542638, -139.81054999353364, -164.7463329480961, 0.11200000531971455, 0.11200000531971455, 0.8960000425577164, 0.0, 0.0, 0.0, 0.0, 0.0, 1.6518370868422787E9, 0.0, 2022-05-06 12:38:06.842
45.0, -299.9474562462419, -274.1571061518043, -247.9497572123073, -232.69657524302602, 0.11200000531971455, 0.11200000531971455, 0.8960000425577164, 0.0, 0.0, 0.0, 0.0, 0.0, 1.6518370868422787E9, 0.0, 2022-05-06 12:38:06.842
46.0, -304.2109421957284, -204.06764108221978, -232.44787189597264, -219.24041520245373, 0.11200000531971455, 0.11200000531971455, 0.8960000425577164, 0.0, 0.0, 0.0, 0.0, 0.0, 1.6518370868432565E9, 0.0, 2022-05-06 12:38:06.843
46.0, -227.06054600980133, -47.12647934164852, -135.1581144486554, -165.68504783697426, 0.11200000531971455, 0.11200000531971455, 0.8960000425577164, 0.0, 0.0, 0.0, 0.0, 0.0, 1.6518370868432565E9, 0.0, 2022-05-06 12:38:06.843
47.0, -228.02170029841363, -123.66727183479816, -144.53778353752568, -163.62436296138912, 0.11200000531971455, 0.11200000531971455, 0.8960000425577164, 0.0, 0.0, 0.0, 0.0, 0.0, 1.6518370868572855E9, 0.0, 2022-05-06 12:38:06.857
47.0, -314.9706343682483, -282.53074215259403, -243.3197610671632, -228.56398579198867, 0.11200000531971455, 0.11200000531971455, 0.8960000425577164, 0.0, 0.0, 0.0, 0.0, 0.0, 1.6518370868572855E9, 0.0, 2022-05-06 12:38:06.857
48.0, -289.2102034734562, -188.71161186415702, -217.55559027241543, -200.08464762941003, 0.11200000531971455, 0.11200000531971455, 0.8960000425577164, 0.0, 0.0, 0.0, 0.0, 0.0, 1.6518370868583078E9, 0.0, 2022-05-06 12:38:06.858
48.0, -217.94266991782933, -40.59287411905825, -126.672281449195, -157.30393203627318, 0.11200000531971455, 0.11200000531971455, 0.8960000425577164, 0.0, 0.0, 0.0, 0.0, 0.0, 1.6518370868583078E9, 0.0, 2022-05-06 12:38:06.858
49.0, -221.70874917320907, -119.55712178349495, -140.94373968010768, -170.1953671835363, 0.11200000531971455, 0.11200000531971455, 0.8960000425577164, 0.0, 0.0, 0.0, 0.0, 0.0, 1.6518370868712752E9, 0.0, 2022-05-06 12:38:06.871
49.0, -307.93588255159557, -278.3270946023986, -246.3528199312277, -230.1497033732012, 0.11200000531971455, 0.11200000531971455, 0.8960000425577164, 0.0, 0.0, 0.0, 0.0, 0.0, 1.6518370868712752E9, 0.0, 2022-05-06 12:38:06.871
50.0, -290.6500649563968, -191.67735252901912, -226.3144359686412, -216.8020004313439, 0.11200000531971455, 0.11200000531971455, 0.9600000455975533, 0.0, 0.0, 0.0, 0.0, 0.0, 1.6518370868872776E9, 0.0, 2022-05-06 12:38:06.887
50.0, -224.02000734582543, -42.99014999065548, -126.39926875242963, -158.73257381934673, 0.11200000531971455, 0.11200000531971455, 0.9600000455975533, 0.0, 0.0, 0.0, 0.0, 0.0, 1.6518370868872776E9, 0.0, 2022-05-06 12:38:06.887
51.0, -237.46494768653065, -130.7618620507419, -148.51703709037974, -169.8213771879673, 0.11200000531971455, 0.12800000607967377, 0.9600000455975533, 0.0, 0.0, 0.0, 0.0, 0.0, 1.6518370868882248E9, 0.0, 2022-05-06 12:38:06.888
51.0, -310.26958012394607, -283.40961864218116, -255.03686762833968, -228.89683688804507, 0.11200000531971455, 0.12800000607967377, 0.9600000455975533, 0.0, 0.0, 0.0, 0.0, 0.0, 1.6518370868882248E9, 0.0, 2022-05-06 12:38:06.888
52.0, -292.9912423286587, -194.93106549046934, -224.1265944945626, -218.0660866163671, 0.12800000607967377, 0.12800000607967377, 0.9600000455975533, 0.0, 0.0, 0.0, 0.0, 0.0, 1.651837086901285E9, 0.0, 2022-05-06 12:38:06.901
52.0, -194.19804509915411, -34.47439779154956, -117.34871085966006, -140.74365503247827, 0.12800000607967377, 0.12800000607967377, 0.9600000455975533, 0.0, 0.0, 0.0, 0.0, 0.0, 1.651837086901285E9, 0.0, 2022-05-06 12:38:06.901
53.0, -228.08527859766036, -121.5766677595675, -148.1580066946335, -163.69916096050292, 0.12800000607967377, 0.12800000607967377, 0.9600000455975533, 0.0, 0.0, 0.0, 0.0, 0.0, 1.6518370869172933E9, 0.0, 2022-05-06 12:38:06.917
53.0, -321.4481410915032, -284.7335432264954, -255.30988032510504, -240.04921855591238, 0.12800000607967377, 0.12800000607967377, 0.9600000455975533, 0.0, 0.0, 0.0, 0.0, 0.0, 1.6518370869172933E9, 0.0, 2022-05-06 12:38:06.917
54.0, -299.958675946109, -204.4715502774343, -233.66333938157186, -225.8076795246452, 0.12800000607967377, 0.12800000607967377, 0.9600000455975533, 0.0, 0.0, 0.0, 0.0, 0.0, 1.6518370869182289E9, 0.0, 2022-05-06 12:38:06.918
54.0, -213.68666376825422, -38.031042649410665, -118.51555964583531, -145.33999207802117, 0.12800000607967377, 0.12800000607967377, 0.9600000455975533, 0.0, 0.0, 0.0, 0.0, 0.0, 1.6518370869182289E9, 0.0, 2022-05-06 12:38:06.918
55.0, -229.4466021815315, -121.62902635894716, -138.76337800594047, -150.3290186189115, 0.12800000607967377, 0.12800000607967377, 0.9600000455975533, 0.0, 0.0, 0.0, 0.0, 0.0, 1.6518370869313407E9, 0.0, 2022-05-06 12:38:06.931
55.0, -303.3395455060527, -272.54894917085767, -236.2812693505548, -204.49024977721274, 0.12800000607967377, 0.12800000607967377, 0.9600000455975533, 0.0, 0.0, 0.0, 0.0, 0.0, 1.6518370869313407E9, 0.0, 2022-05-06 12:38:06.931
56.0, -300.57201953884214, -198.62982654664665, -236.67021894594654, -229.9963674750179, 0.12800000607967377, 0.12800000607967377, 0.9600000455975533, 0.0, 0.0, 0.0, 0.0, 0.0, 1.6518370869472857E9, 0.0, 2022-05-06 12:38:06.947
56.0, -210.66482460405678, -32.48477101512253, -114.01272009918466, -144.41997668892145, 0.12800000607967377, 0.12800000607967377, 0.9600000455975533, 0.0, 0.0, 0.0, 0.0, 0.0, 1.6518370869472857E9, 0.0, 2022-05-06 12:38:06.947
57.0, -229.42042288184166, -127.12293939385563, -157.0589685891755, -169.66430138982832, 0.12800000607967377, 0.12800000607967377, 0.9600000455975533, 0.0, 0.0, 0.0, 0.0, 0.0, 1.6518370869482164E9, 0.0, 2022-05-06 12:38:06.948
57.0, -304.45777559280396, -276.89471291936934, -243.88822586042807, -235.09759101457894, 0.12800000607967377, 0.12800000607967377, 0.9600000455975533, 0.0, 0.0, 0.0, 0.0, 0.0, 1.6518370869482164E9, 0.0, 2022-05-06 12:38:06.948
58.0, -300.42616344057024, -197.11142716463655, -224.28367029270157, -207.97583653591573, 0.12800000607967377, 0.12800000607967377, 0.9600000455975533, 0.0, 0.0, 0.0, 0.0, 0.0, 1.651837086961292E9, 0.0, 2022-05-06 12:38:06.961
58.0, -222.89803735911846, -52.530634777620435, -137.51051152078435, -171.971819662489, 0.12800000607967377, 0.12800000607967377, 0.9600000455975533, 0.0, 0.0, 0.0, 0.0, 0.0, 1.651837086961292E9, 0.0, 2022-05-06 12:38:06.961
59.0, -230.20954177249223, -133.08807982318103, -152.7992225396447, -177.5255710966885, 0.12800000607967377, 0.12800000607967377, 0.9600000455975533, 0.0, 0.0, 0.0, 0.0, 0.0, 1.6518370869772954E9, 0.0, 2022-05-06 12:38:06.977
59.0, -304.75322768930346, -277.00317001808435, -254.86857213033363, -239.34985726419836, 0.12800000607967377, 0.12800000607967377, 0.9600000455975533, 0.0, 0.0, 0.0, 0.0, 0.0, 1.6518370869772954E9, 0.0, 2022-05-06 12:38:06.977
60.0, -295.2052631024271, -195.0956210885197, -233.902692978736, -225.0297803338617, 0.12800000607967377, 0.12800000607967377, 0.9920000471174717, 0.0, 0.0, 0.0, 0.0, 0.0, 1.651837086978245E9, 0.0, 2022-05-06 12:38:06.978
60.0, -217.4003844242543, -44.30285487510264, -132.6000228789635, -164.86600974667817, 0.12800000607967377, 0.12800000607967377, 0.9920000471174717, 0.0, 0.0, 0.0, 0.0, 0.0, 1.651837086978245E9, 0.0, 2022-05-06 12:38:06.978
61.0, -232.94714854005724, -128.25238918047398, -151.34440145688131, -178.76721788197756, 0.12800000607967377, 0.12800000607967377, 0.9920000471174717, 0.0, 0.0, 0.0, 0.0, 0.0, 1.6518370870082881E9, 0.0, 2022-05-06 12:38:07.008
61.0, -307.60303145553917, -279.45280448906124, -243.9480642597191, -222.7372216610238, 0.12800000607967377, 0.12800000607967377, 0.9920000471174717, 0.0, 0.0, 0.0, 0.0, 0.0, 1.6518370870082881E9, 0.0, 2022-05-06 12:38:07.008
62.0, -299.49492835160345, -197.03662916552275, -229.80002272734419, -219.0272409049794, 0.12800000607967377, 0.12800000607967377, 0.9920000471174717, 0.0, 0.0, 0.0, 0.0, 0.0, 1.651837087009251E9, 0.0, 2022-05-06 12:38:07.009
62.0, -210.90417820122093, -37.56355515494943, -118.17896864982322, -137.12343187537044, 0.12800000607967377, 0.12800000607967377, 0.9920000471174717, 0.0, 0.0, 0.0, 0.0, 0.0, 1.651837087009251E9, 0.0, 2022-05-06 12:38:07.009
63.0, -223.35804505366832, -119.4636242846027, -144.99405133211985, -158.12297012656927, 0.12800000607967377, 0.12800000607967377, 0.9920000471174717, 0.0, 0.0, 0.0, 0.0, 0.0, 1.6518370870102377E9, 0.0, 2022-05-06 12:38:07.010
63.0, -308.7773600416258, -283.1253862455487, -254.9134509298019, -238.36626357585192, 0.12800000607967377, 0.12800000607967377, 0.9920000471174717, 0.0, 0.0, 0.0, 0.0, 0.0, 1.6518370870102377E9, 0.0, 2022-05-06 12:38:07.010
64.0, -292.6209922330454, -200.73165032174438, -234.39635977288708, -220.26888769026846, 0.12800000607967377, 0.12800000607967377, 0.9920000471174717, 0.0, 0.0, 0.0, 0.0, 0.0, 1.6518370870212877E9, 0.0, 2022-05-06 12:38:07.021
64.0, -217.39290462434292, -38.487310444004834, -122.48733339877799, -146.8060328606516, 0.12800000607967377, 0.12800000607967377, 0.9920000471174717, 0.0, 0.0, 0.0, 0.0, 0.0, 1.6518370870212877E9, 0.0, 2022-05-06 12:38:07.021
65.0, -233.41837593447417, -135.40307789575309, -156.55034219520167, -172.87313555181026, 0.12800000607967377, 0.12800000607967377, 0.9920000471174717, 0.0, 0.0, 0.0, 0.0, 0.0, 1.6518370870372927E9, 0.0, 2022-05-06 12:38:07.037
65.0, -299.85769864730537, -273.37172716110945, -241.99957638280466, -221.78354717232287, 0.12800000607967377, 0.12800000607967377, 0.9920000471174717, 0.0, 0.0, 0.0, 0.0, 0.0, 1.6518370870372927E9, 0.0, 2022-05-06 12:38:07.037
66.0, -295.97568249329925, -187.7878565751016, -223.7900034985505, -202.90079229604453, 0.12800000607967377, 0.12800000607967377, 0.9920000471174717, 0.0, 0.0, 0.0, 0.0, 0.0, 1.6518370870382469E9, 0.0, 2022-05-06 12:38:07.038
66.0, -214.40472455974668, -34.825948387384415, -123.83743728278205, -156.99352033995092, 0.12800000607967377, 0.12800000607967377, 0.9920000471174717, 0.0, 0.0, 0.0, 0.0, 0.0, 1.6518370870382469E9, 0.0, 2022-05-06 12:38:07.038
67.0, -221.69004967343062, -127.81482088565826, -150.93675236171111, -170.2290262831375, 0.12800000607967377, 0.12800000607967377, 0.9920000471174717, 0.0, 0.0, 0.0, 0.0, 0.0, 1.6518370870513117E9, 0.0, 2022-05-06 12:38:07.051
67.0, -310.83804491721094, -281.12079986929893, -249.82344709010795, -226.39858371764421, 0.12800000607967377, 0.12800000607967377, 0.9920000471174717, 0.0, 0.0, 0.0, 0.0, 0.0, 1.6518370870513117E9, 0.0, 2022-05-06 12:38:07.051
68.0, -291.31202724855393, -189.00706396065652, -224.37716779159382, -209.87196581345052, 0.12800000607967377, 0.12800000607967377, 0.9920000471174717, 0.0, 0.0, 0.0, 0.0, 0.0, 1.651837087067277E9, 0.0, 2022-05-06 12:38:07.067
68.0, -215.05172725208104, -39.44098493270576, -121.8926893058233, -159.850803906098, 0.12800000607967377, 0.12800000607967377, 0.9920000471174717, 0.0, 0.0, 0.0, 0.0, 0.0, 1.651837087067277E9, 0.0, 2022-05-06 12:38:07.067
69.0, -225.91613662336022, -126.59187360014766, -155.95569810224697, -174.8253633286804, 0.12800000607967377, 0.12800000607967377, 0.9920000471174717, 0.0, 0.0, 0.0, 0.0, 0.0, 1.6518370870682423E9, 0.0, 2022-05-06 12:38:07.068
69.0, -292.93514382932335, -266.7221850398928, -239.97629050677642, -227.0381066100672, 0.12800000607967377, 0.12800000607967377, 0.9920000471174717, 0.0, 0.0, 0.0, 0.0, 0.0, 1.6518370870682423E9, 0.0, 2022-05-06 12:38:07.068
70.0, -291.48780254647136, -182.3837011391297, -219.22358565265313, -205.9076718604192, 0.12800000607967377, 0.12800000607967377, 1.008000047877431, 0.0, 0.0, 0.0, 0.0, 0.0, 1.6518370870812771E9, 0.0, 2022-05-06 12:38:07.081
70.0, -217.11989192757756, -36.849234263412654, -122.46489399904385, -143.1409309040755, 0.12800000607967377, 0.12800000607967377, 1.008000047877431, 0.0, 0.0, 0.0, 0.0, 0.0, 1.6518370870812771E9, 0.0, 2022-05-06 12:38:07.081
71.0, -224.72684843745083, -123.30076163914055, -142.25270466459915, -159.49177351035178, 0.12800000607967377, 0.12800000607967377, 1.008000047877431, 0.0, 0.0, 0.0, 0.0, 0.0, 1.651837087097288E9, 0.0, 2022-05-06 12:38:07.097
71.0, -303.34702530596405, -269.22417811024934, -249.2101034973748, -218.27552101388574, 0.12800000607967377, 0.12800000607967377, 1.008000047877431, 0.0, 0.0, 0.0, 0.0, 0.0, 1.651837087097288E9, 0.0, 2022-05-06 12:38:07.097
72.0, -294.2216694140807, -191.32580193318427, -231.9055864023976, -222.6960827615112, 0.12800000607967377, 0.12800000607967377, 1.008000047877431, 0.0, 0.0, 0.0, 0.0, 0.0, 1.6518370871122756E9, 0.0, 2022-05-06 12:38:07.112
72.0, -211.38288539554924, -43.682031482458115, -122.56587129784748, -149.15469003282487, 0.12800000607967377, 0.12800000607967377, 1.008000047877431, 0.0, 0.0, 0.0, 0.0, 0.0, 1.6518370871122756E9, 0.0, 2022-05-06 12:38:07.112
73.0, -220.5867791865021, -128.4281644783914, -150.39820676809177, -166.36570962890983, 0.12800000607967377, 0.12800000607967377, 1.008000047877431, 0.0, 0.0, 0.0, 0.0, 0.0, 1.6518370871132941E9, 0.0, 2022-05-06 12:38:07.113
73.0, -302.961815610528, -282.85611344873905, -251.53632126981393, -239.73506695963442, 0.12800000607967377, 0.12800000607967377, 1.008000047877431, 0.0, 0.0, 0.0, 0.0, 0.0, 1.6518370871132941E9, 0.0, 2022-05-06 12:38:07.113
74.0, -289.1690645739436, -186.07124249543995, -226.91281996155158, -215.74360874388367, 0.12800000607967377, 0.12800000607967377, 1.008000047877431, 0.0, 0.0, 0.0, 0.0, 0.0, 1.651837087127296E9, 0.0, 2022-05-06 12:38:07.127
74.0, -220.63913778588176, -47.44811073783785, -130.36730260541663, -157.98459382820874, 0.12800000607967377, 0.12800000607967377, 1.008000047877431, 0.0, 0.0, 0.0, 0.0, 0.0, 1.651837087127296E9, 0.0, 2022-05-06 12:38:07.127
75.0, -222.1463174680248, -132.19050383381546, -150.17381277075037, -171.4931124681607, 0.12800000607967377, 0.12800000607967377, 1.008000047877431, 0.0, 0.0, 0.0, 0.0, 0.0, 1.6518370871282308E9, 0.0, 2022-05-06 12:38:07.128
75.0, -297.63993797358125, -268.74547091592103, -238.58878762321547, -216.8767984304577, 0.12800000607967377, 0.12800000607967377, 1.008000047877431, 0.0, 0.0, 0.0, 0.0, 0.0, 1.6518370871282308E9, 0.0, 2022-05-06 12:38:07.128
76.0, -279.14987259265035, -176.00343181472272, -205.88710241066292, -190.13651374727488, 0.12800000607967377, 0.12800000607967377, 1.008000047877431, 0.0, 0.0, 0.0, 0.0, 0.0, 1.651837087141328E9, 0.0, 2022-05-06 12:38:07.141
76.0, -208.46202353015542, -33.08315500803292, -112.9992072111927, -138.24540186207741, 0.12800000607967377, 0.12800000607967377, 1.008000047877431, 0.0, 0.0, 0.0, 0.0, 0.0, 1.651837087141328E9, 0.0, 2022-05-06 12:38:07.141
77.0, -224.9250631351024, -131.8389532379806, -154.6130740181543, -176.13432831317186, 0.12800000607967377, 0.12800000607967377, 1.008000047877431, 0.0, 0.0, 0.0, 0.0, 0.0, 1.6518370871572895E9, 0.0, 2022-05-06 12:38:07.157
77.0, -313.8823234811425, -281.8762596603483, -250.68362407991663, -236.82916469406337, 0.12800000607967377, 0.12800000607967377, 1.008000047877431, 0.0, 0.0, 0.0, 0.0, 0.0, 1.6518370871572895E9, 0.0, 2022-05-06 12:38:07.157
78.0, -286.547394705005, -180.10610206611454, -213.33324322244152, -202.86713319644332, 0.12800000607967377, 0.12800000607967377, 1.008000047877431, 0.0, 0.0, 0.0, 0.0, 0.0, 1.6518370871582239E9, 0.0, 2022-05-06 12:38:07.158
78.0, -215.6201920453459, -44.22805687598884, -131.09284319682047, -163.68046146072447, 0.12800000607967377, 0.12800000607967377, 1.008000047877431, 0.0, 0.0, 0.0, 0.0, 0.0, 1.6518370871582239E9, 0.0, 2022-05-06 12:38:07.158
79.0, -222.06029976904392, -131.25552884489298, -146.18707941798493, -170.77505167666823, 0.12800000607967377, 0.12800000607967377, 1.008000047877431, 0.0, 0.0, 0.0, 0.0, 0.0, 1.6518370871712687E9, 0.0, 2022-05-06 12:38:07.171
79.0, -291.63739854469895, -268.2368445219472, -240.30914160283282, -221.04678688105196, 0.12800000607967377, 0.12800000607967377, 1.008000047877431, 0.0, 0.0, 0.0, 0.0, 0.0, 1.6518370871712687E9, 0.0, 2022-05-06 12:38:07.171
80.0, -283.15530544519424, -177.121661901474, -211.6764675420709, -202.59786039963365, 0.12800000607967377, 0.12800000607967377, 1.008000047877431, 0.0, 0.0, 0.0, 0.0, 0.0, 1.6518370871873214E9, 0.0, 2022-05-06 12:38:07.187
80.0, -207.40737174265087, -31.317922228947282, -118.26498634880409, -142.85669850744307, 0.12800000607967377, 0.12800000607967377, 1.008000047877431, 0.0, 0.0, 0.0, 0.0, 0.0, 1.6518370871873214E9, 0.0, 2022-05-06 12:38:07.187
81.0, -219.67424359731376, -130.88527874927968, -140.88390128081664, -163.08955726772547, 0.12800000607967377, 0.12800000607967377, 1.008000047877431, 0.0, 0.0, 0.0, 0.0, 0.0, 1.6518370871882474E9, 0.0, 2022-05-06 12:38:07.188
81.0, -300.7328352369368, -276.3860865253955, -246.85770642524585, -225.00360103417188, 0.12800000607967377, 0.12800000607967377, 1.008000047877431, 0.0, 0.0, 0.0, 0.0, 0.0, 1.6518370871882474E9, 0.0, 2022-05-06 12:38:07.188
82.0, -293.2492954256013, -187.59712167736143, -222.61567491246387, -217.31810662522912, 0.12800000607967377, 0.12800000607967377, 1.008000047877431, 0.0, 0.0, 0.0, 0.0, 0.0, 1.6518370872012854E9, 0.0, 2022-05-06 12:38:07.201
82.0, -207.5794071406126, -34.833428187295794, -120.42290862323716, -148.93777583539486, 0.12800000607967377, 0.12800000607967377, 1.008000047877431, 0.0, 0.0, 0.0, 0.0, 0.0, 1.6518370872012854E9, 0.0, 2022-05-06 12:38:07.201
83.0, -226.2901266189292, -137.2505884738639, -151.69969195267186, -161.80677158292383, 0.12800000607967377, 0.12800000607967377, 1.008000047877431, 0.0, 0.0, 0.0, 0.0, 0.0, 1.6518370872172875E9, 0.0, 2022-05-06 12:38:07.217
83.0, -305.1010383851826, -277.6576525103301, -252.22820276161656, -239.7051477599889, 0.12800000607967377, 0.12800000607967377, 1.008000047877431, 0.0, 0.0, 0.0, 0.0, 0.0, 1.6518370872172875E9, 0.0, 2022-05-06 12:38:07.217
84.0, -284.3184143314138, -183.0082644317299, -215.7903574933298, -207.16427824553102, 0.12800000607967377, 0.12800000607967377, 1.008000047877431, 0.0, 0.0, 0.0, 0.0, 0.0, 1.6518370872182584E9, 0.0, 2022-05-06 12:38:07.218
84.0, -201.10564031731337, -34.62399378977716, -111.72764122625813, -128.2486492805183, 0.12800000607967377, 0.12800000607967377, 1.008000047877431, 0.0, 0.0, 0.0, 0.0, 0.0, 1.6518370872182584E9, 0.0, 2022-05-06 12:38:07.218
85.0, -217.71079612057656, -128.22994978073984, -145.11372813070193, -164.91088854614645, 0.12800000607967377, 0.12800000607967377, 1.008000047877431, 0.0, 0.0, 0.0, 0.0, 0.0, 1.6518370872312796E9, 0.0, 2022-05-06 12:38:07.231
85.0, -302.57660591509193, -277.4369984129444, -249.41205809498206, -243.18325471878052, 0.12800000607967377, 0.12800000607967377, 1.008000047877431, 0.0, 0.0, 0.0, 0.0, 0.0, 1.6518370872312796E9, 0.0, 2022-05-06 12:38:07.231
86.0, -291.9104112414643, -190.97051143739372, -225.74597117537633, -218.94870300590992, 0.12800000607967377, 0.12800000607967377, 1.008000047877431, 0.0, 0.0, 0.0, 0.0, 0.0, 1.6518370872472837E9, 0.0, 2022-05-06 12:38:07.247
86.0, -205.29432826768607, -33.591781402006745, -114.58492479240522, -145.7364214733243, 0.12800000607967377, 0.12800000607967377, 1.008000047877431, 0.0, 0.0, 0.0, 0.0, 0.0, 1.6518370872472837E9, 0.0, 2022-05-06 12:38:07.247
87.0, -223.86293154768646, -128.67125797551125, -150.25983046973124, -168.5198920033872, 0.12800000607967377, 0.12800000607967377, 1.008000047877431, 0.0, 0.0, 0.0, 0.0, 0.0, 1.6518370872483072E9, 0.0, 2022-05-06 12:38:07.248
87.0, -304.09126539714634, -272.26471677422523, -247.88991881301627, -219.85375879518688, 0.12800000607967377, 0.12800000607967377, 1.008000047877431, 0.0, 0.0, 0.0, 0.0, 0.0, 1.6518370872483072E9, 0.0, 2022-05-06 12:38:07.248
88.0, -293.05108072794974, -183.43835292663425, -219.79579034587368, -209.07536712288857, 0.12800000607967377, 0.12800000607967377, 1.008000047877431, 0.0, 0.0, 0.0, 0.0, 0.0, 1.651837087261294E9, 0.0, 2022-05-06 12:38:07.261
88.0, -204.2434163801372, -41.251096511259675, -121.49999981047586, -154.0726584745571, 0.12800000607967377, 0.12800000607967377, 1.008000047877431, 0.0, 0.0, 0.0, 0.0, 0.0, 1.651837087261294E9, 0.0, 2022-05-06 12:38:07.261
89.0, -219.53960719890893, -134.12777201086283, -154.22412442276254, -168.1533818077296, 0.12800000607967377, 0.12800000607967377, 1.008000047877431, 0.0, 0.0, 0.0, 0.0, 0.0, 1.6518370872773159E9, 0.0, 2022-05-06 12:38:07.277
89.0, -288.2490491848439, -265.62265445291996, -240.73923009773716, -215.52669454645365, 0.12800000607967377, 0.12800000607967377, 1.008000047877431, 0.0, 0.0, 0.0, 0.0, 0.0, 1.6518370872773159E9, 0.0, 2022-05-06 12:38:07.277
90.0, -280.97494377102703, -167.8205307116732, -204.90724862227216, -191.73719092831016, 0.12800000607967377, 0.12800000607967377, 1.008000047877431, 0.0, 0.0, 0.0, 0.0, 0.0, 1.6518370872782505E9, 0.0, 2022-05-06 12:38:07.278
90.0, -214.70765645615757, -40.1665255241096, -121.5598382097669, -158.43338182289153, 0.12800000607967377, 0.12800000607967377, 1.008000047877431, 0.0, 0.0, 0.0, 0.0, 0.0, 1.6518370872782505E9, 0.0, 2022-05-06 12:38:07.278
91.0, -227.13534400891513, -137.7367754681036, -158.05004207743332, -170.5207384796813, 0.12800000607967377, 0.12800000607967377, 1.008000047877431, 0.0, 0.0, 0.0, 0.0, 0.0, 1.651837087291285E9, 0.0, 2022-05-06 12:38:07.291
91.0, -305.46380868088454, -279.8641934841871, -255.89704461814836, -234.39074992295355, 0.12800000607967377, 0.12800000607967377, 1.008000047877431, 0.0, 0.0, 0.0, 0.0, 0.0, 1.651837087291285E9, 0.0, 2022-05-06 12:38:07.291
92.0, -282.78505534958094, -175.20309322420508, -215.2667714995332, -197.85192735586315, 0.12800000607967377, 0.12800000607967377, 1.008000047877431, 0.0, 0.0, 0.0, 0.0, 0.0, 1.6518370873072896E9, 0.0, 2022-05-06 12:38:07.307
92.0, -207.63924553990364, -28.95804535690695, -111.2564138318412, -129.60997286438942, 0.12800000607967377, 0.12800000607967377, 1.008000047877431, 0.0, 0.0, 0.0, 0.0, 0.0, 1.6518370873072896E9, 0.0, 2022-05-06 12:38:07.307
93.0, -212.16452448628843, -124.42647152580321, -149.2350978818722, -163.69542106054723, 0.12800000607967377, 0.12800000607967377, 1.008000047877431, 0.0, 0.0, 0.0, 0.0, 0.0, 1.6518370873082292E9, 0.0, 2022-05-06 12:38:07.308
93.0, -289.74126926716417, -266.164939946495, -237.70243133371696, -221.12158488016576, 0.12800000607967377, 0.12800000607967377, 1.008000047877431, 0.0, 0.0, 0.0, 0.0, 0.0, 1.6518370873082292E9, 0.0, 2022-05-06 12:38:07.308
94.0, -285.956490512006, -180.87652145698667, -214.0849631135352, -205.91889156028628, 0.12800000607967377, 0.12800000607967377, 1.008000047877431, 0.0, 0.0, 0.0, 0.0, 0.0, 1.6518370873212683E9, 0.0, 2022-05-06 12:38:07.321
94.0, -207.45973034203053, -35.10644088406116, -115.90884937671944, -148.6311040390283, 0.12800000607967377, 0.12800000607967377, 1.008000047877431, 0.0, 0.0, 0.0, 0.0, 0.0, 1.6518370873212683E9, 0.0, 2022-05-06 12:38:07.321
95.0, -227.24006120767444, -140.96430912986398, -155.3909732089378, -181.57962264865637, 0.12800000607967377, 0.12800000607967377, 1.008000047877431, 0.0, 0.0, 0.0, 0.0, 0.0, 1.651837087337289E9, 0.0, 2022-05-06 12:38:07.337
95.0, -312.0273331031203, -278.04660210572183, -257.5575601984747, -235.72589420713484, 0.12800000607967377, 0.12800000607967377, 1.008000047877431, 0.0, 0.0, 0.0, 0.0, 0.0, 1.651837087337289E9, 0.0, 2022-05-06 12:38:07.337
96.0, -274.8714270433411, -172.05035756155849, -209.61204276653007, -208.5405614292249, 0.12800000607967377, 0.12800000607967377, 1.008000047877431, 0.0, 0.0, 0.0, 0.0, 0.0, 1.6518370873382444E9, 0.0, 2022-05-06 12:38:07.338
96.0, -210.12253911048174, -41.307195010595024, -123.00717949261889, -157.17677543777972, 0.12800000607967377, 0.12800000607967377, 1.008000047877431, 0.0, 0.0, 0.0, 0.0, 0.0, 1.6518370873382444E9, 0.0, 2022-05-06 12:38:07.338
97.0, -224.78668683674186, -137.0972525756806, -150.19251227052882, -170.24398588296026, 0.12800000607967377, 0.12800000607967377, 1.008000047877431, 0.0, 0.0, 0.0, 0.0, 0.0, 1.651837087351302E9, 0.0, 2022-05-06 12:38:07.351
97.0, -297.26594797801226, -274.3889799490571, -246.71559022692963, -215.92312394175678, 0.12800000607967377, 0.12800000607967377, 1.008000047877431, 0.0, 0.0, 0.0, 0.0, 0.0, 1.651837087351302E9, 0.0, 2022-05-06 12:38:07.351
98.0, -279.7183373859152, -173.60989584308118, -210.50961875589564, -186.87906088586897, 0.12800000607967377, 0.12800000607967377, 1.008000047877431, 0.0, 0.0, 0.0, 0.0, 0.0, 1.6518370873673143E9, 0.0, 2022-05-06 12:38:07.367
98.0, -206.22930325660855, -33.217791406437755, -119.89558272948489, -150.9648016113788, 0.12800000607967377, 0.12800000607967377, 1.008000047877431, 0.0, 0.0, 0.0, 0.0, 0.0, 1.6518370873673143E9, 0.0, 2022-05-06 12:38:07.367
99.0, -221.72370877303183, -140.55666003469378, -152.50751034310088, -179.80317016970366, 0.12800000607967377, 0.12800000607967377, 1.008000047877431, 0.0, 0.0, 0.0, 0.0, 0.0, 1.6518370873823671E9, 0.0, 2022-05-06 12:38:07.382
99.0, -302.38213111739606, -277.26122311502695, -252.44885685900226, -240.09783725533634, 0.12800000607967377, 0.12800000607967377, 1.008000047877431, 0.0, 0.0, 0.0, 0.0, 0.0, 1.6518370873823671E9, 0.0, 2022-05-06 12:38:07.382
100.0, -284.9579372238368, -174.6346284309402, -213.66983421845362, -210.07766031101346, 0.12800000607967377, 0.12800000607967377, 1.0240000486373901, 0.0, 0.0, 0.0, 0.0, 0.0, 1.6518370873983274E9, 0.0, 2022-05-06 12:38:07.398
100.0, -212.90876457747072, -42.055175001733005, -121.52243921021, -151.0022006109357, 0.12800000607967377, 0.12800000607967377, 1.0240000486373901, 0.0, 0.0, 0.0, 0.0, 0.0, 1.6518370873983274E9, 0.0, 2022-05-06 12:38:07.398
0.0, -230.45076531963423, -145.04267003154382, -159.55348185962066, -174.07364343758672, 0.12800000607967377, 0.12800000607967377, 1.0240000486373901, 0.0, 0.0, 0.0, 0.0, 0.0, 1.651837087399239E9, 0.0, 2022-05-06 12:38:07.399
1.0, -294.2384989638813, -265.76290070125833, -247.09332012245432, -223.82553254812956, 0.12800000607967377, 0.12800000607967377, 1.0240000486373901, 0.0, 0.0, 0.0, 0.0, 0.0, 1.6518370874002278E9, 0.0, 2022-05-06 12:38:07.400
1.0, -275.09395109070465, -171.34164651995525, -209.75415896484628, -203.63755258731544, 0.12800000607967377, 0.12800000607967377, 1.0240000486373901, 0.0, 0.0, 0.0, 0.0, 0.0, 1.6518370874002278E9, 0.0, 2022-05-06 12:38:07.400
2.0, -204.88106932258233, -33.49267405318096, -114.6260636919178, -137.71807596832514, 0.12800000607967377, 0.12800000607967377, 1.0240000486373901, 0.0, 0.0, 0.0, 0.0, 0.0, 1.6518370874012756E9, 0.0, 2022-05-06 12:38:07.401
2.0, -216.10824898956344, -132.7832779767923, -147.74661769950762, -165.80098473560065, 0.12800000607967377, 0.12800000607967377, 1.0240000486373901, 0.0, 0.0, 0.0, 0.0, 0.0, 1.6518370874012756E9, 0.0, 2022-05-06 12:38:07.401
3.0, -292.3835085858591, -264.94760251091793, -241.81258138502017, -222.81575956009328, 0.12800000607967377, 0.12800000607967377, 1.0240000486373901, 0.0, 0.0, 0.0, 0.0, 0.0, 1.6518370874112713E9, 0.0, 2022-05-06 12:38:07.411
3.0, -279.3424774403684, -170.5861867289059, -209.02113857353106, -202.84469379670918, 0.12800000607967377, 0.12800000607967377, 1.0240000486373901, 0.0, 0.0, 0.0, 0.0, 0.0, 1.6518370874112713E9, 0.0, 2022-05-06 12:38:07.411
4.0, -210.4161212570034, -37.064278510864824, -123.31385128898546, -145.89349727146327, 0.12800000607967377, 0.12800000607967377, 1.0240000486373901, 0.0, 0.0, 0.0, 0.0, 0.0, 1.6518370874263341E9, 0.0, 2022-05-06 12:38:07.426
4.0, -226.09752177121118, -143.80476314621046, -157.93036527885124, -175.457406421192, 0.12800000607967377, 0.12800000607967377, 1.0240000486373901, 0.0, 0.0, 0.0, 0.0, 0.0, 1.6518370874263341E9, 0.0, 2022-05-06 12:38:07.426
5.0, -303.2329583573155, -280.6776217245497, -251.18851057393476, -237.93991498090327, 0.12800000607967377, 0.12800000607967377, 1.0240000486373901, 0.0, 0.0, 0.0, 0.0, 0.0, 1.651837087442294E9, 0.0, 2022-05-06 12:38:07.442
5.0, -291.5569906956516, -187.4381759292446, -222.79893001029268, -211.83541329018772, 0.12800000607967377, 0.12800000607967377, 1.0240000486373901, 0.0, 0.0, 0.0, 0.0, 0.0, 1.651837087442294E9, 0.0, 2022-05-06 12:38:07.442
6.0, -212.49924553232267, -53.119669020641595, -125.67372816102579, -158.05565192736685, 0.12800000607967377, 0.12800000607967377, 1.0240000486373901, 0.0, 0.0, 0.0, 0.0, 0.0, 1.6518370874432304E9, 0.0, 2022-05-06 12:38:07.443
6.0, -224.941892684903, -140.77170428214595, -147.7578373993747, -152.19522869680077, 0.12800000607967377, 0.12800000607967377, 1.0240000486373901, 0.0, 0.0, 0.0, 0.0, 0.0, 1.6518370874432304E9, 0.0, 2022-05-06 12:38:07.443
7.0, -292.9257940794341, -262.86821813555434, -239.25074991537258, -220.1005921922624, 0.12800000607967377, 0.12800000607967377, 1.0240000486373901, 0.0, 0.0, 0.0, 0.0, 0.0, 1.65183708745629E9, 0.0, 2022-05-06 12:38:07.456
7.0, -269.5439395564608, -165.92253148416057, -202.94380114553496, -199.63959953468293, 0.12800000607967377, 0.12800000607967377, 1.0240000486373901, 0.0, 0.0, 0.0, 0.0, 0.0, 1.65183708745629E9, 0.0, 2022-05-06 12:38:07.456
8.0, -189.91024979995564, -24.31121966196224, -106.76853388501331, -148.60492473933846, 0.12800000607967377, 0.12800000607967377, 1.0240000486373901, 0.0, 0.0, 0.0, 0.0, 0.0, 1.6518370874722755E9, 0.0, 2022-05-06 12:38:07.472
8.0, -229.25399733381346, -140.62210828391835, -156.36708709737286, -181.11587505415082, 0.12800000607967377, 0.12800000607967377, 1.0240000486373901, 0.0, 0.0, 0.0, 0.0, 0.0, 1.6518370874722755E9, 0.0, 2022-05-06 12:38:07.472
9.0, -302.0548898712732, -276.57869137311354, -254.37116543622687, -242.36421662848443, 0.12800000607967377, 0.12800000607967377, 1.0240000486373901, 0.0, 0.0, 0.0, 0.0, 0.0, 1.651837087473282E9, 0.0, 2022-05-06 12:38:07.473
9.0, -276.1598225780763, -167.70272386306897, -206.09279690822586, -207.12313934601843, 0.12800000607967377, 0.12800000607967377, 1.0240000486373901, 0.0, 0.0, 0.0, 0.0, 0.0, 1.651837087473282E9, 0.0, 2022-05-06 12:38:07.473
10.0, -204.80253142351285, -32.8868102603592, -111.33869163086638, -144.5508731873706, 0.12800000607967377, 0.12800000607967377, 1.0240000486373901, 0.0, 0.0, 0.0, 0.0, 0.0, 1.6518370874862864E9, 0.0, 2022-05-06 12:38:07.486
10.0, -222.28656371636316, -137.80222371732816, -153.62574042985216, -169.7465791888535, 0.12800000607967377, 0.12800000607967377, 1.0240000486373901, 0.0, 0.0, 0.0, 0.0, 0.0, 1.6518370874862864E9, 0.0, 2022-05-06 12:38:07.486
11.0, -288.1574216359295, -263.6311577265151, -242.26136937970296, -220.6952362852171, 0.12800000607967377, 0.12800000607967377, 1.0240000486373901, 0.0, 0.0, 0.0, 0.0, 0.0, 1.65183708750234E9, 0.0, 2022-05-06 12:38:07.502
11.0, -264.91020351136103, -159.50860306015238, -202.9998996448703, -187.8626545742154, 0.12800000607967377, 0.12800000607967377, 1.0240000486373901, 0.0, 0.0, 0.0, 0.0, 0.0, 1.65183708750234E9, 0.0, 2022-05-06 12:38:07.502
12.0, -193.777306354139, -31.19637548038736, -113.960361499805, -143.49622139986604, 0.12800000607967377, 0.12800000607967377, 1.0240000486373901, 0.0, 0.0, 0.0, 0.0, 0.0, 1.651837087517308E9, 0.0, 2022-05-06 12:38:07.517
12.0, -225.85068837413564, -147.63442070083693, -157.01034988975152, -170.790011276491, 0.12800000607967377, 0.12800000607967377, 1.0240000486373901, 0.0, 0.0, 0.0, 0.0, 0.0, 1.651837087517308E9, 0.0, 2022-05-06 12:38:07.517
13.0, -295.13607495324686, -269.8580911527388, -236.03817585343495, -220.13051139190793, 0.12800000607967377, 0.12800000607967377, 1.0240000486373901, 0.0, 0.0, 0.0, 0.0, 0.0, 1.6518370875182352E9, 0.0, 2022-05-06 12:38:07.518
13.0, -278.02229275600985, -164.6547053991817, -200.45676767500117, -196.12409357633442, 0.12800000607967377, 0.12800000607967377, 1.0240000486373901, 0.0, 0.0, 0.0, 0.0, 0.0, 1.6518370875182352E9, 0.0, 2022-05-06 12:38:07.518
14.0, -202.99241984495893, -28.967395106796175, -109.7006154502742, -143.26808750256896, 0.12800000607967377, 0.12800000607967377, 1.0240000486373901, 0.0, 0.0, 0.0, 0.0, 0.0, 1.651837087532288E9, 0.0, 2022-05-06 12:38:07.532
14.0, -217.7126660705544, -135.50592514453456, -150.69365886459127, -161.60107708536088, 0.12800000607967377, 0.12800000607967377, 1.0240000486373901, 0.0, 0.0, 0.0, 0.0, 0.0, 1.651837087532288E9, 0.0, 2022-05-06 12:38:07.532
15.0, -293.77101146942005, -275.8942896812223, -246.15834513353184, -225.20929553173482, 0.12800000607967377, 0.12800000607967377, 1.0240000486373901, 0.0, 0.0, 0.0, 0.0, 0.0, 1.6518370875332909E9, 0.0, 2022-05-06 12:38:07.533
15.0, -265.9573754989542, -163.85810670861974, -201.68719476042315, -189.6428469531238, 0.12800000607967377, 0.12800000607967377, 1.0240000486373901, 0.0, 0.0, 0.0, 0.0, 0.0, 1.6518370875332909E9, 0.0, 2022-05-06 12:38:07.533
16.0, -208.02632518531755, -35.14944973355159, -116.03974587516859, -147.8532048482448, 0.12800000607967377, 0.12800000607967377, 1.0240000486373901, 0.0, 0.0, 0.0, 0.0, 0.0, 1.6518370875462875E9, 0.0, 2022-05-06 12:38:07.546
16.0, -227.07737555960193, -145.78317022277042, -152.67206594115123, -169.55584429111332, 0.12800000607967377, 0.12800000607967377, 1.0240000486373901, 0.0, 0.0, 0.0, 0.0, 0.0, 1.6518370875462875E9, 0.0, 2022-05-06 12:38:07.546
17.0, -291.7514654933475, -268.13025737321004, -239.36294691404328, -228.7023620903492, 0.12800000607967377, 0.12800000607967377, 1.0240000486373901, 0.0, 0.0, 0.0, 0.0, 0.0, 1.6518370875622728E9, 0.0, 2022-05-06 12:38:07.562
17.0, -272.4049630225636, -162.41450532572344, -192.9657480637543, -181.89003434497863, 0.12800000607967377, 0.12800000607967377, 1.0240000486373901, 0.0, 0.0, 0.0, 0.0, 0.0, 1.6518370875622728E9, 0.0, 2022-05-06 12:38:07.562
18.0, -199.50683308625594, -32.04533277032897, -112.47562121739611, -148.68720253836364, 0.12800000607967377, 0.12800000607967377, 1.0240000486373901, 0.0, 0.0, 0.0, 0.0, 0.0, 1.6518370875632277E9, 0.0, 2022-05-06 12:38:07.563
18.0, -223.37861450342461, -147.9410924972035, -157.03652918944135, -175.2666715234518, 0.12800000607967377, 0.12800000607967377, 1.0240000486373901, 0.0, 0.0, 0.0, 0.0, 0.0, 1.6518370875632277E9, 0.0, 2022-05-06 12:38:07.563
19.0, -294.7546051577665, -272.7004151190631, -242.51942247664556, -230.13848367333412, 0.12800000607967377, 0.12800000607967377, 1.0240000486373901, 0.0, 0.0, 0.0, 0.0, 0.0, 1.651837087576316E9, 0.0, 2022-05-06 12:38:07.576
19.0, -269.5140203568153, -166.41619827831164, -204.2976449294947, -195.51822978351265, 0.12800000607967377, 0.12800000607967377, 1.0240000486373901, 0.0, 0.0, 0.0, 0.0, 0.0, 1.651837087576316E9, 0.0, 2022-05-06 12:38:07.576
20.0, -198.97202739259228, -36.35369751928374, -116.02478627534583, -154.1885953731835, 0.12800000607967377, 0.12800000607967377, 1.0240000486373901, 0.0, 0.0, 0.0, 0.0, 0.0, 1.6518370876243017E9, 0.0, 2022-05-06 12:38:07.624
20.0, -224.00317779602483, -144.2722506406717, -148.80874928692356, -166.84067692328244, 0.12800000607967377, 0.12800000607967377, 1.0240000486373901, 0.0, 0.0, 0.0, 0.0, 0.0, 1.6518370876243017E9, 0.0, 2022-05-06 12:38:07.624
21.0, -293.9093877677806, -269.8954901522957, -240.45125780114904, -222.97283535823226, 0.12800000607967377, 0.12800000607967377, 1.0240000486373901, 0.0, 0.0, 0.0, 0.0, 0.0, 1.6518370876252308E9, 0.0, 2022-05-06 12:38:07.625
21.0, -273.82612500572577, -164.7295033982955, -210.34880305780098, -203.05038829427212, 0.12800000607967377, 0.12800000607967377, 1.0240000486373901, 0.0, 0.0, 0.0, 0.0, 0.0, 1.6518370876252308E9, 0.0, 2022-05-06 12:38:07.625
22.0, -206.80337789980695, -37.400869506876916, -119.5552518335171, -153.17134258523583, 0.12800000607967377, 0.12800000607967377, 1.0240000486373901, 0.0, 0.0, 0.0, 0.0, 0.0, 1.6518370876262853E9, 0.0, 2022-05-06 12:38:07.626
22.0, -226.62110776500776, -148.81996898679063, -158.3903729734011, -172.5290647558868, 0.12800000607967377, 0.12800000607967377, 1.0240000486373901, 0.0, 0.0, 0.0, 0.0, 0.0, 1.6518370876262853E9, 0.0, 2022-05-06 12:38:07.626
23.0, -300.8356824857183, -275.2510268888436, -252.5423543578945, -229.2558672837913, 0.12800000607967377, 0.12800000607967377, 1.0240000486373901, 0.0, 0.0, 0.0, 0.0, 0.0, 1.651837087627224E9, 0.0, 2022-05-06 12:38:07.627
23.0, -271.19697533687577, -162.84833372058347, -204.17796813091263, -198.67096544615924, 0.12800000607967377, 0.12800000607967377, 1.0240000486373901, 0.0, 0.0, 0.0, 0.0, 0.0, 1.651837087627224E9, 0.0, 2022-05-06 12:38:07.627
24.0, -206.9342743982561, -41.11459016287699, -121.30178511282429, -145.26893397886306, 0.12800000607967377, 0.12800000607967377, 1.0240000486373901, 0.0, 0.0, 0.0, 0.0, 0.0, 1.651837087637297E9, 0.0, 2022-05-06 12:38:07.637
24.0, -237.279822638724, -155.9407385024242, -165.241869692225, -187.0099573843181, 0.12800000607967377, 0.12800000607967377, 1.0240000486373901, 0.0, 0.0, 0.0, 0.0, 0.0, 1.651837087637297E9, 0.0, 2022-05-06 12:38:07.637
25.0, -295.2295724521391, -274.57410499686375, -245.82923393743113, -224.67822973802686, 0.12800000607967377, 0.12800000607967377, 1.0240000486373901, 0.0, 0.0, 0.0, 0.0, 0.0, 1.6518370876382537E9, 0.0, 2022-05-06 12:38:07.638
25.0, -277.7006613598205, -167.83362036151811, -212.27485153498128, -206.30784115567803, 0.12800000607967377, 0.12800000607967377, 1.0240000486373901, 0.0, 0.0, 0.0, 0.0, 0.0, 1.6518370876382537E9, 0.0, 2022-05-06 12:38:07.638
26.0, -212.36834903387353, -36.32003841968253, -112.81595211336389, -145.2539743790403, 0.12800000607967377, 0.12800000607967377, 1.0240000486373901, 0.0, 0.0, 0.0, 0.0, 0.0, 1.6518370876522949E9, 0.0, 2022-05-06 12:38:07.652
26.0, -231.44183880789205, -149.50437067868188, -163.62997281132266, -172.57020365539938, 0.12800000607967377, 0.12800000607967377, 1.0240000486373901, 0.0, 0.0, 0.0, 0.0, 0.0, 1.6518370876522949E9, 0.0, 2022-05-06 12:38:07.652
27.0, -292.35358938621357, -271.8140588295646, -246.5472947289236, -224.07984574511647, 0.12800000607967377, 0.12800000607967377, 1.0240000486373901, 0.0, 0.0, 0.0, 0.0, 0.0, 1.6518370876532276E9, 0.0, 2022-05-06 12:38:07.653
27.0, -273.3436779114418, -164.85292009683326, -210.21416665939614, -197.26102316286415, 0.12800000607967377, 0.12800000607967377, 1.0240000486373901, 0.0, 0.0, 0.0, 0.0, 0.0, 1.6518370876532276E9, 0.0, 2022-05-06 12:38:07.653
28.0, -222.0846091187559, -48.242839478421956, -134.10346266115084, -164.42844145186245, 0.12800000607967377, 0.12800000607967377, 1.0240000486373901, 0.0, 0.0, 0.0, 0.0, 0.0, 1.6518370876663055E9, 0.0, 2022-05-06 12:38:07.666
28.0, -238.42049212520942, -158.2819158746861, -166.52839527698234, -187.70931867603213, 0.12800000607967377, 0.12800000607967377, 1.0240000486373901, 0.0, 0.0, 0.0, 0.0, 0.0, 1.6518370876663055E9, 0.0, 2022-05-06 12:38:07.666
29.0, -316.9135123952292, -289.7842781166546, -262.3221927420236, -246.21257368288934, 0.12800000607967377, 0.12800000607967377, 1.0240000486373901, 0.0, 0.0, 0.0, 0.0, 0.0, 1.6518370876822913E9, 0.0, 2022-05-06 12:38:07.682
29.0, -287.970426638145, -170.2458558329381, -208.84910317556933, -204.56504777632654, 0.12800000607967377, 0.12800000607967377, 1.0240000486373901, 0.0, 0.0, 0.0, 0.0, 0.0, 1.6518370876822913E9, 0.0, 2022-05-06 12:38:07.682
30.0, -201.6684952606447, -31.798499373253435, -110.43737574154511, -131.36772584356368, 0.12800000607967377, 0.12800000607967377, 1.0240000486373901, 0.0, 0.0, 0.0, 0.0, 0.0, 1.6518370876832488E9, 0.0, 2022-05-06 12:38:07.683
30.0, -246.49867602949962, -161.55058843595907, -165.81407438544556, -181.98353184387088, 0.12800000607967377, 0.12800000607967377, 1.0240000486373901, 0.0, 0.0, 0.0, 0.0, 0.0, 1.6518370876832488E9, 0.0, 2022-05-06 12:38:07.683
31.0, -304.5643627415411, -275.1949283895083, -251.66721776826307, -229.87295077648014, 0.12800000607967377, 0.12800000607967377, 1.0240000486373901, 0.0, 0.0, 0.0, 0.0, 0.0, 1.6518370876963084E9, 0.0, 2022-05-06 12:38:07.696
31.0, -285.7077871649526, -174.842192878481, -218.43820666195825, -213.52584807015955, 0.12800000607967377, 0.12800000607967377, 1.0240000486373901, 0.0, 0.0, 0.0, 0.0, 0.0, 1.6518370876963084E9, 0.0, 2022-05-06 12:38:07.696
32.0, -217.2376987761818, -52.89153512334451, -124.72379357228056, -160.72594049572945, 0.12800000607967377, 0.12800000607967377, 1.0240000486373901, 0.0, 0.0, 0.0, 0.0, 0.0, 1.6518370877123106E9, 0.0, 2022-05-06 12:38:07.712
32.0, -239.37790651386604, -153.8650940270163, -156.99165038997307, -175.74163881782442, 0.12800000607967377, 0.12800000607967377, 1.0240000486373901, 0.0, 0.0, 0.0, 0.0, 0.0, 1.6518370877123106E9, 0.0, 2022-05-06 12:38:07.712
33.0, -303.92109994916245, -270.7070484426804, -254.60303923347965, -232.16924934927374, 0.12800000607967377, 0.12800000607967377, 1.0240000486373901, 0.0, 0.0, 0.0, 0.0, 0.0, 1.651837087713209E9, 0.0, 2022-05-06 12:38:07.713
33.0, -281.84447051072493, -161.06440144171938, -211.10052294889465, -205.2083105687052, 0.12800000607967377, 0.12800000607967377, 1.0240000486373901, 0.0, 0.0, 0.0, 0.0, 0.0, 1.651837087713209E9, 0.0, 2022-05-06 12:38:07.713
34.0, -199.28617898887023, -27.55745282350108, -107.4379759770818, -138.22670236229897, 0.12800000607967377, 0.12800000607967377, 1.0240000486373901, 0.0, 0.0, 0.0, 0.0, 0.0, 1.651837087726333E9, 0.0, 2022-05-06 12:38:07.726
34.0, -230.6788992169313, -147.1220544069074, -155.39845300884917, -173.57249684352428, 0.12800000607967377, 0.12800000607967377, 1.0240000486373901, 0.0, 0.0, 0.0, 0.0, 0.0, 1.651837087726333E9, 0.0, 2022-05-06 12:38:07.726
35.0, -295.0911961537786, -272.8799303169362, -243.768549061846, -216.1026391396299, 0.12800000607967377, 0.12800000607967377, 1.0240000486373901, 0.0, 0.0, 0.0, 0.0, 0.0, 1.6518370877422693E9, 0.0, 2022-05-06 12:38:07.742
35.0, -277.64456286048517, -153.9024930265732, -192.28508627181873, -180.77928405813873, 0.12800000607967377, 0.12800000607967377, 1.0240000486373901, 0.0, 0.0, 0.0, 0.0, 0.0, 1.6518370877422693E9, 0.0, 2022-05-06 12:38:07.742
36.0, -202.99615974491462, -35.94604842411354, -114.82427838956937, -147.20620215591043, 0.12800000607967377, 0.12800000607967377, 1.0240000486373901, 0.0, 0.0, 0.0, 0.0, 0.0, 1.651837087743265E9, 0.0, 2022-05-06 12:38:07.743
36.0, -243.85830666078255, -164.29567500343546, -171.8016542145051, -180.3454556632787, 0.12800000607967377, 0.12800000607967377, 1.0240000486373901, 0.0, 0.0, 0.0, 0.0, 0.0, 1.651837087743265E9, 0.0, 2022-05-06 12:38:07.743
37.0, -317.81482828455046, -280.4943666267209, -265.13085760874674, -246.05549788475037, 0.12800000607967377, 0.12800000607967377, 1.0240000486373901, 0.0, 0.0, 0.0, 0.0, 0.0, 1.6518370877562768E9, 0.0, 2022-05-06 12:38:07.756
37.0, -284.72045357665047, -168.82469384977594, -213.3743821219541, -212.7329892795533, 0.12800000607967377, 0.12800000607967377, 1.0240000486373901, 0.0, 0.0, 0.0, 0.0, 0.0, 1.6518370877562768E9, 0.0, 2022-05-06 12:38:07.756
38.0, -201.87044985825196, -29.281546703074127, -104.6218313104473, -137.25806827377528, 0.12800000607967377, 0.12800000607967377, 1.0240000486373901, 0.0, 0.0, 0.0, 0.0, 0.0, 1.6518370877722757E9, 0.0, 2022-05-06 12:38:07.772
38.0, -233.15471298759803, -155.02820291323587, -158.55118867149577, -165.18016134295613, 0.12800000607967377, 0.12800000607967377, 1.0240000486373901, 0.0, 0.0, 0.0, 0.0, 0.0, 1.6518370877722757E9, 0.0, 2022-05-06 12:38:07.772
39.0, -292.0020387903787, -263.2571677309461, -237.39949943730608, -208.9482105243951, 0.12800000607967377, 0.12800000607967377, 1.0240000486373901, 0.0, 0.0, 0.0, 0.0, 0.0, 1.6518370877732327E9, 0.0, 2022-05-06 12:38:07.773
39.0, -272.20674832491204, -151.3855403563939, -203.4486876395531, -206.8800458488986, 0.12800000607967377, 0.12800000607967377, 1.0240000486373901, 0.0, 0.0, 0.0, 0.0, 0.0, 1.6518370877732327E9, 0.0, 2022-05-06 12:38:07.773
40.0, -215.11343560134992, -39.476513982284814, -120.05639842757955, -154.91413596458733, 0.12800000607967377, 0.12800000607967377, 1.0240000486373901, 0.0, 0.0, 0.0, 0.0, 0.0, 1.6518370877863045E9, 0.0, 2022-05-06 12:38:07.786
40.0, -242.0968137816526, -155.84350110357627, -166.37879927875474, -179.56007667258382, 0.12800000607967377, 0.12800000607967377, 1.0240000486373901, 0.0, 0.0, 0.0, 0.0, 0.0, 1.6518370877863045E9, 0.0, 2022-05-06 12:38:07.786
41.0, -302.02497067162767, -269.76085375389084, -246.19948403304443, -219.75278149638325, 0.12800000607967377, 0.12800000607967377, 1.0240000486373901, 0.0, 0.0, 0.0, 0.0, 0.0, 1.6518370878022952E9, 0.0, 2022-05-06 12:38:07.802
41.0, -281.8631700105034, -158.60354727087542, -204.7800920237787, -198.25209665112197, 0.12800000607967377, 0.12800000607967377, 1.0240000486373901, 0.0, 0.0, 0.0, 0.0, 0.0, 1.6518370878022952E9, 0.0, 2022-05-06 12:38:07.802
42.0, -207.94030748633668, -42.41233544750139, -126.14869545539841, -151.89977660030127, 0.12800000607967377, 0.12800000607967377, 1.0240000486373901, 0.0, 0.0, 0.0, 0.0, 0.0, 1.6518370878032308E9, 0.0, 2022-05-06 12:38:07.803
42.0, -243.40577876614407, -157.47035758430138, -163.095167117659, -179.7545514702797, 0.12800000607967377, 0.12800000607967377, 1.0240000486373901, 0.0, 0.0, 0.0, 0.0, 0.0, 1.6518370878032308E9, 0.0, 2022-05-06 12:38:07.803
43.0, -313.5289029353298, -277.1546359662898, -255.90826431801543, -232.15428974945098, 0.12800000607967377, 0.12800000607967377, 1.0240000486373901, 0.0, 0.0, 0.0, 0.0, 0.0, 1.6518370878162663E9, 0.0, 2022-05-06 12:38:07.816
43.0, -276.12616347847506, -160.92976504331455, -205.16530171921477, -207.3587530432269, 0.12800000607967377, 0.12800000607967377, 1.0240000486373901, 0.0, 0.0, 0.0, 0.0, 0.0, 1.6518370878162663E9, 0.0, 2022-05-06 12:38:07.816
44.0, -210.02343176165596, -38.79959209030494, -118.22758734924719, -148.02524024620652, 0.12800000607967377, 0.12800000607967377, 1.0240000486373901, 0.0, 0.0, 0.0, 0.0, 0.0, 1.651837087832325E9, 0.0, 2022-05-06 12:38:07.832
44.0, -243.85456676082686, -158.81298166839406, -167.05198127077892, -184.44438601471484, 0.12800000607967377, 0.12800000607967377, 1.0240000486373901, 0.0, 0.0, 0.0, 0.0, 0.0, 1.651837087832325E9, 0.0, 2022-05-06 12:38:07.832
45.0, -309.89372017839924, -274.12905690213665, -246.11720623401925, -228.01796039845794, 0.12800000607967377, 0.12800000607967377, 1.0240000486373901, 0.0, 0.0, 0.0, 0.0, 0.0, 1.6518370878332283E9, 0.0, 2022-05-06 12:38:07.833
45.0, -277.95497455680743, -160.4323583492078, -207.02777189714834, -202.39964570198208, 0.12800000607967377, 0.12800000607967377, 1.0240000486373901, 0.0, 0.0, 0.0, 0.0, 0.0, 1.6518370878332283E9, 0.0, 2022-05-06 12:38:07.833
46.0, -215.7828776934184, -43.77365903137252, -120.84925721818581, -148.93029603548348, 0.12800000607967377, 0.12800000607967377, 1.0240000486373901, 0.0, 0.0, 0.0, 0.0, 0.0, 1.65183708784632E9, 0.0, 2022-05-06 12:38:07.846
46.0, -242.4633239773102, -169.37445914326236, -175.0254479763098, -188.59941486548632, 0.12800000607967377, 0.12800000607967377, 1.0240000486373901, 0.0, 0.0, 0.0, 0.0, 0.0, 1.65183708784632E9, 0.0, 2022-05-06 12:38:07.846
47.0, -295.61852204753086, -264.24076141929254, -238.41301232529804, -214.81237365491688, 0.12800000607967377, 0.12800000607967377, 1.0240000486373901, 0.0, 0.0, 0.0, 0.0, 0.0, 1.6518370878622675E9, 0.0, 2022-05-06 12:38:07.862
47.0, -265.5085875042714, -150.55528256623074, -191.49970728112385, -177.03564420249313, 0.12800000607967377, 0.12800000607967377, 1.0240000486373901, 0.0, 0.0, 0.0, 0.0, 0.0, 1.6518370878622675E9, 0.0, 2022-05-06 12:38:07.862
48.0, -210.88734865142033, -35.70669482694939, -111.56308562820777, -140.51926103513688, 0.12800000607967377, 0.12800000607967377, 1.0240000486373901, 0.0, 0.0, 0.0, 0.0, 0.0, 1.6518370878632493E9, 0.0, 2022-05-06 12:38:07.863
48.0, -235.37995346123353, -159.81901475647464, -163.39809901406989, -184.8295957101509, 0.12800000607967377, 0.12800000607967377, 1.0240000486373901, 0.0, 0.0, 0.0, 0.0, 0.0, 1.6518370878632493E9, 0.0, 2022-05-06 12:38:07.863
49.0, -310.07323537627235, -279.42849513934925, -256.0391608164646, -246.9717733738944, 0.12800000607967377, 0.12800000607967377, 1.0240000486373901, 0.0, 0.0, 0.0, 0.0, 0.0, 1.6518370878762684E9, 0.0, 2022-05-06 12:38:07.876
49.0, -278.72165404772386, -151.4939974551089, -200.46050757495686, -206.7977680498734, 0.12800000607967377, 0.12800000607967377, 1.0240000486373901, 0.0, 0.0, 0.0, 0.0, 0.0, 1.6518370878762684E9, 0.0, 2022-05-06 12:38:07.876
50.0, -205.76368571212515, -39.69716807967052, -113.20116180879995, -141.59261232241988, 0.12800000607967377, 0.12800000607967377, 1.0240000486373901, 0.0, 0.0, 0.0, 0.0, 0.0, 1.6518370878923044E9, 0.0, 2022-05-06 12:38:07.892
50.0, -235.18921856349334, -154.20916482293978, -156.281069398392, -167.27450531814247, 0.12800000607967377, 0.12800000607967377, 1.0240000486373901, 0.0, 0.0, 0.0, 0.0, 0.0, 1.6518370878923044E9, 0.0, 2022-05-06 12:38:07.892
51.0, -304.758837539237, -270.4452554457821, -249.0642473991029, -235.68101540766656, 0.12800000607967377, 0.12800000607967377, 1.0240000486373901, 0.0, 0.0, 0.0, 0.0, 0.0, 1.651837087893231E9, 0.0, 2022-05-06 12:38:07.893
51.0, -269.9590684515424, -148.51703709037974, -198.61299699684605, -197.56395505927503, 0.12800000607967377, 0.12800000607967377, 1.0240000486373901, 0.0, 0.0, 0.0, 0.0, 0.0, 1.651837087893231E9, 0.0, 2022-05-06 12:38:07.893
52.0, -207.1511885956861, -41.009872964117676, -118.08173125097528, -149.52868002839386, 0.12800000607967377, 0.12800000607967377, 1.0240000486373901, 0.0, 0.0, 0.0, 0.0, 0.0, 1.6518370879062712E9, 0.0, 2022-05-06 12:38:07.906
52.0, -240.82898769667372, -166.2853017798625, -173.56314709363505, -185.8692878978327, 0.12800000607967377, 0.12800000607967377, 1.0240000486373901, 0.0, 0.0, 0.0, 0.0, 0.0, 1.6518370879062712E9, 0.0, 2022-05-06 12:38:07.906
53.0, -318.4693107767962, -282.53635200252756, -267.42341628158465, -242.86536322254688, 0.12800000607967377, 0.12800000607967377, 1.0240000486373901, 0.0, 0.0, 0.0, 0.0, 0.0, 1.651837087922284E9, 0.0, 2022-05-06 12:38:07.922
53.0, -281.4143820158206, -152.0549824484624, -200.57644447358325, -197.47419746033847, 0.12800000607967377, 0.12800000607967377, 1.0240000486373901, 0.0, 0.0, 0.0, 0.0, 0.0, 1.651837087922284E9, 0.0, 2022-05-06 12:38:07.922
54.0, -207.43542099231854, -39.884163077455014, -106.87325108377263, -132.20546343363822, 0.12800000607967377, 0.12800000607967377, 1.0240000486373901, 0.0, 0.0, 0.0, 0.0, 0.0, 1.6518370879232132E9, 0.0, 2022-05-06 12:38:07.923
54.0, -240.23434360371903, -161.0606615417637, -165.51114248903468, -175.20309322420508, 0.12800000607967377, 0.12800000607967377, 1.0240000486373901, 0.0, 0.0, 0.0, 0.0, 0.0, 1.6518370879232132E9, 0.0, 2022-05-06 12:38:07.923
55.0, -307.4665251071565, -271.9225159282796, -253.60074604535475, -236.43273529876024, 0.12800000607967377, 0.12800000607967377, 1.0240000486373901, 0.0, 0.0, 0.0, 0.0, 0.0, 1.6518370879533365E9, 0.0, 2022-05-06 12:38:07.953
55.0, -282.3830161043443, -161.22895703976974, -207.47281999187544, -213.18925707414746, 0.12800000607967377, 0.12800000607967377, 1.0240000486373901, 0.0, 0.0, 0.0, 0.0, 0.0, 1.6518370879533365E9, 0.0, 2022-05-06 12:38:07.953
56.0, -216.65801428304985, -49.3386301654391, -130.09802980860695, -160.61374349705875, 0.12800000607967377, 0.12800000607967377, 1.0240000486373901, 0.0, 0.0, 0.0, 0.0, 0.0, 1.651837087954244E9, 0.0, 2022-05-06 12:38:07.954
56.0, -230.58540171803907, -158.74566346919164, -161.64408593485132, -175.92489391565323, 0.12800000607967377, 0.12800000607967377, 1.0240000486373901, 0.0, 0.0, 0.0, 0.0, 0.0, 1.651837087954244E9, 0.0, 2022-05-06 12:38:07.954
57.0, -301.8604150735773, -273.13424351392314, -243.95928395958617, -214.3935048598796, 0.12800000607967377, 0.12800000607967377, 1.0240000486373901, 0.0, 0.0, 0.0, 0.0, 0.0, 1.6518370879552343E9, 0.0, 2022-05-06 12:38:07.955
57.0, -279.05824504373595, -162.3546669264324, -205.24757951823995, -199.3591070380062, 0.12800000607967377, 0.12800000607967377, 1.0240000486373901, 0.0, 0.0, 0.0, 0.0, 0.0, 1.6518370879552343E9, 0.0, 2022-05-06 12:38:07.955
58.0, -206.1862944071181, -37.10541741037741, -113.84068470122293, -152.61783739179373, 0.12800000607967377, 0.12800000607967377, 1.0240000486373901, 0.0, 0.0, 0.0, 0.0, 0.0, 1.6518370879662461E9, 0.0, 2022-05-06 12:38:07.966
58.0, -234.61701387027279, -161.9470178312622, -162.33970732660964, -180.5661097606644, 0.12800000607967377, 0.12800000607967377, 1.0240000486373901, 0.0, 0.0, 0.0, 0.0, 0.0, 1.6518370879662461E9, 0.0, 2022-05-06 12:38:07.966
59.0, -303.8014231505804, -267.69642897835, -246.9549438240938, -229.42790268175304, 0.12800000607967377, 0.12800000607967377, 1.0240000486373901, 0.0, 0.0, 0.0, 0.0, 0.0, 1.6518370879822977E9, 0.0, 2022-05-06 12:38:07.982
59.0, -281.7173139122315, -149.14534028293565, -196.02872612746432, -191.92044602613896, 0.12800000607967377, 0.12800000607967377, 1.0240000486373901, 0.0, 0.0, 0.0, 0.0, 0.0, 1.6518370879822977E9, 0.0, 2022-05-06 12:38:07.982
60.0, -210.7153132534586, -40.613443568814546, -117.50204675784335, -149.2556673316285, 0.12800000607967377, 0.12800000607967377, 1.0240000486373901, 0.0, 0.0, 0.0, 0.0, 0.0, 1.651837087983222E9, 0.0, 2022-05-06 12:38:07.983
60.0, -242.41470527788624, -165.241869692225, -169.1313656461425, -184.28731021657586, 0.12800000607967377, 0.12800000607967377, 1.0240000486373901, 0.0, 0.0, 0.0, 0.0, 0.0, 1.651837087983222E9, 0.0, 2022-05-06 12:38:07.983
61.0, -306.95789871318266, -274.87329699331895, -255.60533242160454, -234.69368181936443, 0.12800000607967377, 0.12800000607967377, 1.0240000486373901, 0.0, 0.0, 0.0, 0.0, 0.0, 1.651837087996277E9, 0.0, 2022-05-06 12:38:07.996
61.0, -274.76109999464825, -155.0132433134131, -198.57185809733346, -193.36030750907958, 0.12800000607967377, 0.12800000607967377, 1.0240000486373901, 0.0, 0.0, 0.0, 0.0, 0.0, 1.651837087996277E9, 0.0, 2022-05-06 12:38:07.996
62.0, -207.3755825930275, -37.76737970253453, -111.23023453215137, -137.3253864729777, 0.12800000607967377, 0.12800000607967377, 1.0240000486373901, 0.0, 0.0, 0.0, 0.0, 0.0, 1.6518370880123084E9, 0.0, 2022-05-06 12:38:08.012
62.0, -244.92417814815417, -170.0626007351093, -170.40667153103277, -190.14399354718626, 0.12800000607967377, 0.12800000607967377, 1.0240000486373901, 0.0, 0.0, 0.0, 0.0, 0.0, 1.6518370880123084E9, 0.0, 2022-05-06 12:38:08.012
63.0, -306.99903761269525, -273.75506690656766, -252.2843012609519, -229.850511376746, 0.12800000607967377, 0.12800000607967377, 1.0240000486373901, 0.0, 0.0, 0.0, 0.0, 0.0, 1.6518370880132449E9, 0.0, 2022-05-06 12:38:08.013
63.0, -272.09455132624134, -148.43475929135457, -194.6674025435932, -183.95819902047515, 0.12800000607967377, 0.12800000607967377, 1.0240000486373901, 0.0, 0.0, 0.0, 0.0, 0.0, 1.6518370880132449E9, 0.0, 2022-05-06 12:38:08.013
64.0, -206.55280460277572, -39.27829928463325, -115.2955057839863, -150.90122331213206, 0.12800000607967377, 0.12800000607967377, 1.0240000486373901, 0.0, 0.0, 0.0, 0.0, 0.0, 1.6518370880262775E9, 0.0, 2022-05-06 12:38:08.026
64.0, -244.81946094939485, -173.16671769833192, -168.09167345846072, -195.03578268922865, 0.12800000607967377, 0.12800000607967377, 1.0240000486373901, 0.0, 0.0, 0.0, 0.0, 0.0, 1.6518370880262775E9, 0.0, 2022-05-06 12:38:08.026
65.0, -293.4605997730978, -268.12651747325435, -246.27802193211392, -221.04304698109627, 0.12800000607967377, 0.12800000607967377, 1.0240000486373901, 0.0, 0.0, 0.0, 0.0, 0.0, 1.6518370880422947E9, 0.0, 2022-05-06 12:38:08.042
65.0, -272.76025351835415, -142.58181586069986, -191.76150027802214, -189.7924429513514, 0.12800000607967377, 0.12800000607967377, 1.0240000486373901, 0.0, 0.0, 0.0, 0.0, 0.0, 1.6518370880422947E9, 0.0, 2022-05-06 12:38:08.042
66.0, -213.10510932514444, -45.99515960505232, -122.76782589545473, -155.50130025763065, 0.12800000607967377, 0.12800000607967377, 1.0240000486373901, 0.0, 0.0, 0.0, 0.0, 0.0, 1.651837088057269E9, 0.0, 2022-05-06 12:38:08.057
66.0, -245.81427433760837, -172.00360881211236, -171.19579042168334, -185.14748720638454, 0.12800000607967377, 0.12800000607967377, 1.0240000486373901, 0.0, 0.0, 0.0, 0.0, 0.0, 1.651837088057269E9, 0.0, 2022-05-06 12:38:08.057
67.0, -311.04186946479604, -277.02373946784064, -258.01382799306884, -236.34297769982368, 0.12800000607967377, 0.12800000607967377, 1.0240000486373901, 0.0, 0.0, 0.0, 0.0, 0.0, 1.6518370880582669E9, 0.0, 2022-05-06 12:38:08.058
67.0, -263.42546322895214, -147.18937260610983, -192.16914937319234, -197.85940715577453, 0.12800000607967377, 0.12800000607967377, 1.0240000486373901, 0.0, 0.0, 0.0, 0.0, 0.0, 1.6518370880582669E9, 0.0, 2022-05-06 12:38:08.058
68.0, -215.13213510112837, -47.69307418493554, -128.8227239237167, -155.26568656042218, 0.12800000607967377, 0.12800000607967377, 1.0240000486373901, 0.0, 0.0, 0.0, 0.0, 0.0, 1.6518370880722835E9, 0.0, 2022-05-06 12:38:08.072
68.0, -244.21733705652878, -169.3221005438827, -169.40437834290788, -177.88834139239043, 0.12800000607967377, 0.12800000607967377, 1.0240000486373901, 0.0, 0.0, 0.0, 0.0, 0.0, 1.6518370880722835E9, 0.0, 2022-05-06 12:38:08.072
69.0, -304.8635547379963, -270.157283149194, -247.9871562118642, -215.97174264118075, 0.12800000607967377, 0.12800000607967377, 1.0240000486373901, 0.0, 0.0, 0.0, 0.0, 0.0, 1.6518370880732343E9, 0.0, 2022-05-06 12:38:08.073
69.0, -271.6308037317358, -151.81562885129824, -201.5936972615309, -214.56180035788566, 0.12800000607967377, 0.12800000607967377, 1.0240000486373901, 0.0, 0.0, 0.0, 0.0, 0.0, 1.6518370880732343E9, 0.0, 2022-05-06 12:38:08.073
70.0, -206.08531710831448, -45.29205841338262, -122.49855309864506, -158.7811925187707, 0.12800000607967377, 0.12800000607967377, 1.0240000486373901, 0.0, 0.0, 0.0, 0.0, 0.0, 1.6518370880862763E9, 0.0, 2022-05-06 12:38:08.086
70.0, -249.11286609852687, -175.60139256948605, -177.04873385233805, -183.16908012982458, 0.12800000607967377, 0.12800000607967377, 1.0240000486373901, 0.0, 0.0, 0.0, 0.0, 0.0, 1.6518370880862763E9, 0.0, 2022-05-06 12:38:08.086
71.0, -316.15805260417983, -272.7041550190188, -251.99632896436378, -230.28433977160603, 0.12800000607967377, 0.12800000607967377, 1.0240000486373901, 0.0, 0.0, 0.0, 0.0, 0.0, 1.6518370881022956E9, 0.0, 2022-05-06 12:38:08.102
71.0, -276.32063827617094, -148.0121505963616, -197.24045371310785, -202.4258250016719, 0.12800000607967377, 0.12800000607967377, 1.0240000486373901, 0.0, 0.0, 0.0, 0.0, 0.0, 1.6518370881022956E9, 0.0, 2022-05-06 12:38:08.102
72.0, -199.31609818851575, -36.74638701463118, -112.71871471451595, -150.6319505153224, 0.12800000607967377, 0.12800000607967377, 1.0240000486373901, 0.0, 0.0, 0.0, 0.0, 0.0, 1.651837088103238E9, 0.0, 2022-05-06 12:38:08.103
72.0, -248.72391650313511, -174.19519018614665, -175.40691777179018, -193.3490878092125, 0.12800000607967377, 0.12800000607967377, 1.0240000486373901, 0.0, 0.0, 0.0, 0.0, 0.0, 1.651837088103238E9, 0.0, 2022-05-06 12:38:08.103
73.0, -297.2977371276356, -271.4812077335082, -246.83152712555602, -219.23667530249804, 0.12800000607967377, 0.12800000607967377, 1.0240000486373901, 0.0, 0.0, 0.0, 0.0, 0.0, 1.6518370881332777E9, 0.0, 2022-05-06 12:38:08.133
73.0, -260.5532200629823, -138.4866254092194, -184.00868766987696, -176.54945720825344, 0.12800000607967377, 0.12800000607967377, 1.0240000486373901, 0.0, 0.0, 0.0, 0.0, 0.0, 1.6518370881332777E9, 0.0, 2022-05-06 12:38:08.133
74.0, -208.8977218749933, -39.67098877998069, -110.50843384070322, -144.7341282851994, 0.12800000607967377, 0.12800000607967377, 1.0240000486373901, 0.0, 0.0, 0.0, 0.0, 0.0, 1.651837088134267E9, 0.0, 2022-05-06 12:38:08.134
74.0, -244.63994575152174, -172.42621750710532, -182.1088184923865, -186.0488030957058, 0.12800000607967377, 0.12800000607967377, 1.0240000486373901, 0.0, 0.0, 0.0, 0.0, 0.0, 1.651837088134267E9, 0.0, 2022-05-06 12:38:08.134
75.0, -313.29702913807705, -277.670742160175, -264.19214271986857, -255.91761406790465, 0.12800000607967377, 0.12800000607967377, 1.0240000486373901, 0.0, 0.0, 0.0, 0.0, 0.0, 1.6518370881352527E9, 0.0, 2022-05-06 12:38:08.135
75.0, -272.363824123051, -153.89501322666183, -200.9279950694181, -202.62777959927917, 0.12800000607967377, 0.12800000607967377, 1.0240000486373901, 0.0, 0.0, 0.0, 0.0, 0.0, 1.6518370881352527E9, 0.0, 2022-05-06 12:38:08.135
76.0, -200.64002277282998, -37.15777600975707, -103.14457082794979, -143.1409309040755, 0.12800000607967377, 0.12800000607967377, 1.0240000486373901, 0.0, 0.0, 0.0, 0.0, 0.0, 1.6518370881463344E9, 0.0, 2022-05-06 12:38:08.146
76.0, -244.40433205431327, -173.45095009496436, -178.8476257310249, -192.81428211554885, 0.12800000607967377, 0.12800000607967377, 1.0240000486373901, 0.0, 0.0, 0.0, 0.0, 0.0, 1.6518370881463344E9, 0.0, 2022-05-06 12:38:08.146
77.0, -300.3906343909912, -269.8880103523843, -248.2489492087625, -221.34971877746284, 0.12800000607967377, 0.12800000607967377, 1.0240000486373901, 0.0, 0.0, 0.0, 0.0, 0.0, 1.6518370881622753E9, 0.0, 2022-05-06 12:38:08.162
77.0, -273.437175410334, -145.43161962693557, -200.55026517389342, -198.55502854753286, 0.12800000607967377, 0.12800000607967377, 1.0240000486373901, 0.0, 0.0, 0.0, 0.0, 0.0, 1.6518370881622753E9, 0.0, 2022-05-06 12:38:08.162
78.0, -201.51141946250573, -49.929534358438104, -118.91946884104982, -150.59829141572118, 0.12800000607967377, 0.12800000607967377, 1.0240000486373901, 0.0, 0.0, 0.0, 0.0, 0.0, 1.6518370881632316E9, 0.0, 2022-05-06 12:38:08.163
78.0, -248.6603382038884, -173.42851069523022, -163.65989201096818, -169.43990739248693, 0.12800000607967377, 0.12800000607967377, 1.0240000486373901, 0.0, 0.0, 0.0, 0.0, 0.0, 1.6518370881632316E9, 0.0, 2022-05-06 12:38:08.163
79.0, -294.2796378633939, -264.12856442062184, -239.93515160726383, -209.73358951509, 0.12800000607967377, 0.12800000607967377, 1.0240000486373901, 0.0, 0.0, 0.0, 0.0, 0.0, 1.6518370881763291E9, 0.0, 2022-05-06 12:38:08.176
79.0, -261.0768060567789, -138.57264310820028, -189.67837600270286, -191.7259712284431, 0.12800000607967377, 0.12800000607967377, 1.0240000486373901, 0.0, 0.0, 0.0, 0.0, 0.0, 1.6518370881763291E9, 0.0, 2022-05-06 12:38:08.176
80.0, -210.91352795111015, -45.41547511192039, -115.21696788491681, -151.5856250040233, 0.12800000607967377, 0.12800000607967377, 1.0240000486373901, 0.0, 0.0, 0.0, 0.0, 0.0, 1.6518370881922755E9, 0.0, 2022-05-06 12:38:08.192
80.0, -244.18741785688326, -177.3965445482172, -180.70635600900277, -184.25739101693034, 0.12800000607967377, 0.12800000607967377, 1.0240000486373901, 0.0, 0.0, 0.0, 0.0, 0.0, 1.6518370881922755E9, 0.0, 2022-05-06 12:38:08.192
81.0, -306.8644012142904, -272.8500111172907, -254.45344323525205, -240.84955714643002, 0.12800000607967377, 0.12800000607967377, 1.0240000486373901, 0.0, 0.0, 0.0, 0.0, 0.0, 1.6518370881932878E9, 0.0, 2022-05-06 12:38:08.193
81.0, -265.38517080573365, -137.81344341719523, -194.24479384860024, -196.1689723758027, 0.12800000607967377, 0.12800000607967377, 1.0240000486373901, 0.0, 0.0, 0.0, 0.0, 0.0, 1.6518370881932878E9, 0.0, 2022-05-06 12:38:08.193
82.0, -196.34287772374228, -39.057645187247545, -108.90401675971225, -143.53362039942294, 0.12800000607967377, 0.12800000607967377, 1.0240000486373901, 0.0, 0.0, 0.0, 0.0, 0.0, 1.6518370882062984E9, 0.0, 2022-05-06 12:38:08.206
82.0, -247.71788341505453, -175.78090776735917, -184.0311270696111, -188.13940717093647, 0.12800000607967377, 0.12800000607967377, 1.0240000486373901, 0.0, 0.0, 0.0, 0.0, 0.0, 1.6518370882062984E9, 0.0, 2022-05-06 12:38:08.206
83.0, -310.0096570770256, -271.4026698344387, -259.42377027636394, -243.51610581483692, 0.12800000607967377, 0.12800000607967377, 1.0240000486373901, 0.0, 0.0, 0.0, 0.0, 0.0, 1.6518370882223265E9, 0.0, 2022-05-06 12:38:08.222
83.0, -260.9571292581968, -143.7150055472739, -190.1421235972084, -196.056775377132, 0.12800000607967377, 0.12800000607967377, 1.0240000486373901, 0.0, 0.0, 0.0, 0.0, 0.0, 1.6518370882223265E9, 0.0, 2022-05-06 12:38:08.222
84.0, -210.01595196174458, -47.28168518980965, -117.19163506152108, -146.12911096867174, 0.12800000607967377, 0.12800000607967377, 1.0240000486373901, 0.0, 0.0, 0.0, 0.0, 0.0, 1.6518370882232623E9, 0.0, 2022-05-06 12:38:08.223
84.0, -253.0248014521785, -178.91120403027162, -181.29726020200178, -191.6137742297724, 0.12800000607967377, 0.12800000607967377, 1.0240000486373901, 0.0, 0.0, 0.0, 0.0, 0.0, 1.6518370882232623E9, 0.0, 2022-05-06 12:38:08.223
85.0, -303.9098802492954, -268.42570946970955, -254.67783723259345, -223.09625205677003, 0.12800000607967377, 0.12800000607967377, 1.0240000486373901, 0.0, 0.0, 0.0, 0.0, 0.0, 1.651837088236286E9, 0.0, 2022-05-06 12:38:08.236
85.0, -270.08622505003586, -141.0858558784239, -193.1490031615831, -193.15087311156094, 0.12800000607967377, 0.12800000607967377, 1.0240000486373901, 0.0, 0.0, 0.0, 0.0, 0.0, 1.651837088236286E9, 0.0, 2022-05-06 12:38:08.236
86.0, -196.21198122529313, -39.876683277543634, -110.77022683760151, -137.53108097054064, 0.12800000607967377, 0.12800000607967377, 1.0240000486373901, 0.0, 0.0, 0.0, 0.0, 0.0, 1.6518370882523303E9, 0.0, 2022-05-06 12:38:08.252
86.0, -246.2144436328672, -173.82494009053335, -174.12413208698854, -181.47490544989705, 0.12800000607967377, 0.12800000607967377, 1.0240000486373901, 0.0, 0.0, 0.0, 0.0, 0.0, 1.6518370882523303E9, 0.0, 2022-05-06 12:38:08.252
87.0, -305.48437813064083, -268.9717348632403, -247.00730242347345, -223.17478995583951, 0.12800000607967377, 0.12800000607967377, 1.0240000486373901, 0.0, 0.0, 0.0, 0.0, 0.0, 1.6518370882532272E9, 0.0, 2022-05-06 12:38:08.253
87.0, -257.2957672015764, -125.42315486399457, -180.7736742082052, -185.80196969863027, 0.12800000607967377, 0.12800000607967377, 1.0240000486373901, 0.0, 0.0, 0.0, 0.0, 0.0, 1.6518370882532272E9, 0.0, 2022-05-06 12:38:08.253
88.0, -197.22923401324078, -38.8893496892415, -110.56079244008288, -144.0310270935297, 0.12800000607967377, 0.12800000607967377, 1.0240000486373901, 0.0, 0.0, 0.0, 0.0, 0.0, 1.6518370882662847E9, 0.0, 2022-05-06 12:38:08.266
88.0, -241.12443979317322, -170.44781043054536, -172.695490303915, -173.23964574746788, 0.12800000607967377, 0.12800000607967377, 1.0240000486373901, 0.0, 0.0, 0.0, 0.0, 0.0, 1.6518370882662847E9, 0.0, 2022-05-06 12:38:08.266
89.0, -299.02557090716437, -266.46226199297234, -250.6200457806699, -232.2926660478115, 0.12800000607967377, 0.12800000607967377, 1.0240000486373901, 0.0, 0.0, 0.0, 0.0, 0.0, 1.6518370882822723E9, 0.0, 2022-05-06 12:38:08.282
89.0, -272.1095109260641, -139.8629085929133, -187.87200432410464, -192.50761031918228, 0.12800000607967377, 0.12800000607967377, 1.0240000486373901, 0.0, 0.0, 0.0, 0.0, 0.0, 1.6518370882822723E9, 0.0, 2022-05-06 12:38:08.282
90.0, -205.73376651247963, -45.34067711280659, -106.93682938301936, -127.10049999412149, 0.12800000607967377, 0.12800000607967377, 1.0240000486373901, 0.0, 0.0, 0.0, 0.0, 0.0, 1.6518370882832189E9, 0.0, 2022-05-06 12:38:08.283
90.0, -237.51169643597677, -174.85715247830376, -175.59765266953036, -192.14857992343605, 0.12800000607967377, 0.12800000607967377, 1.0240000486373901, 0.0, 0.0, 0.0, 0.0, 0.0, 1.6518370882832189E9, 0.0, 2022-05-06 12:38:08.283
91.0, -301.538783677388, -261.5068945516832, -250.51906848186627, -238.88610966969281, 0.12800000607967377, 0.12800000607967377, 1.0240000486373901, 0.0, 0.0, 0.0, 0.0, 0.0, 1.6518370882962787E9, 0.0, 2022-05-06 12:38:08.296
91.0, -258.410257388372, -129.40988821676, -187.98420132277533, -187.41012667957693, 0.12800000607967377, 0.12800000607967377, 1.0240000486373901, 0.0, 0.0, 0.0, 0.0, 0.0, 1.6518370882962787E9, 0.0, 2022-05-06 12:38:08.296
92.0, -195.08627133863047, -42.94714114116505, -113.90800290042534, -145.37365117762238, 0.12800000607967377, 0.12800000607967377, 1.0240000486373901, 0.0, 0.0, 0.0, 0.0, 0.0, 1.6518370883122928E9, 0.0, 2022-05-06 12:38:08.312
92.0, -245.2420696443878, -180.4333433122374, -181.85824519535527, -190.11407434754074, 0.12800000607967377, 0.12800000607967377, 1.0240000486373901, 0.0, 0.0, 0.0, 0.0, 0.0, 1.6518370883122928E9, 0.0, 2022-05-06 12:38:08.312
93.0, -306.06780252372846, -266.2191684958525, -252.60219275718555, -231.0697187623009, 0.12800000607967377, 0.12800000607967377, 1.0240000486373901, 0.0, 0.0, 0.0, 0.0, 0.0, 1.6518370883132744E9, 0.0, 2022-05-06 12:38:08.313
93.0, -261.19648285536095, -137.16644072486088, -191.27531328378245, -204.800661473535, 0.12800000607967377, 0.12800000607967377, 1.0240000486373901, 0.0, 0.0, 0.0, 0.0, 0.0, 1.6518370883132744E9, 0.0, 2022-05-06 12:38:08.313
94.0, -198.76259299507365, -41.29036546079442, -116.95602136431262, -144.44615598861128, 0.12800000607967377, 0.12800000607967377, 1.0240000486373901, 0.0, 0.0, 0.0, 0.0, 0.0, 1.651837088326291E9, 0.0, 2022-05-06 12:38:08.326
94.0, -247.6954440153204, -182.27337409043685, -180.81481310771778, -187.72801817581058, 0.12800000607967377, 0.12800000607967377, 1.0240000486373901, 0.0, 0.0, 0.0, 0.0, 0.0, 1.651837088326291E9, 0.0, 2022-05-06 12:38:08.326
95.0, -313.2035316391848, -274.28239280031994, -255.09670602763072, -231.89997655246407, 0.12800000607967377, 0.12800000607967377, 1.0240000486373901, 0.0, 0.0, 0.0, 0.0, 0.0, 1.6518370883422709E9, 0.0, 2022-05-06 12:38:08.342
95.0, -267.57675217976794, -142.41352036269382, -193.9643013519235, -193.46876460779458, 0.12800000607967377, 0.12800000607967377, 1.0240000486373901, 0.0, 0.0, 0.0, 0.0, 0.0, 1.6518370883422709E9, 0.0, 2022-05-06 12:38:08.342
96.0, -207.28582499409094, -62.60779520822689, -131.05544419726357, -161.78807208314538, 0.12800000607967377, 0.12800000607967377, 1.0240000486373901, 0.0, 0.0, 0.0, 0.0, 0.0, 1.6518370883432767E9, 0.0, 2022-05-06 12:38:08.343
96.0, -245.75069603836164, -193.82966495351866, -187.53915322804824, -200.92986501939595, 0.12800000607967377, 0.12800000607967377, 1.0240000486373901, 0.0, 0.0, 0.0, 0.0, 0.0, 1.6518370883432767E9, 0.0, 2022-05-06 12:38:08.343
97.0, -310.9446320659481, -268.1414770730771, -255.68761022062972, -228.01796039845794, 0.12800000607967377, 0.12800000607967377, 1.0240000486373901, 0.0, 0.0, 0.0, 0.0, 0.0, 1.6518370883562913E9, 0.0, 2022-05-06 12:38:08.356
97.0, -258.46261598775163, -131.10032299673185, -183.24200817896053, -176.72897240612656, 0.12800000607967377, 0.12800000607967377, 1.0240000486373901, 0.0, 0.0, 0.0, 0.0, 0.0, 1.6518370883562913E9, 0.0, 2022-05-06 12:38:08.356
98.0, -194.15877614961937, -40.05619847541675, -116.8887031651102, -145.19787587970495, 0.12800000607967377, 0.12800000607967377, 1.0240000486373901, 0.0, 0.0, 0.0, 0.0, 0.0, 1.6518370883722987E9, 0.0, 2022-05-06 12:38:08.372
98.0, -239.10863371705636, -164.2395765041001, -161.66652533458546, -148.23467464372516, 0.12800000607967377, 0.12800000607967377, 1.0240000486373901, 0.0, 0.0, 0.0, 0.0, 0.0, 1.6518370883722987E9, 0.0, 2022-05-06 12:38:08.372
99.0, -286.65398185374215, -246.41639823047444, -234.0934278764762, -214.2887876611203, 0.12800000607967377, 0.12800000607967377, 1.0240000486373901, 0.0, 0.0, 0.0, 0.0, 0.0, 1.6518370883732283E9, 0.0, 2022-05-06 12:38:08.373
99.0, -262.31097304215655, -126.72464004857466, -186.0282336459495, -203.3607999905944, 0.12800000607967377, 0.12800000607967377, 1.0240000486373901, 0.0, 0.0, 0.0, 0.0, 0.0, 1.6518370883732283E9, 0.0, 2022-05-06 12:38:08.373
100.0, -208.60974957840517, -52.81673712423071, -123.61304328544065, -162.38271617610008, 0.12800000607967377, 0.12800000607967377, 1.0240000486373901, 0.0, 0.0, 0.0, 0.0, 0.0, 1.6518370883872893E9, 0.0, 2022-05-06 12:38:08.387
100.0, -250.11141938669607, -187.91688312357292, -185.9609154467471, -192.21215822268277, 0.12800000607967377, 0.12800000607967377, 1.0240000486373901, 0.0, 0.0, 0.0, 0.0, 0.0, 1.6518370883872893E9, 0.0, 2022-05-06 12:38:08.387
0.0, -311.97871440369636, -268.69124236656353, -255.76427816972136, -237.57714468520135, 0.12800000607967377, 0.12800000607967377, 1.0240000486373901, 0.0, 0.0, 0.0, 0.0, 0.0, 1.6518370883882477E9, 0.0, 2022-05-06 12:38:08.388
1.0, -263.7115655755624, -136.58675623172894, -190.22627134621143, -194.2765829982236, 0.12800000607967377, 0.12800000607967377, 1.0240000486373901, 0.0, 0.0, 0.0, 0.0, 0.0, 1.651837088401306E9, 0.0, 2022-05-06 12:38:08.401
1.0, -205.6533586634323, -48.05584448063746, -117.75449000485241, -148.73208133783191, 0.12800000607967377, 0.12800000607967377, 1.0240000486373901, 0.0, 0.0, 0.0, 0.0, 0.0, 1.651837088401306E9, 0.0, 2022-05-06 12:38:08.401
2.0, -248.28821815829724, -188.11509782122448, -179.79943026974797, -188.31892236880958, 0.12800000607967377, 0.12800000607967377, 1.0240000486373901, 0.0, 0.0, 0.0, 0.0, 0.0, 1.6518370884172878E9, 0.0, 2022-05-06 12:38:08.417
2.0, -299.08353935647756, -269.42052285792306, -253.72603269387037, -227.2886799070984, 0.12800000607967377, 0.12800000607967377, 1.0240000486373901, 0.0, 0.0, 0.0, 0.0, 0.0, 1.6518370884172878E9, 0.0, 2022-05-06 12:38:08.417
3.0, -271.29608268570155, -135.94349343935028, -198.96267764270306, -199.86025363206863, 0.12800000607967377, 0.12800000607967377, 1.0240000486373901, 0.0, 0.0, 0.0, 0.0, 0.0, 1.6518370884182265E9, 0.0, 2022-05-06 12:38:08.418
3.0, -207.01468224730343, -44.719853720162064, -116.74097711686045, -147.74474774952978, 0.12800000607967377, 0.12800000607967377, 1.0240000486373901, 0.0, 0.0, 0.0, 0.0, 0.0, 1.6518370884182265E9, 0.0, 2022-05-06 12:38:08.418
4.0, -243.60586341377348, -179.68536332109943, -173.65477464254946, -182.31638293992728, 0.12800000607967377, 0.12800000607967377, 1.0240000486373901, 0.0, 0.0, 0.0, 0.0, 0.0, 1.6518370884312942E9, 0.0, 2022-05-06 12:38:08.431
4.0, -309.12143083754927, -268.119037673343, -249.48124624416232, -230.91638286411762, 0.12800000607967377, 0.12800000607967377, 1.0240000486373901, 0.0, 0.0, 0.0, 0.0, 0.0, 1.6518370884312942E9, 0.0, 2022-05-06 12:38:08.431
5.0, -252.92195420339704, -122.3003384009935, -175.0086184265092, -178.58022288419306, 0.12800000607967377, 0.12800000607967377, 1.0240000486373901, 0.0, 0.0, 0.0, 0.0, 0.0, 1.6518370884473076E9, 0.0, 2022-05-06 12:38:08.447
5.0, -195.51822978351265, -40.194574773777276, -108.460838614963, -139.733882044442, 0.12800000607967377, 0.12800000607967377, 1.0240000486373901, 0.0, 0.0, 0.0, 0.0, 0.0, 1.6518370884473076E9, 0.0, 2022-05-06 12:38:08.447
6.0, -237.21063448954374, -183.3616849775426, -178.65502088330686, -185.28586350474507, 0.12800000607967377, 0.12800000607967377, 1.0240000486373901, 0.0, 0.0, 0.0, 0.0, 0.0, 1.6518370884482205E9, 0.0, 2022-05-06 12:38:08.448
6.0, -295.3585990006104, -258.31301998952404, -241.97526703309268, -214.2887876611203, 0.12800000607967377, 0.12800000607967377, 1.0240000486373901, 0.0, 0.0, 0.0, 0.0, 0.0, 1.6518370884482205E9, 0.0, 2022-05-06 12:38:08.448
7.0, -262.6157748885453, -121.45512101100758, -177.8247630931437, -183.6477873241529, 0.12800000607967377, 0.12800000607967377, 1.0240000486373901, 0.0, 0.0, 0.0, 0.0, 0.0, 1.6518370884612837E9, 0.0, 2022-05-06 12:38:08.461
7.0, -205.99742945935577, -45.01530581666157, -114.03702944889665, -144.90242378320545, 0.12800000607967377, 0.12800000607967377, 1.0240000486373901, 0.0, 0.0, 0.0, 0.0, 0.0, 1.6518370884612837E9, 0.0, 2022-05-06 12:38:08.461
8.0, -250.25914543494582, -190.90506318816915, -185.7944898987189, -191.88678692653775, 0.12800000607967377, 0.12800000607967377, 1.0240000486373901, 0.0, 0.0, 0.0, 0.0, 0.0, 1.6518370884772663E9, 0.0, 2022-05-06 12:38:08.477
8.0, -303.97532849851996, -271.3727506347932, -255.65208117105067, -239.72758715972304, 0.12800000607967377, 0.12800000607967377, 1.0240000486373901, 0.0, 0.0, 0.0, 0.0, 0.0, 1.6518370884772663E9, 0.0, 2022-05-06 12:38:08.477
9.0, -257.6005690479651, -125.00054616900161, -173.69965344201773, -182.21166574116796, 0.12800000607967377, 0.12800000607967377, 1.0240000486373901, 0.0, 0.0, 0.0, 0.0, 0.0, 1.6518370884782188E9, 0.0, 2022-05-06 12:38:08.478
9.0, -198.0576218534261, -41.27166596101597, -103.34839537553489, -135.18616369832307, 0.12800000607967377, 0.12800000607967377, 1.0240000486373901, 0.0, 0.0, 0.0, 0.0, 0.0, 1.6518370884782188E9, 0.0, 2022-05-06 12:38:08.478
10.0, -249.07359714899212, -182.07889929274097, -176.42230060976, -181.80775654595345, 0.12800000607967377, 0.12800000607967377, 1.0240000486373901, 0.0, 0.0, 0.0, 0.0, 0.0, 1.6518370885082674E9, 0.0, 2022-05-06 12:38:08.508
10.0, -310.5912115201354, -268.2125351722352, -256.2355055641383, -233.09674453828484, 0.12800000607967377, 0.12800000607967377, 1.0240000486373901, 0.0, 0.0, 0.0, 0.0, 0.0, 1.6518370885082674E9, 0.0, 2022-05-06 12:38:08.508
11.0, -263.752704475075, -132.0053787860088, -191.2397842342034, -194.12324710004032, 0.12800000607967377, 0.12800000607967377, 1.0240000486373901, 0.0, 0.0, 0.0, 0.0, 0.0, 1.651837088509218E9, 0.0, 2022-05-06 12:38:08.509
11.0, -196.0979142766446, -47.76039238413796, -115.39087323285639, -147.68116945028305, 0.12800000607967377, 0.12800000607967377, 1.0240000486373901, 0.0, 0.0, 0.0, 0.0, 0.0, 1.651837088509218E9, 0.0, 2022-05-06 12:38:08.509
12.0, -254.50767178460956, -198.73267379542813, -189.89716015011072, -198.9813771424815, 0.12800000607967377, 0.12800000607967377, 1.0240000486373901, 0.0, 0.0, 0.0, 0.0, 0.0, 1.6518370885102837E9, 0.0, 2022-05-06 12:38:08.510
12.0, -300.9908883338794, -271.0810384382494, -255.95127316750586, -238.34382417611778, 0.12800000607967377, 0.12800000607967377, 1.0240000486373901, 0.0, 0.0, 0.0, 0.0, 0.0, 1.6518370885102837E9, 0.0, 2022-05-06 12:38:08.510
13.0, -259.3171831276268, -122.73042689589784, -177.06182350218296, -165.31105784140527, 0.12800000607967377, 0.12800000607967377, 1.0240000486373901, 0.0, 0.0, 0.0, 0.0, 0.0, 1.651837088521288E9, 0.0, 2022-05-06 12:38:08.521
13.0, -202.5006230007857, -41.64939585654065, -109.10036150738597, -141.6187916221097, 0.12800000607967377, 0.12800000607967377, 1.0240000486373901, 0.0, 0.0, 0.0, 0.0, 0.0, 1.651837088521288E9, 0.0, 2022-05-06 12:38:08.521
14.0, -251.98323931451887, -195.28074613632634, -188.87616746220738, -202.0555749060586, 0.12800000607967377, 0.12800000607967377, 1.0240000486373901, 0.0, 0.0, 0.0, 0.0, 0.0, 1.651837088537268E9, 0.0, 2022-05-06 12:38:08.537
14.0, -306.68675596639514, -268.87449746439233, -255.77549786958843, -240.56532474979758, 0.12800000607967377, 0.12800000607967377, 1.0240000486373901, 0.0, 0.0, 0.0, 0.0, 0.0, 1.651837088537268E9, 0.0, 2022-05-06 12:38:08.537
15.0, -260.0838626185432, -126.99765274534002, -183.59168882481754, -182.93346643261611, 0.12800000607967377, 0.12800000607967377, 1.0240000486373901, 0.0, 0.0, 0.0, 0.0, 0.0, 1.6518370885382063E9, 0.0, 2022-05-06 12:38:08.538
15.0, -199.30300853867084, -44.42066172370687, -111.52755657862872, -145.20909557957202, 0.12800000607967377, 0.12800000607967377, 1.0240000486373901, 0.0, 0.0, 0.0, 0.0, 0.0, 1.6518370885382063E9, 0.0, 2022-05-06 12:38:08.538
16.0, -249.31295074615628, -195.32188503583893, -194.78520939219743, -200.21180422790349, 0.12800000607967377, 0.12800000607967377, 1.0240000486373901, 0.0, 0.0, 0.0, 0.0, 0.0, 1.6518370885512877E9, 0.0, 2022-05-06 12:38:08.551
16.0, -329.3056708984077, -281.53405881440267, -266.14624044671655, -248.09374336060137, 0.12800000607967377, 0.12800000607967377, 1.0240000486373901, 0.0, 0.0, 0.0, 0.0, 0.0, 1.6518370885512877E9, 0.0, 2022-05-06 12:38:08.551
17.0, -270.9108729902655, -132.39806828135625, -189.9009000500664, -192.65346641745418, 0.12800000607967377, 0.12800000607967377, 1.0240000486373901, 0.0, 0.0, 0.0, 0.0, 0.0, 1.6518370885672753E9, 0.0, 2022-05-06 12:38:08.567
17.0, -213.3575525721535, -56.0068717864342, -124.80794132128358, -153.56777198053896, 0.12800000607967377, 0.12800000607967377, 1.0240000486373901, 0.0, 0.0, 0.0, 0.0, 0.0, 1.6518370885672753E9, 0.0, 2022-05-06 12:38:08.567
18.0, -253.8569291923195, -204.27146562980488, -198.59990734700114, -201.12433981709182, 0.12800000607967377, 0.12800000607967377, 1.0240000486373901, 0.0, 0.0, 0.0, 0.0, 0.0, 1.651837088568245E9, 0.0, 2022-05-06 12:38:08.568
18.0, -307.8124658530578, -262.0790992449038, -247.6711346656084, -226.7426545135677, 0.12800000607967377, 0.12800000607967377, 1.0240000486373901, 0.0, 0.0, 0.0, 0.0, 0.0, 1.651837088568245E9, 0.0, 2022-05-06 12:38:08.568
19.0, -277.586594411172, -134.43257385725155, -196.91695236694068, -207.71404353901744, 0.12800000607967377, 0.12800000607967377, 1.0240000486373901, 0.0, 0.0, 0.0, 0.0, 0.0, 1.6518370885812864E9, 0.0, 2022-05-06 12:38:08.581
19.0, -216.4691493352875, -62.28990371199325, -121.62902635894716, -151.52204670477659, 0.12800000607967377, 0.12800000607967377, 1.0240000486373901, 0.0, 0.0, 0.0, 0.0, 0.0, 1.6518370885812864E9, 0.0, 2022-05-06 12:38:08.581
20.0, -267.081215435639, -206.17133480729535, -205.9488107599318, -211.24076919723302, 0.12800000607967377, 0.12800000607967377, 1.0240000486373901, 0.0, 0.0, 0.0, 0.0, 0.0, 1.6518370885972688E9, 0.0, 2022-05-06 12:38:08.597
20.0, -329.2308728992939, -276.75820657098666, -262.5783758889884, -254.21969948802143, 0.12800000607967377, 0.12800000607967377, 1.0240000486373901, 0.0, 0.0, 0.0, 0.0, 0.0, 1.6518370885972688E9, 0.0, 2022-05-06 12:38:08.597
21.0, -262.6756132878363, -130.2289263070561, -189.97195814922452, -196.73369726911187, 0.12800000607967377, 0.12800000607967377, 1.0240000486373901, 0.0, 0.0, 0.0, 0.0, 0.0, 1.6518370885982943E9, 0.0, 2022-05-06 12:38:08.598
21.0, -215.0255479523912, -60.356375434901565, -128.38702557887882, -157.87613672949374, 0.12800000607967377, 0.12800000607967377, 1.0240000486373901, 0.0, 0.0, 0.0, 0.0, 0.0, 1.6518370885982943E9, 0.0, 2022-05-06 12:38:08.598
22.0, -271.11656748782843, -202.28183885337785, -197.7659096568823, -201.37117321416736, 0.12800000607967377, 0.12800000607967377, 1.0240000486373901, 0.0, 0.0, 0.0, 0.0, 0.0, 1.6518370886112704E9, 0.0, 2022-05-06 12:38:08.611
22.0, -314.16655587777495, -270.49761404516175, -257.3088568514213, -238.01097308006138, 0.12800000607967377, 0.12800000607967377, 1.0240000486373901, 0.0, 0.0, 0.0, 0.0, 0.0, 1.6518370886112704E9, 0.0, 2022-05-06 12:38:08.611
23.0, -263.43855287879705, -123.16051539080217, -180.7568446584046, -189.51943025458604, 0.12800000607967377, 0.12800000607967377, 1.0240000486373901, 0.0, 0.0, 0.0, 0.0, 0.0, 1.6518370886273043E9, 0.0, 2022-05-06 12:38:08.627
23.0, -209.00430902373046, -53.45626001665369, -118.47255079634488, -145.7326815733686, 0.12800000607967377, 0.12800000607967377, 1.0240000486373901, 0.0, 0.0, 0.0, 0.0, 0.0, 1.6518370886273043E9, 0.0, 2022-05-06 12:38:08.627
24.0, -255.51744477264583, -197.6705422080122, -189.62414745334536, -193.7978758038953, 0.12800000607967377, 0.12800000607967377, 1.0240000486373901, 0.0, 0.0, 0.0, 0.0, 0.0, 1.6518370886282337E9, 0.0, 2022-05-06 12:38:08.628
24.0, -308.2949129473418, -271.50738703319803, -261.48258520197123, -222.22485536709428, 0.12800000607967377, 0.12800000607967377, 1.0240000486373901, 0.0, 0.0, 0.0, 0.0, 0.0, 1.6518370886282337E9, 0.0, 2022-05-06 12:38:08.628
25.0, -262.4661788903177, -117.98449385212734, -181.29165035206825, -180.39781426265836, 0.12800000607967377, 0.12800000607967377, 1.0240000486373901, 0.0, 0.0, 0.0, 0.0, 0.0, 1.6518370886412685E9, 0.0, 2022-05-06 12:38:08.641
25.0, -211.33426669612527, -53.8601692118682, -119.91989207919687, -154.05769887473434, 0.12800000607967377, 0.12800000607967377, 1.0240000486373901, 0.0, 0.0, 0.0, 0.0, 0.0, 1.6518370886412685E9, 0.0, 2022-05-06 12:38:08.641
26.0, -263.378714479506, -203.02981884451583, -196.30734867416322, -205.45514396578074, 0.12800000607967377, 0.12800000607967377, 1.0240000486373901, 0.0, 0.0, 0.0, 0.0, 0.0, 1.6518370886583035E9, 0.0, 2022-05-06 12:38:08.658
26.0, -306.63813726697117, -263.26838743081316, -245.69272758904845, -224.1770831439644, 0.12800000607967377, 0.12800000607967377, 1.0240000486373901, 0.0, 0.0, 0.0, 0.0, 0.0, 1.6518370886583035E9, 0.0, 2022-05-06 12:38:08.658
27.0, -264.25385106913745, -117.2589532607235, -183.1952594295144, -192.07004202436656, 0.12800000607967377, 0.12800000607967377, 1.0240000486373901, 0.0, 0.0, 0.0, 0.0, 0.0, 1.651837088659217E9, 0.0, 2022-05-06 12:38:08.659
27.0, -204.48276997730136, -53.03365132166073, -124.19085782859474, -149.41274312976748, 0.12800000607967377, 0.12800000607967377, 1.0240000486373901, 0.0, 0.0, 0.0, 0.0, 0.0, 1.651837088659217E9, 0.0, 2022-05-06 12:38:08.659
28.0, -252.18519391212612, -197.26663301279768, -187.84769497439265, -184.95675230864435, 0.12800000607967377, 0.12800000607967377, 1.0240000486373901, 0.0, 0.0, 0.0, 0.0, 0.0, 1.6518370886713212E9, 0.0, 2022-05-06 12:38:08.671
28.0, -319.98958010878414, -274.5142665975727, -261.66584029980004, -235.19482841342688, 0.12800000607967377, 0.12800000607967377, 1.0240000486373901, 0.0, 0.0, 0.0, 0.0, 0.0, 1.6518370886713212E9, 0.0, 2022-05-06 12:38:08.671
29.0, -280.10728698130697, -127.46888013975695, -186.4601920908317, -196.53174267150462, 0.12800000607967377, 0.12800000607967377, 1.0240000486373901, 0.0, 0.0, 0.0, 0.0, 0.0, 1.6518370886872709E9, 0.0, 2022-05-06 12:38:08.687
29.0, -215.48181574698538, -58.85667555266991, -120.35746037401259, -157.61060383263975, 0.12800000607967377, 0.12800000607967377, 1.0240000486373901, 0.0, 0.0, 0.0, 0.0, 0.0, 1.6518370886872709E9, 0.0, 2022-05-06 12:38:08.687
30.0, -269.3550746086985, -207.71965338895097, -190.3870870443061, -202.2799689034, 0.12800000607967377, 0.12800000607967377, 1.0240000486373901, 0.0, 0.0, 0.0, 0.0, 0.0, 1.651837088688232E9, 0.0, 2022-05-06 12:38:08.688
30.0, -309.6300572315231, -265.1084182090126, -251.66908771824092, -227.64397040288895, 0.12800000607967377, 0.12800000607967377, 1.0240000486373901, 0.0, 0.0, 0.0, 0.0, 0.0, 1.651837088688232E9, 0.0, 2022-05-06 12:38:08.688
31.0, -257.8960211444646, -113.46669470565394, -176.28766421135515, -187.0847553834319, 0.12800000607967377, 0.12800000607967377, 1.0240000486373901, 0.0, 0.0, 0.0, 0.0, 0.0, 1.6518370887012951E9, 0.0, 2022-05-06 12:38:08.701
31.0, -207.18671764526516, -51.44793374044821, -115.96681782603264, -144.09834529273212, 0.12800000607967377, 0.12800000607967377, 1.0240000486373901, 0.0, 0.0, 0.0, 0.0, 0.0, 1.6518370887012951E9, 0.0, 2022-05-06 12:38:08.701
32.0, -271.26616348605603, -205.77116551203653, -197.3881797613576, -201.5357288122177, 0.12800000607967377, 0.12800000607967377, 1.0240000486373901, 0.0, 0.0, 0.0, 0.0, 0.0, 1.651837088717296E9, 0.0, 2022-05-06 12:38:08.717
32.0, -318.09345083124936, -268.94555556355044, -256.92364715598524, -243.8190377112478, 0.12800000607967377, 0.12800000607967377, 1.0240000486373901, 0.0, 0.0, 0.0, 0.0, 0.0, 1.651837088717296E9, 0.0, 2022-05-06 12:38:08.717
33.0, -263.1318810824305, -117.54692555731162, -180.48757186159492, -188.03095007222146, 0.12800000607967377, 0.12800000607967377, 1.0240000486373901, 0.0, 0.0, 0.0, 0.0, 0.0, 1.651837088718288E9, 0.0, 2022-05-06 12:38:08.718
33.0, -200.52595582418144, -51.70224693743512, -107.61562122497708, -137.15709097497165, 0.12800000607967377, 0.12800000607967377, 1.0240000486373901, 0.0, 0.0, 0.0, 0.0, 0.0, 1.651837088718288E9, 0.0, 2022-05-06 12:38:08.718
34.0, -259.24612502846867, -200.9616541690193, -190.37960724439472, -196.61776037048548, 0.12800000607967377, 0.12800000607967377, 1.0240000486373901, 0.0, 0.0, 0.0, 0.0, 0.0, 1.6518370887482953E9, 0.0, 2022-05-06 12:38:08.748
34.0, -317.76807953510433, -268.87449746439233, -255.6371215712279, -239.05814506765455, 0.12800000607967377, 0.12800000607967377, 1.0240000486373901, 0.0, 0.0, 0.0, 0.0, 0.0, 1.6518370887482953E9, 0.0, 2022-05-06 12:38:08.748
35.0, -257.795043845661, -106.86577128386125, -169.98593278601766, -170.86854917556047, 0.12800000607967377, 0.12800000607967377, 1.0240000486373901, 0.0, 0.0, 0.0, 0.0, 0.0, 1.6518370887492452E9, 0.0, 2022-05-06 12:38:08.749
35.0, -211.09117319900542, -55.539384291972965, -122.73603674583137, -144.81640608422458, 0.12800000607967377, 0.12800000607967377, 1.0240000486373901, 0.0, 0.0, 0.0, 0.0, 0.0, 1.6518370887492452E9, 0.0, 2022-05-06 12:38:08.749
36.0, -263.1318810824305, -208.03006508527324, -202.45948410127312, -210.37311240751296, 0.12800000607967377, 0.12800000607967377, 1.0240000486373901, 0.0, 0.0, 0.0, 0.0, 0.0, 1.651837088750232E9, 0.0, 2022-05-06 12:38:08.750
36.0, -312.0048937033862, -262.7298418371938, -251.14550172444433, -218.59341251011938, 0.12800000607967377, 0.12800000607967377, 1.0240000486373901, 0.0, 0.0, 0.0, 0.0, 0.0, 1.651837088750232E9, 0.0, 2022-05-06 12:38:08.750
37.0, -255.40150787401944, -109.90257004788145, -178.1576141892001, -181.77409744635224, 0.12800000607967377, 0.12800000607967377, 1.0240000486373901, 0.0, 0.0, 0.0, 0.0, 0.0, 1.6518370887612605E9, 0.0, 2022-05-06 12:38:08.761
37.0, -212.12338558677584, -54.64928810251877, -124.60224682372063, -164.7463329480961, 0.12800000607967377, 0.12800000607967377, 1.0240000486373901, 0.0, 0.0, 0.0, 0.0, 0.0, 1.6518370887612605E9, 0.0, 2022-05-06 12:38:08.761
38.0, -259.784670622088, -203.9311347338371, -190.30480924528092, -190.45440524350852, 0.12800000607967377, 0.12800000607967377, 1.0240000486373901, 0.0, 0.0, 0.0, 0.0, 0.0, 1.651837088777285E9, 0.0, 2022-05-06 12:38:08.777
38.0, -309.2261480363086, -258.82912618340924, -251.75884531717747, -238.1156902788207, 0.12800000607967377, 0.12800000607967377, 1.0240000486373901, 0.0, 0.0, 0.0, 0.0, 0.0, 1.651837088777285E9, 0.0, 2022-05-06 12:38:08.777
39.0, -255.09857597760856, -110.34013834269717, -179.43665997404605, -190.04675614833832, 0.12800000607967377, 0.12800000607967377, 1.0240000486373901, 0.0, 0.0, 0.0, 0.0, 0.0, 1.6518370887783022E9, 0.0, 2022-05-06 12:38:08.778
39.0, -212.5048553822562, -60.58076943224296, -124.78176202159375, -157.69662153162062, 0.12800000607967377, 0.12800000607967377, 1.0240000486373901, 0.0, 0.0, 0.0, 0.0, 0.0, 1.6518370887783022E9, 0.0, 2022-05-06 12:38:08.778
40.0, -260.32321621570736, -206.64256220171228, -198.99259684234858, -198.66348564624786, 0.12800000607967377, 0.12800000607967377, 1.0240000486373901, 0.0, 0.0, 0.0, 0.0, 0.0, 1.6518370887913065E9, 0.0, 2022-05-06 12:38:08.791
40.0, -322.25221958197653, -265.6544436025433, -257.51081144902855, -236.40281609911472, 0.12800000607967377, 0.12800000607967377, 1.0240000486373901, 0.0, 0.0, 0.0, 0.0, 0.0, 1.6518370887913065E9, 0.0, 2022-05-06 12:38:08.791
41.0, -254.8592223804444, -104.45353581244126, -169.30901089403778, -166.8556365231052, 0.12800000607967377, 0.12800000607967377, 1.0240000486373901, 0.0, 0.0, 0.0, 0.0, 0.0, 1.6518370888072703E9, 0.0, 2022-05-06 12:38:08.807
41.0, -199.82285463251173, -49.499445863533765, -115.53298943117261, -150.38137721829116, 0.12800000607967377, 0.12800000607967377, 1.0240000486373901, 0.0, 0.0, 0.0, 0.0, 0.0, 1.6518370888072703E9, 0.0, 2022-05-06 12:38:08.807
42.0, -256.1607075650245, -208.0038857855834, -200.58579422347248, -203.58519398793578, 0.12800000607967377, 0.12800000607967377, 1.0240000486373901, 0.0, 0.0, 0.0, 0.0, 0.0, 1.651837088808238E9, 0.0, 2022-05-06 12:38:08.808
42.0, -316.2309806533158, -270.08996494999155, -263.7489645751193, -245.5954901902005, 0.12800000607967377, 0.12800000607967377, 1.0240000486373901, 0.0, 0.0, 0.0, 0.0, 0.0, 1.651837088808238E9, 0.0, 2022-05-06 12:38:08.808
43.0, -264.5306036658585, -114.57744499249384, -175.65562111884356, -187.77289697527885, 0.12800000607967377, 0.12800000607967377, 1.0240000486373901, 0.0, 0.0, 0.0, 0.0, 0.0, 1.6518370888213449E9, 0.0, 2022-05-06 12:38:08.821
43.0, -202.82599429693073, -60.20677943667397, -112.89262006245553, -143.96370889432728, 0.12800000607967377, 0.12800000607967377, 1.0240000486373901, 0.0, 0.0, 0.0, 0.0, 0.0, 1.6518370888213449E9, 0.0, 2022-05-06 12:38:08.821
44.0, -275.41371253691614, -207.46160029200837, -197.33956106193364, -190.39456684421748, 0.12800000607967377, 0.12800000607967377, 1.0240000486373901, 0.0, 0.0, 0.0, 0.0, 0.0, 1.651837088837266E9, 0.0, 2022-05-06 12:38:08.837
44.0, -305.60966477915645, -255.85216581868008, -247.4130815686658, -214.81985345482826, 0.12800000607967377, 0.12800000607967377, 1.0240000486373901, 0.0, 0.0, 0.0, 0.0, 0.0, 1.651837088837266E9, 0.0, 2022-05-06 12:38:08.837
45.0, -262.26048439275473, -113.33579820720479, -183.63656762428582, -188.93226596154273, 0.12800000607967377, 0.12800000607967377, 1.0240000486373901, 0.0, 0.0, 0.0, 0.0, 0.0, 1.6518370888382297E9, 0.0, 2022-05-06 12:38:08.838
45.0, -212.48241598252207, -60.44613303383812, -123.15864544082433, -157.61060383263975, 0.12800000607967377, 0.12800000607967377, 1.0240000486373901, 0.0, 0.0, 0.0, 0.0, 0.0, 1.6518370888382297E9, 0.0, 2022-05-06 12:38:08.838
46.0, -264.4670253666118, -206.73979960056022, -194.10080770030618, -193.25559031032026, 0.12800000607967377, 0.12800000607967377, 1.0240000486373901, 0.0, 0.0, 0.0, 0.0, 0.0, 1.65183708885132E9, 0.0, 2022-05-06 12:38:08.851
46.0, -303.6312577025965, -261.49941475177184, -257.84740244504064, -241.14500924292952, 0.12800000607967377, 0.12800000607967377, 1.0240000486373901, 0.0, 0.0, 0.0, 0.0, 0.0, 1.65183708885132E9, 0.0, 2022-05-06 12:38:08.851
47.0, -256.6094955597073, -117.72270085522905, -175.07219672575593, -190.66757954098284, 0.12800000607967377, 0.12800000607967377, 1.0240000486373901, 0.0, 0.0, 0.0, 0.0, 0.0, 1.6518370888672829E9, 0.0, 2022-05-06 12:38:08.867
47.0, -212.23558258544654, -63.553989897016436, -127.49692938942462, -161.73197358381003, 0.12800000607967377, 0.12800000607967377, 1.0240000486373901, 0.0, 0.0, 0.0, 0.0, 0.0, 1.6518370888672829E9, 0.0, 2022-05-06 12:38:08.867
48.0, -261.1983528053388, -202.2631393535994, -189.85602125059813, -188.40867996774614, 0.12800000607967377, 0.12800000607967377, 1.0240000486373901, 0.0, 0.0, 0.0, 0.0, 0.0, 1.6518370888682318E9, 0.0, 2022-05-06 12:38:08.868
48.0, -313.2689798884094, -260.23906846670434, -254.37303538620472, -235.28458601236343, 0.12800000607967377, 0.12800000607967377, 1.0240000486373901, 0.0, 0.0, 0.0, 0.0, 0.0, 1.6518370888682318E9, 0.0, 2022-05-06 12:38:08.868
49.0, -254.9751592790708, -109.26304715545848, -175.58830291964114, -172.8993148515001, 0.12800000607967377, 0.12800000607967377, 1.0240000486373901, 0.0, 0.0, 0.0, 0.0, 0.0, 1.651837088881292E9, 0.0, 2022-05-06 12:38:08.881
49.0, -214.67025745660067, -56.50053858058527, -122.40318564977497, -149.2182683320716, 0.12800000607967377, 0.12800000607967377, 1.0240000486373901, 0.0, 0.0, 0.0, 0.0, 0.0, 1.651837088881292E9, 0.0, 2022-05-06 12:38:08.881
50.0, -259.724832222797, -207.18110779533163, -191.5688954303041, -211.22580959741026, 0.12800000607967377, 0.12800000607967377, 1.0240000486373901, 0.0, 0.0, 0.0, 0.0, 0.0, 1.6518370888972745E9, 0.0, 2022-05-06 12:38:08.897
50.0, -316.4890337502584, -267.6739895786159, -261.85283529758453, -236.63842979632318, 0.12800000607967377, 0.12800000607967377, 1.0240000486373901, 0.0, 0.0, 0.0, 0.0, 0.0, 1.6518370888972745E9, 0.0, 2022-05-06 12:38:08.897
51.0, -261.40404730290174, -113.6275104037486, -180.39781426265836, -183.5655095251277, 0.12800000607967377, 0.12800000607967377, 1.0240000486373901, 0.0, 0.0, 0.0, 0.0, 0.0, 1.651837088898219E9, 0.0, 2022-05-06 12:38:08.898
51.0, -202.71753719821572, -53.00373212201521, -112.60090786591172, -142.08253921661526, 0.12800000607967377, 0.12800000607967377, 1.0240000486373901, 0.0, 0.0, 0.0, 0.0, 0.0, 1.651837088898219E9, 0.0, 2022-05-06 12:38:08.898
52.0, -264.5717425653711, -212.46184653276578, -190.050496048294, -186.21335869375616, 0.12800000607967377, 0.12800000607967377, 1.0240000486373901, 0.0, 0.0, 0.0, 0.0, 0.0, 1.65183708891128E9, 0.0, 2022-05-06 12:38:08.911
52.0, -303.19742930773646, -252.6246321569197, -244.50717930309474, -217.59111932199448, 0.12800000607967377, 0.12800000607967377, 1.0240000486373901, 0.0, 0.0, 0.0, 0.0, 0.0, 1.65183708891128E9, 0.0, 2022-05-06 12:38:08.911
53.0, -262.70179258752614, -120.97641381667927, -185.9440858969465, -200.3913194257766, 0.12800000607967377, 0.12800000607967377, 1.0240000486373901, 0.0, 0.0, 0.0, 0.0, 0.0, 1.6518370889272764E9, 0.0, 2022-05-06 12:38:08.927
53.0, -215.93808354157954, -68.47195833874866, -131.67065773997456, -168.57973040267825, 0.12800000607967377, 0.12800000607967377, 1.0240000486373901, 0.0, 0.0, 0.0, 0.0, 0.0, 1.6518370889272764E9, 0.0, 2022-05-06 12:38:08.927
54.0, -270.63038049358875, -212.84331632824615, -205.657098563388, -207.94217743631452, 0.12800000607967377, 0.12800000607967377, 1.0240000486373901, 0.0, 0.0, 0.0, 0.0, 0.0, 1.6518370889282203E9, 0.0, 2022-05-06 12:38:08.928
54.0, -316.4778140503913, -259.05352018075064, -252.12535551283509, -229.05391268618405, 0.12800000607967377, 0.12800000607967377, 1.0240000486373901, 0.0, 0.0, 0.0, 0.0, 0.0, 1.6518370889282203E9, 0.0, 2022-05-06 12:38:08.928
55.0, -253.20244670007378, -106.11779129272327, -170.38984198123217, -178.086556090042, 0.12800000607967377, 0.12800000607967377, 1.0240000486373901, 0.0, 0.0, 0.0, 0.0, 0.0, 1.6518370889413033E9, 0.0, 2022-05-06 12:38:08.941
55.0, -198.14363955240697, -48.710326972883195, -104.81817605812103, -131.29666774440557, 0.12800000607967377, 0.12800000607967377, 1.0240000486373901, 0.0, 0.0, 0.0, 0.0, 0.0, 1.6518370889413033E9, 0.0, 2022-05-06 12:38:08.941
56.0, -257.8735817447305, -202.629649549257, -189.85976115055382, -179.29454377572984, 0.12800000607967377, 0.12800000607967377, 1.0240000486373901, 0.0, 0.0, 0.0, 0.0, 0.0, 1.6518370889572675E9, 0.0, 2022-05-06 12:38:08.957
56.0, -306.75033426564187, -248.97822970012203, -244.44360100384802, -218.211942714639, 0.12800000607967377, 0.12800000607967377, 1.0240000486373901, 0.0, 0.0, 0.0, 0.0, 0.0, 1.6518370889572675E9, 0.0, 2022-05-06 12:38:08.957
57.0, -241.9677872331813, -100.74729495635256, -164.83983044698834, -185.48407820239663, 0.12800000607967377, 0.12800000607967377, 1.0240000486373901, 0.0, 0.0, 0.0, 0.0, 0.0, 1.651837088958223E9, 0.0, 2022-05-06 12:38:08.958
57.0, -209.7261097151786, -61.190373125020415, -121.3934126617387, -141.63375122193247, 0.12800000607967377, 0.12800000607967377, 1.0240000486373901, 0.0, 0.0, 0.0, 0.0, 0.0, 1.651837088958223E9, 0.0, 2022-05-06 12:38:08.958
58.0, -262.9074870850891, -213.36690232204273, -208.10673303436488, -204.2134971804917, 0.12800000607967377, 0.12800000607967377, 1.0240000486373901, 0.0, 0.0, 0.0, 0.0, 0.0, 1.6518370889713092E9, 0.0, 2022-05-06 12:38:08.971
58.0, -315.6699956599623, -262.3184528420679, -252.21885301172733, -243.18325471878052, 0.12800000607967377, 0.12800000607967377, 1.0240000486373901, 0.0, 0.0, 0.0, 0.0, 0.0, 1.6518370889713092E9, 0.0, 2022-05-06 12:38:08.971
59.0, -248.34805655758828, -106.79097328474745, -169.4473871923983, -181.47864534985274, 0.12800000607967377, 0.12800000607967377, 1.0240000486373901, 0.0, 0.0, 0.0, 0.0, 0.0, 1.6518370889872663E9, 0.0, 2022-05-06 12:38:08.987
59.0, -213.92227746546268, -68.7187917358242, -123.33816063869745, -157.86117712967098, 0.12800000607967377, 0.12800000607967377, 1.0240000486373901, 0.0, 0.0, 0.0, 0.0, 0.0, 1.6518370889872663E9, 0.0, 2022-05-06 12:38:08.987
60.0, -265.4693185547367, -212.91811432735994, -200.7989685209468, -197.59387425892055, 0.12800000607967377, 0.12800000607967377, 1.0240000486373901, 0.0, 0.0, 0.0, 0.0, 0.0, 1.651837088988234E9, 0.0, 2022-05-06 12:38:08.988
60.0, -312.1170907020569, -254.9919888288714, -255.49874527286738, -237.60706388484687, 0.12800000607967377, 0.12800000607967377, 1.0240000486373901, 0.0, 0.0, 0.0, 0.0, 0.0, 1.651837088988234E9, 0.0, 2022-05-06 12:38:08.988
61.0, -254.0813231896609, -109.88013064814731, -176.73645220603794, -186.8341820864007, 0.12800000607967377, 0.12800000607967377, 1.0240000486373901, 0.0, 0.0, 0.0, 0.0, 0.0, 1.6518370890013127E9, 0.0, 2022-05-06 12:38:09.001
61.0, -210.1038396107033, -64.88539428124204, -122.21245075203478, -150.71048841439188, 0.12800000607967377, 0.12800000607967377, 1.0240000486373901, 0.0, 0.0, 0.0, 0.0, 0.0, 1.6518370890013127E9, 0.0, 2022-05-06 12:38:09.001
62.0, -271.0567290885374, -216.38874148624018, -202.17899160459638, -202.82599429693073, 0.12800000607967377, 0.12800000607967377, 1.0240000486373901, 0.0, 0.0, 0.0, 0.0, 0.0, 1.651837089017278E9, 0.0, 2022-05-06 12:38:09.017
62.0, -296.3945512883365, -244.7596225501038, -236.91518239304423, -213.35007277224213, 0.12800000607967377, 0.12800000607967377, 1.0240000486373901, 0.0, 0.0, 0.0, 0.0, 0.0, 1.651837089017278E9, 0.0, 2022-05-06 12:38:09.017
63.0, -248.98383955005556, -94.92801062529907, -158.84477081801742, -152.7001151908189, 0.12800000607967377, 0.12800000607967377, 1.0240000486373901, 0.0, 0.0, 0.0, 0.0, 0.0, 1.651837089018232E9, 0.0, 2022-05-06 12:38:09.018
63.0, -207.54948794096708, -64.06261629099026, -122.01797595433891, -155.32552495971322, 0.12800000607967377, 0.12800000607967377, 1.0240000486373901, 0.0, 0.0, 0.0, 0.0, 0.0, 1.651837089018232E9, 0.0, 2022-05-06 12:38:09.018
64.0, -263.0196840837598, -213.50901852035895, -204.93155797198415, -201.25523631554097, 0.12800000607967377, 0.12800000607967377, 1.0240000486373901, 0.0, 0.0, 0.0, 0.0, 0.0, 1.6518370890313108E9, 0.0, 2022-05-06 12:38:09.031
64.0, -304.09500529710203, -252.49747555842623, -253.06781030166894, -236.35793729964644, 0.12800000607967377, 0.12800000607967377, 1.0240000486373901, 0.0, 0.0, 0.0, 0.0, 0.0, 1.6518370890313108E9, 0.0, 2022-05-06 12:38:09.031
