%OpenBCI Raw EEG Data
%Number of channels = 4
%Sample Rate = 200 Hz
%Board = OpenBCI_GUI$BoardGanglionBLE
Sample Index, EXG Channel 0, EXG Channel 1, EXG Channel 2, EXG Channel 3, Accel Channel 0, Accel Channel 1, Accel Channel 2, Other, Other, Other, Other, Other, Timestamp, Other, Timestamp (Formatted)
34.0, -68.82163898460567, -144.5882721869275, -92.18105410784483, -64.1430241400376, 0.0, 0.0, 0.0, 0.0, 0.0, 0.0, 0.0, 0.0, 1.6518370611273024E9, 0.0, 2022-05-06 12:37:41.127
34.0, -276.7806459707208, 89.14799524378031, 128.9480105722323, 151.5183068048209, 0.0, 0.0, 0.0, 0.0, 0.0, 0.0, 0.0, 0.0, 1.6518370611273024E9, 0.0, 2022-05-06 12:37:41.127
0.0, -211.24637904716656, -81.26241618720815, -127.70449383696541, -159.86202360596508, 0.0, 0.0, 0.0, 0.0, 0.0, 0.0, 0.0, 0.0, 1.6518370611482894E9, 0.0, 2022-05-06 12:37:41.148
1.0, -267.7039087782614, -211.6428084424697, -203.8974756342359, -196.89451296720654, 0.0, 0.12800000607967377, 0.0, 0.0, 0.0, 0.0, 0.0, 0.0, 1.6518370611613197E9, 0.0, 2022-05-06 12:37:41.161
1.0, -313.6149206343107, -250.67614428000525, -250.0291415876709, -224.0723659452051, 0.0, 0.12800000607967377, 0.0, 0.0, 0.0, 0.0, 0.0, 0.0, 1.6518370611613197E9, 0.0, 2022-05-06 12:37:41.161
2.0, -261.7051092493348, -113.13384360959753, -174.96560957701877, -195.78002278041095, 0.06400000303983688, 0.12800000607967377, 0.0, 0.0, 0.0, 0.0, 0.0, 0.0, 1.6518370611782985E9, 0.0, 2022-05-06 12:37:41.178
2.0, -224.87457448570058, -71.3853404042311, -131.36959579354152, -162.34905707649887, 0.06400000303983688, 0.12800000607967377, 0.0, 0.0, 0.0, 0.0, 0.0, 0.0, 1.6518370611782985E9, 0.0, 2022-05-06 12:37:41.178
3.0, -274.293612500187, -212.8994148275815, -213.9353671153076, -209.69993041548878, 0.06400000303983688, 0.12800000607967377, 0.0, 0.0, 0.0, 0.0, 0.0, 0.0, 1.6518370611792815E9, 0.0, 2022-05-06 12:37:41.179
3.0, -314.04500912921503, -263.4329430288635, -262.1875563436188, -238.7439934713766, 0.06400000303983688, 0.12800000607967377, 0.0, 0.0, 0.0, 0.0, 0.0, 0.0, 1.6518370611792815E9, 0.0, 2022-05-06 12:37:41.179
4.0, -262.12771794432774, -116.92236226471141, -180.71383580891415, -184.0890955189243, 0.06400000303983688, 0.12800000607967377, 0.0, 0.0, 0.0, 0.0, 0.0, 0.0, 1.6518370611913328E9, 0.0, 2022-05-06 12:37:41.191
4.0, -215.57718319585547, -79.63555970648304, -124.27500557759777, -146.9930278584361, 0.06400000303983688, 0.12800000607967377, 0.0, 0.0, 0.0, 0.0, 0.0, 0.0, 1.6518370611913328E9, 0.0, 2022-05-06 12:37:41.191
5.0, -274.7386605949141, -215.43506699753925, -213.61373571911827, -198.67470534611493, 0.06400000303983688, 0.12800000607967377, 0.0, 0.0, 0.0, 0.0, 0.0, 0.0, 1.6518370612073288E9, 0.0, 2022-05-06 12:37:41.207
5.0, -311.74123075651005, -246.00874913530424, -245.58988034026697, -216.70476303249598, 0.06400000303983688, 0.12800000607967377, 0.0, 0.0, 0.0, 0.0, 0.0, 0.0, 1.6518370612073288E9, 0.0, 2022-05-06 12:37:41.207
6.0, -238.41675222525373, -87.47439001360908, -143.5354903494008, -147.83450534846634, 0.06400000303983688, 0.12800000607967377, 0.0, 0.0, 0.0, 0.0, 0.0, 0.0, 1.6518370612083087E9, 0.0, 2022-05-06 12:37:41.208
6.0, -209.0772370728664, -74.23140427051112, -139.22712560044602, -176.69157340656966, 0.06400000303983688, 0.12800000607967377, 0.0, 0.0, 0.0, 0.0, 0.0, 0.0, 1.6518370612083087E9, 0.0, 2022-05-06 12:37:41.208
7.0, -275.94664828060195, -225.30466298060492, -221.62086152425036, -229.31944558303803, 0.06400000303983688, 0.12800000607967377, 0.0, 0.0, 0.0, 0.0, 0.0, 0.0, 1.651837061221327E9, 0.0, 2022-05-06 12:37:41.221
7.0, -327.23189637297764, -259.1881565791555, -262.23617504304275, -239.5555517617613, 0.06400000303983688, 0.12800000607967377, 0.0, 0.0, 0.0, 0.0, 0.0, 0.0, 1.651837061221327E9, 0.0, 2022-05-06 12:37:41.221
8.0, -261.15908385580406, -111.44714872958139, -174.41958418348804, -195.52944948337972, 0.06400000303983688, 0.12800000607967377, 0.0, 0.0, 0.0, 0.0, 0.0, 0.0, 1.651837061237349E9, 0.0, 2022-05-06 12:37:41.237
8.0, -215.99605199089274, -74.17156587122008, -119.49167353427038, -153.4443552820012, 0.06400000303983688, 0.12800000607967377, 0.0, 0.0, 0.0, 0.0, 0.0, 0.0, 1.651837061237349E9, 0.0, 2022-05-06 12:37:41.237
9.0, -263.9976679221727, -207.98144638584927, -198.81121169449762, -191.15002663526684, 0.06400000303983688, 0.12800000607967377, 0.0, 0.0, 0.0, 0.0, 0.0, 0.0, 1.6518370612383E9, 0.0, 2022-05-06 12:37:41.238
9.0, -304.25021114526317, -243.5815540640615, -253.0696802516468, -236.21208120137453, 0.06400000303983688, 0.12800000607967377, 0.0, 0.0, 0.0, 0.0, 0.0, 0.0, 1.6518370612383E9, 0.0, 2022-05-06 12:37:41.238
10.0, -241.47225048905239, -98.96710257744417, -160.10324715310708, -171.87084236368537, 0.06400000303983688, 0.12800000607967377, 0.5120000243186951, 0.0, 0.0, 0.0, 0.0, 0.0, 1.6518370612513676E9, 0.0, 2022-05-06 12:37:41.251
10.0, -214.46269300905988, -70.46532501513138, -116.90740266488865, -151.23781430814415, 0.06400000303983688, 0.12800000607967377, 0.5120000243186951, 0.0, 0.0, 0.0, 0.0, 0.0, 1.6518370612513676E9, 0.0, 2022-05-06 12:37:41.251
11.0, -280.0493185319938, -211.43337404495105, -206.58646370237693, -207.31013434380293, 0.06400000303983688, 0.06400000303983688, 0.5120000243186951, 0.0, 0.0, 0.0, 0.0, 0.0, 1.6518370612673247E9, 0.0, 2022-05-06 12:37:41.267
11.0, -319.99892985867336, -250.26101538492367, -251.33436667220667, -233.01072683930397, 0.06400000303983688, 0.06400000303983688, 0.5120000243186951, 0.0, 0.0, 0.0, 0.0, 0.0, 1.6518370612673247E9, 0.0, 2022-05-06 12:37:41.267
12.0, -248.1330123101361, -93.82848003832623, -162.30230832705274, -173.5238781441003, 0.09600000455975533, 0.06400000303983688, 0.5120000243186951, 0.0, 0.0, 0.0, 0.0, 0.0, 1.651837061268301E9, 0.0, 2022-05-06 12:37:41.268
12.0, -209.67936096573249, -81.81966128060594, -123.34003058867529, -156.8551440415904, 0.09600000455975533, 0.06400000303983688, 0.5120000243186951, 0.0, 0.0, 0.0, 0.0, 0.0, 1.651837061268301E9, 0.0, 2022-05-06 12:37:41.268
13.0, -285.58437046641484, -233.59602118236944, -212.53664453187957, -206.1732047572732, 0.09600000455975533, 0.06400000303983688, 0.5120000243186951, 0.0, 0.0, 0.0, 0.0, 0.0, 1.6518370612813325E9, 0.0, 2022-05-06 12:37:41.281
13.0, -310.48836427135393, -233.14349328773096, -246.79038822604343, -225.19059603195637, 0.09600000455975533, 0.06400000303983688, 0.5120000243186951, 0.0, 0.0, 0.0, 0.0, 0.0, 1.6518370612813325E9, 0.0, 2022-05-06 12:37:41.281
14.0, -231.37452060868964, -65.77923037065193, -140.24063848843798, -156.95612134039402, 0.09600000455975533, 0.06400000303983688, 0.5120000243186951, 0.0, 0.0, 0.0, 0.0, 0.0, 1.6518370613133795E9, 0.0, 2022-05-06 12:37:41.313
14.0, -210.5993763548322, -84.34783365065232, -117.87977665336803, -137.50116177089512, 0.09600000455975533, 0.06400000303983688, 0.5120000243186951, 0.0, 0.0, 0.0, 0.0, 0.0, 1.6518370613133795E9, 0.0, 2022-05-06 12:37:41.313
15.0, -286.7848783521913, -245.33556714328006, -229.5344898304902, -219.1057788040489, 0.09600000455975533, 0.06400000303983688, 0.5120000243186951, 0.0, 0.0, 0.0, 0.0, 0.0, 1.6518370613142865E9, 0.0, 2022-05-06 12:37:41.314
15.0, -315.75040350900963, -243.74610966211185, -265.6544436025433, -257.155520953238, 0.09600000455975533, 0.06400000303983688, 0.5120000243186951, 0.0, 0.0, 0.0, 0.0, 0.0, 1.6518370613142865E9, 0.0, 2022-05-06 12:37:41.314
16.0, -246.89884532475844, -77.82918802788481, -152.54864924261346, -174.16340103652328, 0.09600000455975533, 0.06400000303983688, 0.5120000243186951, 0.0, 0.0, 0.0, 0.0, 0.0, 1.651837061315288E9, 0.0, 2022-05-06 12:37:41.315
16.0, -223.1617003059946, -99.16157737514004, -136.39228143403307, -157.00847993977368, 0.09600000455975533, 0.06400000303983688, 0.5120000243186951, 0.0, 0.0, 0.0, 0.0, 0.0, 1.651837061315288E9, 0.0, 2022-05-06 12:37:41.315
17.0, -296.76667133392766, -260.2241088668816, -238.1699188281782, -222.68112316168845, 0.09600000455975533, 0.06400000303983688, 0.5120000243186951, 0.0, 0.0, 0.0, 0.0, 0.0, 1.6518370613163095E9, 0.0, 2022-05-06 12:37:41.316
17.0, -323.41719841817394, -234.7179911690764, -251.30070757260546, -244.1556287072599, 0.09600000455975533, 0.06400000303983688, 0.5120000243186951, 0.0, 0.0, 0.0, 0.0, 0.0, 1.6518370613163095E9, 0.0, 2022-05-06 12:37:41.316
18.0, -236.00451675383374, -66.48981136223301, -143.17645995365456, -176.54197740834206, 0.09600000455975533, 0.06400000303983688, 0.5120000243186951, 0.0, 0.0, 0.0, 0.0, 0.0, 1.6518370613263564E9, 0.0, 2022-05-06 12:37:41.326
18.0, -221.96867222012952, -109.16954965656623, -142.604255260434, -171.14156187232584, 0.09600000455975533, 0.06400000303983688, 0.5120000243186951, 0.0, 0.0, 0.0, 0.0, 0.0, 1.6518370613263564E9, 0.0, 2022-05-06 12:37:41.326
19.0, -293.43442047340795, -258.0287875928916, -234.0896879765205, -221.63021127413958, 0.09600000455975533, 0.06400000303983688, 0.5120000243186951, 0.0, 0.0, 0.0, 0.0, 0.0, 1.65183706134133E9, 0.0, 2022-05-06 12:37:41.341
19.0, -312.7659633443691, -224.92319318512455, -249.07920699892566, -234.3346514236182, 0.09600000455975533, 0.06400000303983688, 0.5120000243186951, 0.0, 0.0, 0.0, 0.0, 0.0, 1.65183706134133E9, 0.0, 2022-05-06 12:37:41.341
20.0, -229.76636362774298, -63.47545199794695, -142.27888396428898, -170.14674848411232, 0.09600000455975533, 0.06400000303983688, 0.7680000364780426, 0.0, 0.0, 0.0, 0.0, 0.0, 1.6518370613563507E9, 0.0, 2022-05-06 12:37:41.356
20.0, -223.56186960125342, -105.26509410282597, -143.1278412542306, -165.10910324379802, 0.09600000455975533, 0.06400000303983688, 0.7680000364780426, 0.0, 0.0, 0.0, 0.0, 0.0, 1.6518370613563507E9, 0.0, 2022-05-06 12:37:41.356
21.0, -307.51888370653614, -260.9533893582411, -234.0934278764762, -218.9225237062201, 0.09600000455975533, 0.11200000531971455, 0.7680000364780426, 0.0, 0.0, 0.0, 0.0, 0.0, 1.65183706135729E9, 0.0, 2022-05-06 12:37:41.357
21.0, -310.765116868075, -229.44847213150933, -248.56310080504045, -228.08901849761605, 0.09600000455975533, 0.11200000531971455, 0.7680000364780426, 0.0, 0.0, 0.0, 0.0, 0.0, 1.65183706135729E9, 0.0, 2022-05-06 12:37:41.357
22.0, -226.63606736483052, -56.362162282224745, -136.47081933310255, -154.4466484701261, 0.11200000531971455, 0.11200000531971455, 0.7680000364780426, 0.0, 0.0, 0.0, 0.0, 0.0, 1.6518370613713424E9, 0.0, 2022-05-06 12:37:41.371
22.0, -224.1639934941195, -103.1408309279941, -139.07004980230704, -168.37029600515962, 0.11200000531971455, 0.11200000531971455, 0.7680000364780426, 0.0, 0.0, 0.0, 0.0, 0.0, 1.6518370613713424E9, 0.0, 2022-05-06 12:37:41.371
23.0, -293.228725975845, -258.8889645827003, -232.66852599335834, -221.98550176993012, 0.11200000531971455, 0.11200000531971455, 0.7680000364780426, 0.0, 0.0, 0.0, 0.0, 0.0, 1.651837061386397E9, 0.0, 2022-05-06 12:37:41.386
23.0, -300.6860864874907, -214.36171571025625, -226.87916086195037, -201.99199660681188, 0.11200000531971455, 0.11200000531971455, 0.7680000364780426, 0.0, 0.0, 0.0, 0.0, 0.0, 1.651837061386397E9, 0.0, 2022-05-06 12:37:41.386
24.0, -220.89158103289083, -50.12026925617829, -130.99186589801684, -146.98180815856904, 0.11200000531971455, 0.11200000531971455, 0.7680000364780426, 0.0, 0.0, 0.0, 0.0, 0.0, 1.651837061387321E9, 0.0, 2022-05-06 12:37:41.387
24.0, -225.13636748259887, -111.54438612842932, -147.32774890447035, -170.3748823814094, 0.11200000531971455, 0.11200000531971455, 0.7680000364780426, 0.0, 0.0, 0.0, 0.0, 0.0, 1.651837061387321E9, 0.0, 2022-05-06 12:37:41.387
25.0, -299.10410880623385, -263.6274178265594, -242.11551328143105, -234.32717162370682, 0.11200000531971455, 0.11200000531971455, 0.7680000364780426, 0.0, 0.0, 0.0, 0.0, 0.0, 1.6518370614013824E9, 0.0, 2022-05-06 12:37:41.401
25.0, -308.65955319302157, -220.48767183767632, -241.93973798351362, -230.7406075662002, 0.11200000531971455, 0.11200000531971455, 0.7680000364780426, 0.0, 0.0, 0.0, 0.0, 0.0, 1.6518370614013824E9, 0.0, 2022-05-06 12:37:41.401
26.0, -224.94937248481438, -54.11448240885511, -139.601115596015, -166.55644452665, 0.11200000531971455, 0.11200000531971455, 0.7680000364780426, 0.0, 0.0, 0.0, 0.0, 0.0, 1.6518370614163294E9, 0.0, 2022-05-06 12:37:41.416
26.0, -230.48816431919113, -115.72185437893495, -142.43221986247227, -170.32252378202975, 0.11200000531971455, 0.11200000531971455, 0.7680000364780426, 0.0, 0.0, 0.0, 0.0, 0.0, 1.6518370614163294E9, 0.0, 2022-05-06 12:37:41.416
27.0, -305.9817848247476, -272.5956979203038, -244.09018045803532, -221.8471254715696, 0.11200000531971455, 0.11200000531971455, 0.7680000364780426, 0.0, 0.0, 0.0, 0.0, 0.0, 1.6518370614172895E9, 0.0, 2022-05-06 12:37:41.417
27.0, -304.7887567388825, -221.1271947300993, -240.52231590030715, -222.5838857628405, 0.11200000531971455, 0.11200000531971455, 0.7680000364780426, 0.0, 0.0, 0.0, 0.0, 0.0, 1.6518370614172895E9, 0.0, 2022-05-06 12:37:41.417
28.0, -227.62714085308835, -49.97441315790638, -131.0404845974408, -160.0751979034394, 0.11200000531971455, 0.11200000531971455, 0.7680000364780426, 0.0, 0.0, 0.0, 0.0, 0.0, 1.6518370614313574E9, 0.0, 2022-05-06 12:37:41.431
28.0, -220.4614925379865, -106.9218697831966, -135.35632914630696, -156.8551440415904, 0.11200000531971455, 0.11200000531971455, 0.7680000364780426, 0.0, 0.0, 0.0, 0.0, 0.0, 1.6518370614313574E9, 0.0, 2022-05-06 12:37:41.431
29.0, -300.81324308598414, -271.1446167374961, -248.20033050933853, -248.24707925878465, 0.11200000531971455, 0.11200000531971455, 0.7680000364780426, 0.0, 0.0, 0.0, 0.0, 0.0, 1.651837061446338E9, 0.0, 2022-05-06 12:37:41.446
29.0, -311.0456093647517, -217.970719167497, -237.96422433061525, -228.52658679243177, 0.11200000531971455, 0.11200000531971455, 0.7680000364780426, 0.0, 0.0, 0.0, 0.0, 0.0, 1.651837061446338E9, 0.0, 2022-05-06 12:37:41.446
30.0, -230.0206768247299, -55.569303491618484, -133.59109636722133, -165.62146953772753, 0.11200000531971455, 0.11200000531971455, 0.8960000425577164, 0.0, 0.0, 0.0, 0.0, 0.0, 1.651837061447302E9, 0.0, 2022-05-06 12:37:41.447
30.0, -222.58575571281835, -108.95637535909191, -132.25595208304003, -154.2633933722973, 0.11200000531971455, 0.11200000531971455, 0.8960000425577164, 0.0, 0.0, 0.0, 0.0, 0.0, 1.651837061447302E9, 0.0, 2022-05-06 12:37:41.447
31.0, -296.4637394375168, -262.19877604348585, -242.7662558737211, -218.78788730781525, 0.11200000531971455, 0.11200000531971455, 0.8960000425577164, 0.0, 0.0, 0.0, 0.0, 0.0, 1.651837061461389E9, 0.0, 2022-05-06 12:37:41.461
31.0, -302.671973363962, -215.43506699753925, -244.9092185483314, -241.42924163956195, 0.11200000531971455, 0.11200000531971455, 0.8960000425577164, 0.0, 0.0, 0.0, 0.0, 0.0, 1.651837061461389E9, 0.0, 2022-05-06 12:37:41.461
32.0, -224.16773339407519, -47.95486718183383, -129.09199672052637, -163.02597896847874, 0.12800000607967377, 0.11200000531971455, 0.8960000425577164, 0.0, 0.0, 0.0, 0.0, 0.0, 1.6518370614763236E9, 0.0, 2022-05-06 12:37:41.476
32.0, -215.61458219541237, -104.46849541226402, -135.31145034683868, -159.8582837060094, 0.12800000607967377, 0.11200000531971455, 0.8960000425577164, 0.0, 0.0, 0.0, 0.0, 0.0, 1.6518370614763236E9, 0.0, 2022-05-06 12:37:41.476
33.0, -300.9104804848321, -268.4743281691335, -236.7599765448831, -215.52295464649796, 0.12800000607967377, 0.11200000531971455, 0.8960000425577164, 0.0, 0.0, 0.0, 0.0, 0.0, 1.6518370614772787E9, 0.0, 2022-05-06 12:37:41.477
33.0, -304.0931353471242, -213.88674841588363, -237.47429743641987, -213.30145407281816, 0.12800000607967377, 0.11200000531971455, 0.8960000425577164, 0.0, 0.0, 0.0, 0.0, 0.0, 1.6518370614772787E9, 0.0, 2022-05-06 12:37:41.477
34.0, -217.7126660705544, -45.13872251519933, -128.6693880255334, -163.42988816369325, 0.12800000607967377, 0.11200000531971455, 0.8960000425577164, 0.0, 0.0, 0.0, 0.0, 0.0, 1.651837061491392E9, 0.0, 2022-05-06 12:37:41.491
34.0, -217.34989577485248, -108.13733726879582, -136.73261233000085, -162.4425545753911, 0.12800000607967377, 0.11200000531971455, 0.8960000425577164, 0.0, 0.0, 0.0, 0.0, 0.0, 1.651837061491392E9, 0.0, 2022-05-06 12:37:41.491
35.0, -307.6796994046308, -278.0073331561871, -252.0673870635219, -237.69308158382773, 0.12800000607967377, 0.11200000531971455, 0.8960000425577164, 0.0, 0.0, 0.0, 0.0, 0.0, 1.6518370615063393E9, 0.0, 2022-05-06 12:37:41.506
35.0, -310.2116116746329, -217.55933017237112, -242.45210427744314, -227.9282027995214, 0.12800000607967377, 0.11200000531971455, 0.8960000425577164, 0.0, 0.0, 0.0, 0.0, 0.0, 1.6518370615063393E9, 0.0, 2022-05-06 12:37:41.506
36.0, -226.0937818712555, -49.58920346247032, -130.39722180506214, -148.75078083761036, 0.12800000607967377, 0.11200000531971455, 0.8960000425577164, 0.0, 0.0, 0.0, 0.0, 0.0, 1.6518370615072877E9, 0.0, 2022-05-06 12:37:41.507
36.0, -217.72014587046579, -113.25352040817961, -135.42364734550938, -159.47307401057333, 0.12800000607967377, 0.11200000531971455, 0.8960000425577164, 0.0, 0.0, 0.0, 0.0, 0.0, 1.6518370615072877E9, 0.0, 2022-05-06 12:37:41.507
37.0, -296.1869868407957, -267.8946436760016, -234.16074607567862, -218.49243521131575, 0.12800000607967377, 0.11200000531971455, 0.8960000425577164, 0.0, 0.0, 0.0, 0.0, 0.0, 1.651837061521421E9, 0.0, 2022-05-06 12:37:41.521
37.0, -288.8231238280423, -197.87997660553083, -224.13781419442967, -197.6911116577685, 0.12800000607967377, 0.11200000531971455, 0.8960000425577164, 0.0, 0.0, 0.0, 0.0, 0.0, 1.651837061521421E9, 0.0, 2022-05-06 12:37:41.521
38.0, -233.7194378809072, -58.90155435213819, -146.2730971169658, -192.08500162418932, 0.12800000607967377, 0.11200000531971455, 0.8960000425577164, 0.0, 0.0, 0.0, 0.0, 0.0, 1.6518370615363307E9, 0.0, 2022-05-06 12:37:41.536
38.0, -239.07871451741084, -121.45138111105189, -145.55877622542903, -179.7134125707671, 0.12800000607967377, 0.11200000531971455, 0.8960000425577164, 0.0, 0.0, 0.0, 0.0, 0.0, 1.6518370615363307E9, 0.0, 2022-05-06 12:37:41.536
39.0, -307.33562860870734, -275.6586759840138, -247.2840550201945, -243.68814121279866, 0.12800000607967377, 0.11200000531971455, 0.8960000425577164, 0.0, 0.0, 0.0, 0.0, 0.0, 1.651837061537282E9, 0.0, 2022-05-06 12:37:41.537
39.0, -300.77210418647155, -204.54073842661455, -233.70821818104014, -225.41125012934208, 0.12800000607967377, 0.11200000531971455, 0.8960000425577164, 0.0, 0.0, 0.0, 0.0, 0.0, 1.651837061537282E9, 0.0, 2022-05-06 12:37:41.537
40.0, -225.28970338078216, -53.74423231324181, -126.49276625132188, -158.66151572018862, 0.12800000607967377, 0.11200000531971455, 0.9600000455975533, 0.0, 0.0, 0.0, 0.0, 0.0, 1.6518370615513484E9, 0.0, 2022-05-06 12:37:41.551
40.0, -212.57778343139216, -104.07206601696089, -122.34147730050609, -133.18905712198466, 0.12800000607967377, 0.11200000531971455, 0.9600000455975533, 0.0, 0.0, 0.0, 0.0, 0.0, 1.6518370615513484E9, 0.0, 2022-05-06 12:37:41.551
41.0, -290.4200611091219, -267.6178910792805, -245.14109234558418, -225.12327783275396, 0.12800000607967377, 0.12800000607967377, 0.9600000455975533, 0.0, 0.0, 0.0, 0.0, 0.0, 1.6518370615663335E9, 0.0, 2022-05-06 12:37:41.566
41.0, -295.0463173543103, -199.36471688793972, -233.49130398361012, -229.6597764790058, 0.12800000607967377, 0.12800000607967377, 0.9600000455975533, 0.0, 0.0, 0.0, 0.0, 0.0, 1.6518370615663335E9, 0.0, 2022-05-06 12:37:41.566
42.0, -225.35328168002889, -50.666294649709016, -136.489518832881, -164.6303960494697, 0.12800000607967377, 0.12800000607967377, 0.9600000455975533, 0.0, 0.0, 0.0, 0.0, 0.0, 1.6518370615672853E9, 0.0, 2022-05-06 12:37:41.567
42.0, -222.795190110337, -118.24254694906995, -139.0513503025286, -160.17991510219872, 0.12800000607967377, 0.12800000607967377, 0.9600000455975533, 0.0, 0.0, 0.0, 0.0, 0.0, 1.6518370615672853E9, 0.0, 2022-05-06 12:37:41.567
43.0, -302.6009152648039, -279.87728313403204, -252.01876836409792, -228.61260449141264, 0.12800000607967377, 0.12800000607967377, 0.9600000455975533, 0.0, 0.0, 0.0, 0.0, 0.0, 1.651837061581349E9, 0.0, 2022-05-06 12:37:41.581
43.0, -287.271065346431, -196.75800661882386, -221.04117703111842, -206.89126554876566, 0.12800000607967377, 0.12800000607967377, 0.9600000455975533, 0.0, 0.0, 0.0, 0.0, 0.0, 1.651837061581349E9, 0.0, 2022-05-06 12:37:41.581
44.0, -208.9276410746388, -26.521500535774976, -103.98978821793571, -128.01303558330983, 0.12800000607967377, 0.12800000607967377, 0.9600000455975533, 0.0, 0.0, 0.0, 0.0, 0.0, 1.6518370616133575E9, 0.0, 2022-05-06 12:37:41.613
44.0, -224.29862989252433, -117.37863005930558, -146.53863001381978, -162.49117327481508, 0.12800000607967377, 0.12800000607967377, 0.9600000455975533, 0.0, 0.0, 0.0, 0.0, 0.0, 1.6518370616133575E9, 0.0, 2022-05-06 12:37:41.613
45.0, -298.8984143086709, -276.5300726736896, -250.6985836797394, -241.14500924292952, 0.12800000607967377, 0.12800000607967377, 0.9600000455975533, 0.0, 0.0, 0.0, 0.0, 0.0, 1.6518370616143444E9, 0.0, 2022-05-06 12:37:41.614
45.0, -289.10735622467473, -198.20160800172016, -224.4183066911064, -215.92686384171247, 0.12800000607967377, 0.12800000607967377, 0.9600000455975533, 0.0, 0.0, 0.0, 0.0, 0.0, 1.6518370616143444E9, 0.0, 2022-05-06 12:37:41.614
46.0, -208.23575958283618, -42.232820249628276, -123.27645228942856, -159.95926100481302, 0.12800000607967377, 0.12800000607967377, 0.9600000455975533, 0.0, 0.0, 0.0, 0.0, 0.0, 1.6518370616152916E9, 0.0, 2022-05-06 12:37:41.615
46.0, -218.4905652613379, -119.54403213365003, -142.3798612630926, -161.81051148287952, 0.12800000607967377, 0.12800000607967377, 0.9600000455975533, 0.0, 0.0, 0.0, 0.0, 0.0, 1.6518370616152916E9, 0.0, 2022-05-06 12:37:41.615
47.0, -306.96163861313835, -277.3416309640743, -250.68362407991663, -236.69078839570284, 0.12800000607967377, 0.12800000607967377, 0.9600000455975533, 0.0, 0.0, 0.0, 0.0, 0.0, 1.6518370616163197E9, 0.0, 2022-05-06 12:37:41.616
47.0, -298.37108841491863, -205.10920321987942, -233.4613847839646, -225.87499772384763, 0.12800000607967377, 0.12800000607967377, 0.9600000455975533, 0.0, 0.0, 0.0, 0.0, 0.0, 1.6518370616163197E9, 0.0, 2022-05-06 12:37:41.616
48.0, -217.84356256900355, -38.71357439132407, -125.76348575996235, -156.60083084460348, 0.12800000607967377, 0.12800000607967377, 0.9600000455975533, 0.0, 0.0, 0.0, 0.0, 0.0, 1.6518370616263351E9, 0.0, 2022-05-06 12:37:41.626
48.0, -219.30212355172262, -120.40046922350302, -141.69545957120135, -159.35339721199125, 0.12800000607967377, 0.12800000607967377, 0.9600000455975533, 0.0, 0.0, 0.0, 0.0, 0.0, 1.6518370616263351E9, 0.0, 2022-05-06 12:37:41.626
49.0, -297.21919922856614, -273.1080642142333, -244.10887995781377, -223.97138864640146, 0.12800000607967377, 0.12800000607967377, 0.9600000455975533, 0.0, 0.0, 0.0, 0.0, 0.0, 1.651837061641332E9, 0.0, 2022-05-06 12:37:41.641
49.0, -295.31933005107567, -192.438422170002, -222.31648291600868, -209.1763444216922, 0.12800000607967377, 0.12800000607967377, 0.9600000455975533, 0.0, 0.0, 0.0, 0.0, 0.0, 1.651837061641332E9, 0.0, 2022-05-06 12:37:41.641
50.0, -208.10112318443134, -35.96848782384768, -113.79954580171034, -135.66861079260707, 0.12800000607967377, 0.12800000607967377, 0.9920000471174717, 0.0, 0.0, 0.0, 0.0, 0.0, 1.651837061657333E9, 0.0, 2022-05-06 12:37:41.657
50.0, -222.4249400147237, -125.23241996625438, -149.37721408018842, -184.55658301338553, 0.12800000607967377, 0.12800000607967377, 0.9920000471174717, 0.0, 0.0, 0.0, 0.0, 0.0, 1.651837061657333E9, 0.0, 2022-05-06 12:37:41.657
51.0, -304.6765597402118, -279.6267098370008, -244.0266021587886, -222.66242366191, 0.12800000607967377, 0.12800000607967377, 0.9920000471174717, 0.0, 0.0, 0.0, 0.0, 0.0, 1.6518370616582792E9, 0.0, 2022-05-06 12:37:41.658
51.0, -302.07358937105164, -211.68394734198228, -243.75358946202323, -232.6629161434248, 0.12800000607967377, 0.12800000607967377, 0.9920000471174717, 0.0, 0.0, 0.0, 0.0, 0.0, 1.6518370616582792E9, 0.0, 2022-05-06 12:37:41.658
52.0, -211.4146745451726, -38.46300109429285, -124.69387437263504, -154.5962444683537, 0.12800000607967377, 0.12800000607967377, 0.9920000471174717, 0.0, 0.0, 0.0, 0.0, 0.0, 1.651837061671379E9, 0.0, 2022-05-06 12:37:41.671
52.0, -224.91945328516886, -125.47177356341854, -144.78087703464553, -165.42699474003166, 0.12800000607967377, 0.12800000607967377, 0.9920000471174717, 0.0, 0.0, 0.0, 0.0, 0.0, 1.651837061671379E9, 0.0, 2022-05-06 12:37:41.671
53.0, -309.4224927839823, -283.35165019286796, -248.061954210978, -227.02314701024443, 0.12800000607967377, 0.12800000607967377, 0.9920000471174717, 0.0, 0.0, 0.0, 0.0, 0.0, 1.6518370616863964E9, 0.0, 2022-05-06 12:37:41.686
53.0, -289.4551669205539, -184.38267766544595, -220.15108084166422, -203.40193889010698, 0.12800000607967377, 0.12800000607967377, 0.9920000471174717, 0.0, 0.0, 0.0, 0.0, 0.0, 1.6518370616863964E9, 0.0, 2022-05-06 12:37:41.686
54.0, -217.40973417414352, -40.43018847098574, -126.2272333544679, -162.7118273722008, 0.12800000607967377, 0.12800000607967377, 0.9920000471174717, 0.0, 0.0, 0.0, 0.0, 0.0, 1.6518370616873345E9, 0.0, 2022-05-06 12:37:41.687
54.0, -218.48682536138222, -128.2654788303189, -139.4216003981419, -159.80592510662973, 0.12800000607967377, 0.12800000607967377, 0.9920000471174717, 0.0, 0.0, 0.0, 0.0, 0.0, 1.6518370616873345E9, 0.0, 2022-05-06 12:37:41.687
55.0, -287.50667904363945, -271.9225159282796, -240.97484379494563, -223.48520165216178, 0.12800000607967377, 0.12800000607967377, 0.9920000471174717, 0.0, 0.0, 0.0, 0.0, 0.0, 1.651837061701416E9, 0.0, 2022-05-06 12:37:41.701
55.0, -288.76702532870695, -187.24744103150442, -221.11597503023222, -207.5083490414545, 0.12800000607967377, 0.12800000607967377, 0.9920000471174717, 0.0, 0.0, 0.0, 0.0, 0.0, 1.651837061701416E9, 0.0, 2022-05-06 12:37:41.701
56.0, -205.53929171478376, -24.77496725646779, -105.9943745941855, -127.7250632867217, 0.12800000607967377, 0.12800000607967377, 0.9920000471174717, 0.0, 0.0, 0.0, 0.0, 0.0, 1.6518370617173483E9, 0.0, 2022-05-06 12:37:41.717
56.0, -213.10510932514444, -122.36765660019591, -145.61861462472007, -167.71581351291388, 0.12800000607967377, 0.12800000607967377, 0.9920000471174717, 0.0, 0.0, 0.0, 0.0, 0.0, 1.6518370617173483E9, 0.0, 2022-05-06 12:37:41.717
57.0, -310.2751899738796, -279.8959826338105, -249.41953789489344, -238.25032667722553, 0.12800000607967377, 0.12800000607967377, 0.9920000471174717, 0.0, 0.0, 0.0, 0.0, 0.0, 1.651837061718361E9, 0.0, 2022-05-06 12:37:41.718
57.0, -299.4257402024232, -195.04513243911788, -230.7200381164439, -223.7769138487056, 0.12800000607967377, 0.12800000607967377, 0.9920000471174717, 0.0, 0.0, 0.0, 0.0, 0.0, 1.651837061718361E9, 0.0, 2022-05-06 12:37:41.718
58.0, -206.77719860011712, -32.36322426656261, -115.54233918106183, -147.04164655786008, 0.12800000607967377, 0.12800000607967377, 0.9920000471174717, 0.0, 0.0, 0.0, 0.0, 0.0, 1.651837061731432E9, 0.0, 2022-05-06 12:37:41.731
58.0, -215.16953410068527, -118.32856464805081, -139.10744880186394, -150.41503631789237, 0.12800000607967377, 0.12800000607967377, 0.9920000471174717, 0.0, 0.0, 0.0, 0.0, 0.0, 1.651837061731432E9, 0.0, 2022-05-06 12:37:41.731
59.0, -295.07249665400013, -270.3405382470228, -244.56514775240794, -228.35829129442573, 0.12800000607967377, 0.12800000607967377, 0.9920000471174717, 0.0, 0.0, 0.0, 0.0, 0.0, 1.6518370617473469E9, 0.0, 2022-05-06 12:37:41.747
59.0, -278.53839894989505, -182.16491699172184, -222.91112700896338, -213.92975726537406, 0.12800000607967377, 0.12800000607967377, 0.9920000471174717, 0.0, 0.0, 0.0, 0.0, 0.0, 1.6518370617473469E9, 0.0, 2022-05-06 12:37:41.747
60.0, -209.9710731622763, -38.74723349092528, -124.44330107560381, -155.34048455953598, 0.12800000607967377, 0.12800000607967377, 1.008000047877431, 0.0, 0.0, 0.0, 0.0, 0.0, 1.6518370617482803E9, 0.0, 2022-05-06 12:37:41.748
60.0, -244.1724582570605, -147.7877565990202, -164.542508400511, -185.21854530554265, 0.12800000607967377, 0.12800000607967377, 1.008000047877431, 0.0, 0.0, 0.0, 0.0, 0.0, 1.6518370617482803E9, 0.0, 2022-05-06 12:37:41.748
61.0, -309.0821618880145, -285.0495647727512, -258.12602499173954, -240.73362024780363, 0.12800000607967377, 0.12800000607967377, 1.008000047877431, 0.0, 0.0, 0.0, 0.0, 0.0, 1.6518370617613928E9, 0.0, 2022-05-06 12:37:41.761
61.0, -282.02772560855374, -184.12836446845904, -220.27823744015768, -223.5113809518516, 0.12800000607967377, 0.12800000607967377, 1.008000047877431, 0.0, 0.0, 0.0, 0.0, 0.0, 1.6518370617613928E9, 0.0, 2022-05-06 12:37:41.761
62.0, -203.31779114110395, -23.91105036670342, -113.20116180879995, -145.48958807624876, 0.12800000607967377, 0.12800000607967377, 1.008000047877431, 0.0, 0.0, 0.0, 0.0, 0.0, 1.6518370617773297E9, 0.0, 2022-05-06 12:37:41.777
62.0, -218.6364213596098, -128.5272718272172, -149.3884337800555, -162.5584914740175, 0.12800000607967377, 0.12800000607967377, 1.008000047877431, 0.0, 0.0, 0.0, 0.0, 0.0, 1.6518370617773297E9, 0.0, 2022-05-06 12:37:41.777
63.0, -297.55579022457823, -280.1989145302214, -249.0979064987041, -227.56543250381947, 0.12800000607967377, 0.12800000607967377, 1.008000047877431, 0.0, 0.0, 0.0, 0.0, 0.0, 1.6518370617782843E9, 0.0, 2022-05-06 12:37:41.778
63.0, -285.84242356335744, -174.9880489767529, -207.24842599453405, -194.41121939662844, 0.12800000607967377, 0.12800000607967377, 1.008000047877431, 0.0, 0.0, 0.0, 0.0, 0.0, 1.6518370617782843E9, 0.0, 2022-05-06 12:37:41.778
64.0, -199.95188118098304, -24.70016925735399, -108.67588286241516, -131.77537493873388, 0.12800000607967377, 0.12800000607967377, 1.008000047877431, 0.0, 0.0, 0.0, 0.0, 0.0, 1.6518370617914023E9, 0.0, 2022-05-06 12:37:41.791
64.0, -225.80206967471167, -130.95072699850425, -145.25210442906246, -163.08955726772547, 0.12800000607967377, 0.12800000607967377, 1.008000047877431, 0.0, 0.0, 0.0, 0.0, 0.0, 1.6518370617914023E9, 0.0, 2022-05-06 12:37:41.791
65.0, -284.5970368781127, -269.12881066137925, -238.7196841216646, -220.1080719921738, 0.12800000607967377, 0.12800000607967377, 1.008000047877431, 0.0, 0.0, 0.0, 0.0, 0.0, 1.651837061806331E9, 0.0, 2022-05-06 12:37:41.806
65.0, -286.17527465941384, -179.96211591782048, -221.33662912761793, -206.96232364792377, 0.12800000607967377, 0.12800000607967377, 1.008000047877431, 0.0, 0.0, 0.0, 0.0, 0.0, 1.651837061806331E9, 0.0, 2022-05-06 12:37:41.806
66.0, -208.40405508084223, -31.61524427542463, -116.35763737140223, -150.72170811425894, 0.12800000607967377, 0.12800000607967377, 1.008000047877431, 0.0, 0.0, 0.0, 0.0, 0.0, 1.651837061807284E9, 0.0, 2022-05-06 12:37:41.807
66.0, -234.10838747629896, -143.90948034496978, -149.56046917801723, -170.08691008482128, 0.12800000607967377, 0.12800000607967377, 1.008000047877431, 0.0, 0.0, 0.0, 0.0, 0.0, 1.651837061807284E9, 0.0, 2022-05-06 12:37:41.807
67.0, -308.4650783953257, -286.5978833544068, -252.04120776383206, -231.45866835769266, 0.12800000607967377, 0.12800000607967377, 1.008000047877431, 0.0, 0.0, 0.0, 0.0, 0.0, 1.6518370618213527E9, 0.0, 2022-05-06 12:37:41.821
67.0, -275.35200418764725, -174.8047938789241, -218.9056941564195, -214.0643936637789, 0.12800000607967377, 0.12800000607967377, 1.008000047877431, 0.0, 0.0, 0.0, 0.0, 0.0, 1.6518370618213527E9, 0.0, 2022-05-06 12:37:41.821
68.0, -211.14540174836293, -38.990326988045126, -128.32531722960994, -170.84984967578202, 0.12800000607967377, 0.12800000607967377, 1.008000047877431, 0.0, 0.0, 0.0, 0.0, 0.0, 1.6518370618363407E9, 0.0, 2022-05-06 12:37:41.836
68.0, -230.04311622446403, -146.76676391111687, -160.89610594371334, -187.0136972842738, 0.12800000607967377, 0.12800000607967377, 1.008000047877431, 0.0, 0.0, 0.0, 0.0, 0.0, 1.6518370618363407E9, 0.0, 2022-05-06 12:37:41.836
69.0, -313.08011494064704, -289.25321232294664, -256.4281104118563, -238.2278872774914, 0.12800000607967377, 0.12800000607967377, 1.008000047877431, 0.0, 0.0, 0.0, 0.0, 0.0, 1.6518370618372993E9, 0.0, 2022-05-06 12:37:41.837
69.0, -287.704893741291, -191.4436087817885, -228.3826006441377, -216.39061143621802, 0.12800000607967377, 0.12800000607967377, 1.008000047877431, 0.0, 0.0, 0.0, 0.0, 0.0, 1.6518370618372993E9, 0.0, 2022-05-06 12:37:41.837
70.0, -205.02692542085424, -40.18335507391021, -118.28742574853823, -152.8160520894453, 0.12800000607967377, 0.12800000607967377, 1.008000047877431, 0.0, 0.0, 0.0, 0.0, 0.0, 1.6518370618674123E9, 0.0, 2022-05-06 12:37:41.867
70.0, -241.3189145908691, -158.9812771664001, -171.01627522381023, -187.09597508329898, 0.12800000607967377, 0.12800000607967377, 1.008000047877431, 0.0, 0.0, 0.0, 0.0, 0.0, 1.6518370618674123E9, 0.0, 2022-05-06 12:37:41.867
71.0, -302.1184681705199, -285.8910422627814, -248.55188110517338, -226.67159641440958, 0.12800000607967377, 0.12800000607967377, 1.008000047877431, 0.0, 0.0, 0.0, 0.0, 0.0, 1.6518370618683205E9, 0.0, 2022-05-06 12:37:41.868
71.0, -288.31449743406847, -181.08034600457177, -218.8682951568626, -206.42003815434873, 0.12800000607967377, 0.12800000607967377, 1.008000047877431, 0.0, 0.0, 0.0, 0.0, 0.0, 1.6518370618683205E9, 0.0, 2022-05-06 12:37:41.868
72.0, -193.67632905533537, -15.380338567774743, -97.56464009406045, -126.59935340005904, 0.12800000607967377, 0.12800000607967377, 1.008000047877431, 0.0, 0.0, 0.0, 0.0, 0.0, 1.6518370618692825E9, 0.0, 2022-05-06 12:37:41.869
72.0, -222.0172909195535, -128.88256232300773, -139.9003075924702, -159.45811441075057, 0.12800000607967377, 0.12800000607967377, 1.008000047877431, 0.0, 0.0, 0.0, 0.0, 0.0, 1.6518370618692825E9, 0.0, 2022-05-06 12:37:41.869
73.0, -294.2235393640585, -269.16620966093615, -237.388279737439, -208.15909163374454, 0.12800000607967377, 0.12800000607967377, 1.008000047877431, 0.0, 0.0, 0.0, 0.0, 0.0, 1.6518370618813293E9, 0.0, 2022-05-06 12:37:41.881
73.0, -274.0355594032444, -165.3241474912502, -209.21561337122694, -189.29129635728896, 0.12800000607967377, 0.12800000607967377, 1.008000047877431, 0.0, 0.0, 0.0, 0.0, 0.0, 1.6518370618813293E9, 0.0, 2022-05-06 12:37:41.881
74.0, -203.09339714376256, -36.219061120878905, -120.54632532177493, -158.32866462413222, 0.12800000607967377, 0.12800000607967377, 1.008000047877431, 0.0, 0.0, 0.0, 0.0, 0.0, 1.6518370618963315E9, 0.0, 2022-05-06 12:37:41.896
74.0, -237.95674453070387, -153.03483623685315, -163.45419751340523, -197.62753335852176, 0.12800000607967377, 0.12800000607967377, 1.008000047877431, 0.0, 0.0, 0.0, 0.0, 0.0, 1.6518370618963315E9, 0.0, 2022-05-06 12:37:41.896
75.0, -308.77175019169226, -283.303031493444, -258.6496109855361, -237.68934168387204, 0.12800000607967377, 0.12800000607967377, 1.008000047877431, 0.0, 0.0, 0.0, 0.0, 0.0, 1.6518370618973365E9, 0.0, 2022-05-06 12:37:41.897
75.0, -281.20494761830196, -171.74181581521407, -211.6353286425583, -192.26825672201812, 0.12800000607967377, 0.12800000607967377, 1.008000047877431, 0.0, 0.0, 0.0, 0.0, 0.0, 1.6518370618973365E9, 0.0, 2022-05-06 12:37:41.897
76.0, -204.8586299228482, -30.37359749013558, -116.45487477025017, -145.16421678010374, 0.12800000607967377, 0.12800000607967377, 1.008000047877431, 0.0, 0.0, 0.0, 0.0, 0.0, 1.651837061911339E9, 0.0, 2022-05-06 12:37:41.911
76.0, -230.43954561976716, -154.14932642364874, -159.70681775780395, -189.35861455649137, 0.12800000607967377, 0.12800000607967377, 1.008000047877431, 0.0, 0.0, 0.0, 0.0, 0.0, 1.651837061911339E9, 0.0, 2022-05-06 12:37:41.911
77.0, -301.490164977964, -274.79101919429377, -256.1363982153125, -238.47098077461123, 0.12800000607967377, 0.12800000607967377, 1.008000047877431, 0.0, 0.0, 0.0, 0.0, 0.0, 1.6518370619273353E9, 0.0, 2022-05-06 12:37:41.927
77.0, -285.6367290657945, -172.59077310515568, -220.4951516375877, -220.14921089168638, 0.12800000607967377, 0.12800000607967377, 1.008000047877431, 0.0, 0.0, 0.0, 0.0, 0.0, 1.6518370619273353E9, 0.0, 2022-05-06 12:37:41.927
78.0, -216.10824898956344, -45.35563671262935, -123.16425529075786, -154.83185816556215, 0.12800000607967377, 0.12800000607967377, 1.008000047877431, 0.0, 0.0, 0.0, 0.0, 0.0, 1.6518370619282677E9, 0.0, 2022-05-06 12:37:41.928
78.0, -224.2387914932333, -141.63188127195463, -153.2031317348592, -167.48019981570542, 0.12800000607967377, 0.12800000607967377, 1.008000047877431, 0.0, 0.0, 0.0, 0.0, 0.0, 1.6518370619282677E9, 0.0, 2022-05-06 12:37:41.928
79.0, -285.31509766960517, -271.69064213102683, -245.03637514682487, -221.19264297932386, 0.12800000607967377, 0.12800000607967377, 1.008000047877431, 0.0, 0.0, 0.0, 0.0, 0.0, 1.6518370619413755E9, 0.0, 2022-05-06 12:37:41.941
79.0, -260.01467446936294, -152.67206594115123, -191.60068457992747, -181.83767574559897, 0.12800000607967377, 0.12800000607967377, 1.008000047877431, 0.0, 0.0, 0.0, 0.0, 0.0, 1.6518370619413755E9, 0.0, 2022-05-06 12:37:41.941
80.0, -206.95297389803454, -28.941215807106346, -112.71123491460457, -143.69069619756192, 0.12800000607967377, 0.12800000607967377, 1.0240000486373901, 0.0, 0.0, 0.0, 0.0, 0.0, 1.6518370619573276E9, 0.0, 2022-05-06 12:37:41.957
80.0, -228.89496693806723, -149.42957267956808, -157.70223138155416, -167.2969447178766, 0.12800000607967377, 0.12800000607967377, 1.0240000486373901, 0.0, 0.0, 0.0, 0.0, 0.0, 1.6518370619573276E9, 0.0, 2022-05-06 12:37:41.957
81.0, -304.3511884440668, -283.3815693925135, -265.8115194006823, -244.13318930752575, 0.12800000607967377, 0.12800000607967377, 1.0240000486373901, 0.0, 0.0, 0.0, 0.0, 0.0, 1.6518370619583025E9, 0.0, 2022-05-06 12:37:41.958
81.0, -267.5917117795907, -159.9050324554555, -204.79879152355716, -192.7619235161692, 0.12800000607967377, 0.12800000607967377, 1.0240000486373901, 0.0, 0.0, 0.0, 0.0, 0.0, 1.6518370619583025E9, 0.0, 2022-05-06 12:37:41.958
82.0, -199.49187348643318, -24.41967676067725, -106.00933419400826, -130.71324335131794, 0.12800000607967377, 0.12800000607967377, 1.0240000486373901, 0.0, 0.0, 0.0, 0.0, 0.0, 1.6518370619713392E9, 0.0, 2022-05-06 12:37:41.971
82.0, -228.8650477384217, -152.66832604119554, -165.63081928761676, -183.32241602800786, 0.12800000607967377, 0.12800000607967377, 1.0240000486373901, 0.0, 0.0, 0.0, 0.0, 0.0, 1.6518370619713392E9, 0.0, 2022-05-06 12:37:41.971
83.0, -291.13438200065866, -281.3021850171499, -249.8047475903295, -229.83555177692324, 0.12800000607967377, 0.12800000607967377, 1.0240000486373901, 0.0, 0.0, 0.0, 0.0, 0.0, 1.6518370619873488E9, 0.0, 2022-05-06 12:37:41.987
83.0, -267.961961875204, -166.40871847840026, -207.65981498965994, -195.80994198005646, 0.12800000607967377, 0.12800000607967377, 1.0240000486373901, 0.0, 0.0, 0.0, 0.0, 0.0, 1.6518370619873488E9, 0.0, 2022-05-06 12:37:41.987
84.0, -224.14903389429674, -40.41148897120729, -126.28333185380325, -155.0001536635682, 0.12800000607967377, 0.12800000607967377, 1.0240000486373901, 0.0, 0.0, 0.0, 0.0, 0.0, 1.6518370619883049E9, 0.0, 2022-05-06 12:37:41.988
84.0, -233.32674838555977, -154.91600591456518, -158.8690801677294, -178.48298548534513, 0.12800000607967377, 0.12800000607967377, 1.0240000486373901, 0.0, 0.0, 0.0, 0.0, 0.0, 1.6518370619883049E9, 0.0, 2022-05-06 12:37:41.988
85.0, -302.02871057158336, -279.069464743603, -248.52570180548355, -228.18999579641968, 0.12800000607967377, 0.12800000607967377, 1.0240000486373901, 0.0, 0.0, 0.0, 0.0, 0.0, 1.6518370620013547E9, 0.0, 2022-05-06 12:37:42.001
85.0, -285.5320118670352, -166.30400127964094, -213.83438981650397, -210.2496957089752, 0.12800000607967377, 0.12800000607967377, 1.0240000486373901, 0.0, 0.0, 0.0, 0.0, 0.0, 1.6518370620013547E9, 0.0, 2022-05-06 12:37:42.001
86.0, -206.51540560321882, -32.239807568024844, -115.43014218239114, -148.47028834093362, 0.12800000607967377, 0.12800000607967377, 1.0240000486373901, 0.0, 0.0, 0.0, 0.0, 0.0, 1.6518370620173635E9, 0.0, 2022-05-06 12:37:42.017
86.0, -226.4939511665143, -146.21325871767476, -153.49110403144732, -162.49865307472646, 0.12800000607967377, 0.12800000607967377, 1.0240000486373901, 0.0, 0.0, 0.0, 0.0, 0.0, 1.6518370620173635E9, 0.0, 2022-05-06 12:37:42.017
87.0, -284.4100418803282, -271.2156748366542, -244.1687183571048, -214.90587115380913, 0.12800000607967377, 0.12800000607967377, 1.0240000486373901, 0.0, 0.0, 0.0, 0.0, 0.0, 1.6518370620183184E9, 0.0, 2022-05-06 12:37:42.018
87.0, -277.72310075955465, -163.9142052079551, -213.84560951637104, -215.27238134946674, 0.12800000607967377, 0.12800000607967377, 1.0240000486373901, 0.0, 0.0, 0.0, 0.0, 0.0, 1.6518370620183184E9, 0.0, 2022-05-06 12:37:42.018
88.0, -210.2253863592632, -37.50184680568054, -118.34726414782926, -153.98290087562054, 0.12800000607967377, 0.12800000607967377, 1.0240000486373901, 0.0, 0.0, 0.0, 0.0, 0.0, 1.6518370620313942E9, 0.0, 2022-05-06 12:37:42.031
88.0, -240.93370489543304, -165.23438989231363, -165.90383198438212, -183.37103472743183, 0.12800000607967377, 0.12800000607967377, 1.0240000486373901, 0.0, 0.0, 0.0, 0.0, 0.0, 1.6518370620313942E9, 0.0, 2022-05-06 12:37:42.031
89.0, -305.28990333294496, -285.20664057089016, -252.32918006042019, -221.8882643710822, 0.12800000607967377, 0.12800000607967377, 1.0240000486373901, 0.0, 0.0, 0.0, 0.0, 0.0, 1.6518370620473628E9, 0.0, 2022-05-06 12:37:42.047
89.0, -280.4382681273855, -166.71539027476683, -210.7078334535472, -199.49374343641102, 0.12800000607967377, 0.12800000607967377, 1.0240000486373901, 0.0, 0.0, 0.0, 0.0, 0.0, 1.6518370620473628E9, 0.0, 2022-05-06 12:37:42.047
90.0, -202.47257375111803, -27.17224312806502, -108.05131956981495, -144.1469639921561, 0.12800000607967377, 0.12800000607967377, 1.0240000486373901, 0.0, 0.0, 0.0, 0.0, 0.0, 1.651837062048316E9, 0.0, 2022-05-06 12:37:42.048
90.0, -230.69759871670976, -157.88922637933865, -166.82010747352615, -173.1162290489301, 0.12800000607967377, 0.12800000607967377, 1.0240000486373901, 0.0, 0.0, 0.0, 0.0, 0.0, 1.651837062048316E9, 0.0, 2022-05-06 12:37:42.048
91.0, -313.9103727308102, -286.7848783521913, -266.8923504878767, -250.79395112860948, 0.12800000607967377, 0.12800000607967377, 1.0240000486373901, 0.0, 0.0, 0.0, 0.0, 0.0, 1.6518370620613396E9, 0.0, 2022-05-06 12:37:42.061
91.0, -282.8991222982295, -163.7234703102149, -205.43831441598013, -196.65889926999807, 0.12800000607967377, 0.12800000607967377, 1.0240000486373901, 0.0, 0.0, 0.0, 0.0, 0.0, 1.6518370620613396E9, 0.0, 2022-05-06 12:37:42.061
92.0, -196.3727969233878, -21.824186191428453, -103.48864162387326, -127.28749499190599, 0.12800000607967377, 0.12800000607967377, 1.0240000486373901, 0.0, 0.0, 0.0, 0.0, 0.0, 1.65183706207734E9, 0.0, 2022-05-06 12:37:42.077
92.0, -241.95469758333638, -169.07900704676285, -179.31885312544182, -197.93420515488833, 0.12800000607967377, 0.12800000607967377, 1.0240000486373901, 0.0, 0.0, 0.0, 0.0, 0.0, 1.65183706207734E9, 0.0, 2022-05-06 12:37:42.077
93.0, -334.7229159842245, -303.0123042599298, -283.58726389007643, -260.9440396083519, 0.12800000607967377, 0.12800000607967377, 1.0240000486373901, 0.0, 0.0, 0.0, 0.0, 0.0, 1.651837062078289E9, 0.0, 2022-05-06 12:37:42.078
93.0, -287.8918887390755, -170.53008822957054, -215.09847600152716, -211.82419359032065, 0.12800000607967377, 0.12800000607967377, 1.0240000486373901, 0.0, 0.0, 0.0, 0.0, 0.0, 1.651837062078289E9, 0.0, 2022-05-06 12:37:42.078
94.0, -200.2622928773053, -36.31629851972684, -111.90341652417555, -134.8383530024439, 0.12800000607967377, 0.12800000607967377, 1.0240000486373901, 0.0, 0.0, 0.0, 0.0, 0.0, 1.6518370620913525E9, 0.0, 2022-05-06 12:37:42.091
94.0, -242.63909927522764, -171.5810001171194, -178.01736794086173, -189.58300855383277, 0.12800000607967377, 0.12800000607967377, 1.0240000486373901, 0.0, 0.0, 0.0, 0.0, 0.0, 1.6518370620913525E9, 0.0, 2022-05-06 12:37:42.091
95.0, -318.19255818007514, -282.1174832074903, -255.2911808253266, -235.23222741298378, 0.12800000607967377, 0.12800000607967377, 1.0240000486373901, 0.0, 0.0, 0.0, 0.0, 0.0, 1.6518370621073432E9, 0.0, 2022-05-06 12:37:42.107
95.0, -283.8153977873735, -150.56276236614212, -203.377629540395, -203.43933788966388, 0.12800000607967377, 0.12800000607967377, 1.0240000486373901, 0.0, 0.0, 0.0, 0.0, 0.0, 1.6518370621073432E9, 0.0, 2022-05-06 12:37:42.107
96.0, -207.58127709059045, -32.247287367936224, -112.42700251797214, -153.65378967951983, 0.12800000607967377, 0.12800000607967377, 1.0240000486373901, 0.0, 0.0, 0.0, 0.0, 0.0, 1.6518370621083283E9, 0.0, 2022-05-06 12:37:42.108
96.0, -243.00186957092956, -169.33332024374977, -172.08962651109323, -187.98981117270887, 0.12800000607967377, 0.12800000607967377, 1.0240000486373901, 0.0, 0.0, 0.0, 0.0, 0.0, 1.6518370621083283E9, 0.0, 2022-05-06 12:37:42.108
97.0, -320.2532430556603, -293.17262747650966, -264.05750632146373, -241.38436284009367, 0.12800000607967377, 0.12800000607967377, 1.0240000486373901, 0.0, 0.0, 0.0, 0.0, 0.0, 1.6518370621213293E9, 0.0, 2022-05-06 12:37:42.121
97.0, -287.5552977430634, -159.44128486094996, -208.261938882526, -209.44187731854618, 0.12800000607967377, 0.12800000607967377, 1.0240000486373901, 0.0, 0.0, 0.0, 0.0, 0.0, 1.6518370621213293E9, 0.0, 2022-05-06 12:37:42.121
98.0, -200.10147717921063, -22.437529784161597, -94.50166203035042, -124.74436302203685, 0.12800000607967377, 0.12800000607967377, 1.0240000486373901, 0.0, 0.0, 0.0, 0.0, 0.0, 1.6518370621373634E9, 0.0, 2022-05-06 12:37:42.137
98.0, -236.07557485299185, -161.89091933192685, -162.74735642177984, -167.0800305204466, 0.12800000607967377, 0.12800000607967377, 1.0240000486373901, 0.0, 0.0, 0.0, 0.0, 0.0, 1.6518370621373634E9, 0.0, 2022-05-06 12:37:42.137
99.0, -300.1587605937384, -279.1554824425839, -250.78086147876456, -233.61659063212574, 0.12800000607967377, 0.12800000607967377, 1.0240000486373901, 0.0, 0.0, 0.0, 0.0, 0.0, 1.6518370621382957E9, 0.0, 2022-05-06 12:37:42.138
99.0, -268.35465137055144, -150.0167369726114, -198.7438934952952, -202.16029210481793, 0.12800000607967377, 0.12800000607967377, 1.0240000486373901, 0.0, 0.0, 0.0, 0.0, 0.0, 1.6518370621382957E9, 0.0, 2022-05-06 12:37:42.138
100.0, -219.8257095455192, -35.60197762819007, -116.68674856750295, -145.07819908112288, 0.12800000607967377, 0.12800000607967377, 1.0240000486373901, 0.0, 0.0, 0.0, 0.0, 0.0, 1.6518370621523387E9, 0.0, 2022-05-06 12:37:42.152
100.0, -239.3143282146193, -162.3920659259893, -169.97284313617274, -177.2338589001447, 0.12800000607967377, 0.12800000607967377, 1.0240000486373901, 0.0, 0.0, 0.0, 0.0, 0.0, 1.6518370621523387E9, 0.0, 2022-05-06 12:37:42.152
0.0, -314.91079596895725, -282.2708191056736, -258.9562827819027, -238.15682917833328, 0.12800000607967377, 0.12800000607967377, 1.0240000486373901, 0.0, 0.0, 0.0, 0.0, 0.0, 1.6518370621532748E9, 0.0, 2022-05-06 12:37:42.153
1.0, -276.9171523191035, -148.12060769507661, -197.15817591408268, -192.78810281585902, 0.12800000607967377, 0.12800000607967377, 1.0240000486373901, 0.0, 0.0, 0.0, 0.0, 0.0, 1.6518370621663666E9, 0.0, 2022-05-06 12:37:42.166
1.0, -221.08044598065317, -40.605963768903166, -122.61448999727145, -161.29814518895, 0.12800000607967377, 0.12800000607967377, 1.0240000486373901, 0.0, 0.0, 0.0, 0.0, 0.0, 1.6518370621663666E9, 0.0, 2022-05-06 12:37:42.166
2.0, -251.5269715199247, -172.63191200466827, -179.4721890236251, -188.21420517005026, 0.12800000607967377, 0.12800000607967377, 1.0240000486373901, 0.0, 0.0, 0.0, 0.0, 0.0, 1.6518370621823545E9, 0.0, 2022-05-06 12:37:42.182
2.0, -312.09091140236706, -278.47108075069264, -261.9968214458786, -241.3694032402709, 0.12800000607967377, 0.12800000607967377, 1.0240000486373901, 0.0, 0.0, 0.0, 0.0, 0.0, 1.6518370621823545E9, 0.0, 2022-05-06 12:37:42.182
3.0, -275.9896571300924, -148.610534589272, -198.82991119427606, -201.4983298126608, 0.12800000607967377, 0.12800000607967377, 1.0240000486373901, 0.0, 0.0, 0.0, 0.0, 0.0, 1.6518370621832972E9, 0.0, 2022-05-06 12:37:42.183
3.0, -205.62343946378678, -29.64431699877605, -107.65115027455613, -130.85161964967847, 0.12800000607967377, 0.12800000607967377, 1.0240000486373901, 0.0, 0.0, 0.0, 0.0, 0.0, 1.6518370621832972E9, 0.0, 2022-05-06 12:37:42.183
4.0, -245.93956098612398, -163.99274310702458, -163.7646092097275, -175.81643681693822, 0.12800000607967377, 0.12800000607967377, 1.0240000486373901, 0.0, 0.0, 0.0, 0.0, 0.0, 1.6518370622293613E9, 0.0, 2022-05-06 12:37:42.229
4.0, -312.3003457998857, -274.8433777936734, -256.56648671021685, -232.00843365117908, 0.12800000607967377, 0.12800000607967377, 1.0240000486373901, 0.0, 0.0, 0.0, 0.0, 0.0, 1.6518370622293613E9, 0.0, 2022-05-06 12:37:42.229
5.0, -277.2387837152928, -148.44971889117733, -205.35603661695495, -202.5791608998552, 0.12800000607967377, 0.12800000607967377, 1.0240000486373901, 0.0, 0.0, 0.0, 0.0, 0.0, 1.6518370622302878E9, 0.0, 2022-05-06 12:37:42.230
5.0, -206.74166955053806, -36.71646781498566, -117.14301636209711, -145.23527487926185, 0.12800000607967377, 0.12800000607967377, 1.0240000486373901, 0.0, 0.0, 0.0, 0.0, 0.0, 1.6518370622302878E9, 0.0, 2022-05-06 12:37:42.230
6.0, -255.40524777397513, -166.88742567272857, -165.03243529470637, -170.41976118087769, 0.12800000607967377, 0.12800000607967377, 1.0240000486373901, 0.0, 0.0, 0.0, 0.0, 0.0, 1.6518370622312837E9, 0.0, 2022-05-06 12:37:42.231
6.0, -312.779052994214, -273.47083450993523, -258.41773718828335, -224.82034593634307, 0.12800000607967377, 0.12800000607967377, 1.0240000486373901, 0.0, 0.0, 0.0, 0.0, 0.0, 1.6518370622312837E9, 0.0, 2022-05-06 12:37:42.231
7.0, -283.0318887466565, -150.03169657243416, -206.9679334978573, -206.947364048101, 0.12800000607967377, 0.12800000607967377, 1.0240000486373901, 0.0, 0.0, 0.0, 0.0, 0.0, 1.6518370622322843E9, 0.0, 2022-05-06 12:37:42.232
7.0, -213.71284306794405, -39.19228158565238, -115.56103868084028, -146.89205055963248, 0.12800000607967377, 0.12800000607967377, 1.0240000486373901, 0.0, 0.0, 0.0, 0.0, 0.0, 1.6518370622322843E9, 0.0, 2022-05-06 12:37:42.232
8.0, -255.13597497716546, -179.401130924467, -180.7661944082938, -191.37816053256392, 0.12800000607967377, 0.12800000607967377, 1.0240000486373901, 0.0, 0.0, 0.0, 0.0, 0.0, 1.6518370622413316E9, 0.0, 2022-05-06 12:37:42.241
8.0, -319.4472946152091, -283.25067289406434, -258.22700229054317, -237.40136938728392, 0.12800000607967377, 0.12800000607967377, 1.0240000486373901, 0.0, 0.0, 0.0, 0.0, 0.0, 1.6518370622413316E9, 0.0, 2022-05-06 12:37:42.241
9.0, -273.63352015800774, -144.2722506406717, -200.3370908764191, -195.3873332850635, 0.12800000607967377, 0.12800000607967377, 1.0240000486373901, 0.0, 0.0, 0.0, 0.0, 0.0, 1.6518370622422802E9, 0.0, 2022-05-06 12:37:42.242
9.0, -216.1362982392311, -40.84157746611163, -118.77361274277791, -152.16530949715525, 0.12800000607967377, 0.12800000607967377, 1.0240000486373901, 0.0, 0.0, 0.0, 0.0, 0.0, 1.6518370622422802E9, 0.0, 2022-05-06 12:37:42.242
10.0, -233.82602502964437, -165.9861097834073, -167.16043836949393, -165.157721943222, 0.12800000607967377, 0.12800000607967377, 1.0240000486373901, 0.0, 0.0, 0.0, 0.0, 0.0, 1.651837062256326E9, 0.0, 2022-05-06 12:37:42.256
10.0, -307.4347359575331, -275.8120118821971, -259.1320580798201, -234.43936862237751, 0.12800000607967377, 0.12800000607967377, 1.0240000486373901, 0.0, 0.0, 0.0, 0.0, 0.0, 1.651837062256326E9, 0.0, 2022-05-06 12:37:42.256
11.0, -287.6880641914904, -160.88114634389058, -212.51420513214543, -212.52729478199035, 0.12800000607967377, 0.12800000607967377, 1.0240000486373901, 0.0, 0.0, 0.0, 0.0, 0.0, 1.6518370622713482E9, 0.0, 2022-05-06 12:37:42.271
11.0, -220.98320858180523, -48.650488573592156, -119.39069623546675, -149.7007154263556, 0.12800000607967377, 0.12800000607967377, 1.0240000486373901, 0.0, 0.0, 0.0, 0.0, 0.0, 1.6518370622713482E9, 0.0, 2022-05-06 12:37:42.271
12.0, -259.0179911311716, -179.96211591782048, -182.86427828343585, -197.26102316286415, 0.12800000607967377, 0.12800000607967377, 1.0240000486373901, 0.0, 0.0, 0.0, 0.0, 0.0, 1.6518370622722833E9, 0.0, 2022-05-06 12:37:42.272
12.0, -337.3501957030967, -300.4990914897062, -277.06113846739754, -256.2803843636066, 0.12800000607967377, 0.12800000607967377, 1.0240000486373901, 0.0, 0.0, 0.0, 0.0, 0.0, 1.6518370622722833E9, 0.0, 2022-05-06 12:37:42.272
13.0, -274.62459364626557, -135.80137724103406, -196.30547872418538, -191.82320862729102, 0.12800000607967377, 0.12800000607967377, 1.0240000486373901, 0.0, 0.0, 0.0, 0.0, 0.0, 1.6518370622863488E9, 0.0, 2022-05-06 12:37:42.286
13.0, -208.45080383028835, -41.79151205485687, -116.13698327401653, -154.218514572829, 0.12800000607967377, 0.12800000607967377, 1.0240000486373901, 0.0, 0.0, 0.0, 0.0, 0.0, 1.6518370622863488E9, 0.0, 2022-05-06 12:37:42.286
14.0, -246.70250057708472, -179.20291622681543, -174.05307398783043, -185.22602510545403, 0.12800000607967377, 0.12800000607967377, 1.0240000486373901, 0.0, 0.0, 0.0, 0.0, 0.0, 1.6518370623014169E9, 0.0, 2022-05-06 12:37:42.301
14.0, -304.30817959457636, -270.90900304028764, -239.00017661834136, -207.82250063773245, 0.12800000607967377, 0.12800000607967377, 1.0240000486373901, 0.0, 0.0, 0.0, 0.0, 0.0, 1.6518370623014169E9, 0.0, 2022-05-06 12:37:42.301
15.0, -272.51155017130077, -142.51823756145313, -197.61444370867684, -190.74985734000802, 0.12800000607967377, 0.12800000607967377, 1.0240000486373901, 0.0, 0.0, 0.0, 0.0, 0.0, 1.6518370623022935E9, 0.0, 2022-05-06 12:37:42.302
15.0, -213.40991117153317, -49.944493958260864, -121.21202751388773, -153.15638298541307, 0.12800000607967377, 0.12800000607967377, 1.0240000486373901, 0.0, 0.0, 0.0, 0.0, 0.0, 1.6518370623022935E9, 0.0, 2022-05-06 12:37:42.302
16.0, -254.8629622804001, -187.38955722982064, -188.12631752109155, -190.80595583934337, 0.12800000607967377, 0.12800000607967377, 1.0240000486373901, 0.0, 0.0, 0.0, 0.0, 0.0, 1.6518370623163264E9, 0.0, 2022-05-06 12:37:42.316
16.0, -314.0020002797246, -283.65832198923454, -262.3670715414919, -250.70045362971723, 0.12800000607967377, 0.12800000607967377, 1.0240000486373901, 0.0, 0.0, 0.0, 0.0, 0.0, 1.6518370623163264E9, 0.0, 2022-05-06 12:37:42.316
17.0, -286.9139049006626, -158.45021137269214, -210.1879873597063, -205.36912626679987, 0.12800000607967377, 0.12800000607967377, 1.0240000486373901, 0.0, 0.0, 0.0, 0.0, 0.0, 1.651837062331338E9, 0.0, 2022-05-06 12:37:42.331
17.0, -214.07561336364597, -48.56447087461129, -115.04867238691077, -138.67175045702606, 0.12800000607967377, 0.12800000607967377, 1.0240000486373901, 0.0, 0.0, 0.0, 0.0, 0.0, 1.651837062331338E9, 0.0, 2022-05-06 12:37:42.331
18.0, -254.54133088421077, -183.3317657778971, -180.82977270754054, -189.9046399500221, 0.12800000607967377, 0.12800000607967377, 1.0240000486373901, 0.0, 0.0, 0.0, 0.0, 0.0, 1.6518370623322947E9, 0.0, 2022-05-06 12:37:42.332
18.0, -307.9246628517285, -271.182015737053, -257.46032279962674, -242.73072682414204, 0.12800000607967377, 0.12800000607967377, 1.0240000486373901, 0.0, 0.0, 0.0, 0.0, 0.0, 1.6518370623322947E9, 0.0, 2022-05-06 12:37:42.332
19.0, -269.5794686060399, -141.17935337731615, -193.65762955555692, -189.79992275126278, 0.12800000607967377, 0.12800000607967377, 1.0240000486373901, 0.0, 0.0, 0.0, 0.0, 0.0, 1.6518370623463273E9, 0.0, 2022-05-06 12:37:42.346
19.0, -217.34054602496326, -45.2247402141802, -117.25147346081212, -148.23841454368085, 0.12800000607967377, 0.12800000607967377, 1.0240000486373901, 0.0, 0.0, 0.0, 0.0, 0.0, 1.6518370623463273E9, 0.0, 2022-05-06 12:37:42.346
20.0, -245.54687149077654, -173.94087698915973, -176.4690493592061, -184.88943410944194, 0.12800000607967377, 0.12800000607967377, 1.008000047877431, 0.0, 0.0, 0.0, 0.0, 0.0, 1.6518370623613896E9, 0.0, 2022-05-06 12:37:42.361
20.0, -306.01357397437096, -274.64142319606617, -252.48625585855916, -236.0026468038559, 0.12800000607967377, 0.12800000607967377, 1.008000047877431, 0.0, 0.0, 0.0, 0.0, 0.0, 1.6518370623613896E9, 0.0, 2022-05-06 12:37:42.361
21.0, -276.2028314275667, -149.0144437844865, -193.4855941575952, -202.66143869888037, 0.12800000607967377, 0.12800000607967377, 1.008000047877431, 0.0, 0.0, 0.0, 0.0, 0.0, 1.651837062362301E9, 0.0, 2022-05-06 12:37:42.362
21.0, -211.62971879262477, -50.37832235312089, -118.08173125097528, -145.74764117319137, 0.12800000607967377, 0.12800000607967377, 1.008000047877431, 0.0, 0.0, 0.0, 0.0, 0.0, 1.651837062362301E9, 0.0, 2022-05-06 12:37:42.362
22.0, -252.13657521270216, -181.94052299438044, -188.20859532011673, -200.5446553239599, 0.12800000607967377, 0.12800000607967377, 1.008000047877431, 0.0, 0.0, 0.0, 0.0, 0.0, 1.6518370623763273E9, 0.0, 2022-05-06 12:37:42.376
22.0, -318.5908575253561, -280.4831469268538, -260.79631356010213, -248.0488645611331, 0.12800000607967377, 0.12800000607967377, 1.008000047877431, 0.0, 0.0, 0.0, 0.0, 0.0, 1.6518370623763273E9, 0.0, 2022-05-06 12:37:42.376
23.0, -267.37292763218284, -152.687025540974, -199.82472458248958, -196.34100777376443, 0.12800000607967377, 0.12800000607967377, 1.008000047877431, 0.0, 0.0, 0.0, 0.0, 0.0, 1.651837062391338E9, 0.0, 2022-05-06 12:37:42.391
23.0, -212.26550178509206, -46.03255860460922, -118.9269486409612, -144.29655999038368, 0.12800000607967377, 0.12800000607967377, 1.008000047877431, 0.0, 0.0, 0.0, 0.0, 0.0, 1.651837062391338E9, 0.0, 2022-05-06 12:37:42.391
24.0, -258.06805654242635, -169.7297496390529, -167.4297111663036, -172.40190815739334, 0.12800000607967377, 0.12800000607967377, 1.008000047877431, 0.0, 0.0, 0.0, 0.0, 0.0, 1.6518370623923025E9, 0.0, 2022-05-06 12:37:42.392
24.0, -300.3551053414121, -256.52160791074857, -243.0243089706637, -210.45913010649383, 0.12800000607967377, 0.12800000607967377, 1.008000047877431, 0.0, 0.0, 0.0, 0.0, 0.0, 1.6518370623923025E9, 0.0, 2022-05-06 12:37:42.392
25.0, -278.11392030492425, -149.26127718156204, -201.25710626551881, -216.3943513361737, 0.12800000607967377, 0.12800000607967377, 1.008000047877431, 0.0, 0.0, 0.0, 0.0, 0.0, 1.6518370624063349E9, 0.0, 2022-05-06 12:37:42.406
25.0, -209.576513716951, -44.719853720162064, -108.9975142586045, -141.96286241803318, 0.12800000607967377, 0.12800000607967377, 1.008000047877431, 0.0, 0.0, 0.0, 0.0, 0.0, 1.6518370624063349E9, 0.0, 2022-05-06 12:37:42.406
26.0, -259.8632085211575, -184.46495546447113, -193.64266995573416, -196.43824517261237, 0.12800000607967377, 0.12800000607967377, 1.008000047877431, 0.0, 0.0, 0.0, 0.0, 0.0, 1.65183706242137E9, 0.0, 2022-05-06 12:37:42.421
26.0, -305.86023807618767, -266.6305574909784, -255.8820850183256, -231.97851445153356, 0.12800000607967377, 0.12800000607967377, 1.008000047877431, 0.0, 0.0, 0.0, 0.0, 0.0, 1.65183706242137E9, 0.0, 2022-05-06 12:37:42.421
27.0, -262.32780259195715, -135.1955134482123, -185.250334455166, -184.58650221303105, 0.12800000607967377, 0.12800000607967377, 1.008000047877431, 0.0, 0.0, 0.0, 0.0, 0.0, 1.6518370624222908E9, 0.0, 2022-05-06 12:37:42.422
27.0, -205.59352026414126, -45.116283115465194, -116.69796826737002, -148.41044994164258, 0.12800000607967377, 0.12800000607967377, 1.008000047877431, 0.0, 0.0, 0.0, 0.0, 0.0, 1.6518370624222908E9, 0.0, 2022-05-06 12:37:42.422
28.0, -251.14176182448864, -171.74929561512545, -178.7279489324428, -189.3847938561812, 0.12800000607967377, 0.12800000607967377, 1.008000047877431, 0.0, 0.0, 0.0, 0.0, 0.0, 1.6518370624363809E9, 0.0, 2022-05-06 12:37:42.436
28.0, -308.485647845082, -268.35465137055144, -249.81970719015226, -225.60572492703795, 0.12800000607967377, 0.12800000607967377, 1.008000047877431, 0.0, 0.0, 0.0, 0.0, 0.0, 1.6518370624363809E9, 0.0, 2022-05-06 12:37:42.436
29.0, -270.4658248955384, -142.03579046716914, -195.14236983796582, -193.52112320717424, 0.12800000607967377, 0.12800000607967377, 1.008000047877431, 0.0, 0.0, 0.0, 0.0, 0.0, 1.651837062451347E9, 0.0, 2022-05-06 12:37:42.451
29.0, -208.3161674318835, -40.84531736606732, -109.05361275793985, -143.61589819844812, 0.12800000607967377, 0.12800000607967377, 1.008000047877431, 0.0, 0.0, 0.0, 0.0, 0.0, 1.651837062451347E9, 0.0, 2022-05-06 12:37:42.451
30.0, -246.39582878071815, -178.05102704046294, -184.1470639682375, -189.6839858526364, 0.12800000607967377, 0.12800000607967377, 1.0240000486373901, 0.0, 0.0, 0.0, 0.0, 0.0, 1.651837062452286E9, 0.0, 2022-05-06 12:37:42.452
30.0, -307.01586716249585, -270.0376063506119, -252.29552096081898, -234.7796995183453, 0.12800000607967377, 0.12800000607967377, 1.0240000486373901, 0.0, 0.0, 0.0, 0.0, 0.0, 1.651837062452286E9, 0.0, 2022-05-06 12:37:42.452
31.0, -279.74077678564936, -150.04665617225692, -203.68430133676156, -207.89729863684624, 0.12800000607967377, 0.12800000607967377, 1.0240000486373901, 0.0, 0.0, 0.0, 0.0, 0.0, 1.651837062466323E9, 0.0, 2022-05-06 12:37:42.466
31.0, -219.74156179651618, -54.48099260451272, -121.35040381224826, -158.5567985214293, 0.12800000607967377, 0.12800000607967377, 1.0240000486373901, 0.0, 0.0, 0.0, 0.0, 0.0, 1.651837062466323E9, 0.0, 2022-05-06 12:37:42.466
32.0, -243.75171951204538, -173.9146976894699, -172.70671000378206, -170.59179657883942, 0.12800000607967377, 0.12800000607967377, 1.0240000486373901, 0.0, 0.0, 0.0, 0.0, 0.0, 1.6518370624823358E9, 0.0, 2022-05-06 12:37:42.482
32.0, -303.7397148013115, -260.2128891670145, -251.282008072827, -233.63903003185987, 0.12800000607967377, 0.12800000607967377, 1.0240000486373901, 0.0, 0.0, 0.0, 0.0, 0.0, 1.6518370624823358E9, 0.0, 2022-05-06 12:37:42.482
33.0, -266.864301238209, -135.524624644313, -191.49596738116816, -191.6810924289748, 0.12800000607967377, 0.12800000607967377, 1.0240000486373901, 0.0, 0.0, 0.0, 0.0, 0.0, 1.6518370624833407E9, 0.0, 2022-05-06 12:37:42.483
33.0, -209.2885414203629, -52.56616382719949, -123.88605598220602, -153.85948417708278, 0.12800000607967377, 0.12800000607967377, 1.0240000486373901, 0.0, 0.0, 0.0, 0.0, 0.0, 1.6518370624833407E9, 0.0, 2022-05-06 12:37:42.483
34.0, -252.73495920561254, -187.35963803017512, -184.64447066234425, -197.8332278560847, 0.12800000607967377, 0.12800000607967377, 1.0240000486373901, 0.0, 0.0, 0.0, 0.0, 0.0, 1.6518370624963796E9, 0.0, 2022-05-06 12:37:42.496
34.0, -311.1521965134889, -271.91129622841254, -250.45175028266385, -237.27421278879046, 0.12800000607967377, 0.12800000607967377, 1.0240000486373901, 0.0, 0.0, 0.0, 0.0, 0.0, 1.6518370624963796E9, 0.0, 2022-05-06 12:37:42.496
35.0, -260.25215811654925, -130.50193900382146, -172.8750055017881, -161.58985738549381, 0.12800000607967377, 0.12800000607967377, 1.0240000486373901, 0.0, 0.0, 0.0, 0.0, 0.0, 1.6518370625123756E9, 0.0, 2022-05-06 12:37:42.512
35.0, -194.77772959228605, -29.1431704047136, -106.83959198417142, -122.93799134343863, 0.12800000607967377, 0.12800000607967377, 1.0240000486373901, 0.0, 0.0, 0.0, 0.0, 0.0, 1.6518370625123756E9, 0.0, 2022-05-06 12:37:42.512
36.0, -247.58511696662754, -176.92531715380028, -180.0294341170229, -205.6870177630335, 0.12800000607967377, 0.12800000607967377, 1.0240000486373901, 0.0, 0.0, 0.0, 0.0, 0.0, 1.6518370625132713E9, 0.0, 2022-05-06 12:37:42.513
36.0, -311.8814770048484, -271.7355209304951, -259.3190530776046, -239.0805844673887, 0.12800000607967377, 0.12800000607967377, 1.0240000486373901, 0.0, 0.0, 0.0, 0.0, 0.0, 1.6518370625132713E9, 0.0, 2022-05-06 12:37:42.513
37.0, -259.0479103308171, -135.52088474435732, -186.7350747375749, -193.74177730455995, 0.12800000607967377, 0.12800000607967377, 1.0240000486373901, 0.0, 0.0, 0.0, 0.0, 0.0, 1.6518370625263257E9, 0.0, 2022-05-06 12:37:42.526
37.0, -212.09346638713032, -53.24682561913505, -120.13119642669335, -156.32033834792674, 0.12800000607967377, 0.12800000607967377, 1.0240000486373901, 0.0, 0.0, 0.0, 0.0, 0.0, 1.6518370625263257E9, 0.0, 2022-05-06 12:37:42.526
38.0, -248.58741015475243, -189.31934560695663, -189.04259301023558, -194.81512859184295, 0.12800000607967377, 0.12800000607967377, 1.0240000486373901, 0.0, 0.0, 0.0, 0.0, 0.0, 1.651837062542348E9, 0.0, 2022-05-06 12:37:42.542
38.0, -300.4673023400828, -257.86797189479694, -239.2432701154612, -220.26514779031277, 0.12800000607967377, 0.12800000607967377, 1.0240000486373901, 0.0, 0.0, 0.0, 0.0, 0.0, 1.651837062542348E9, 0.0, 2022-05-06 12:37:42.542
39.0, -266.29209654498845, -134.1558212605305, -179.0308808288537, -171.20140027161688, 0.12800000607967377, 0.12800000607967377, 1.0240000486373901, 0.0, 0.0, 0.0, 0.0, 0.0, 1.6518370625433593E9, 0.0, 2022-05-06 12:37:42.543
39.0, -189.29503625724465, -38.39194299513474, -110.95722183538601, -130.64592515211552, 0.12800000607967377, 0.12800000607967377, 1.0240000486373901, 0.0, 0.0, 0.0, 0.0, 0.0, 1.6518370625433593E9, 0.0, 2022-05-06 12:37:42.543
40.0, -235.98768720403314, -174.22510938579217, -176.98515555309132, -169.4885260919109, 0.12800000607967377, 0.12800000607967377, 1.0240000486373901, 0.0, 0.0, 0.0, 0.0, 0.0, 1.651837062556324E9, 0.0, 2022-05-06 12:37:42.556
40.0, -319.219160717912, -269.9927275511436, -263.31326623028144, -246.0106190852821, 0.12800000607967377, 0.12800000607967377, 1.0240000486373901, 0.0, 0.0, 0.0, 0.0, 0.0, 1.651837062556324E9, 0.0, 2022-05-06 12:37:42.556
41.0, -275.8662404315546, -142.83986895764247, -199.94440138107166, -216.67110393289477, 0.12800000607967377, 0.12800000607967377, 1.0240000486373901, 0.0, 0.0, 0.0, 0.0, 0.0, 1.6518370625723896E9, 0.0, 2022-05-06 12:37:42.572
41.0, -204.17983808089048, -44.93302801763639, -115.1459097857587, -148.45158884115517, 0.12800000607967377, 0.12800000607967377, 1.0240000486373901, 0.0, 0.0, 0.0, 0.0, 0.0, 1.6518370625723896E9, 0.0, 2022-05-06 12:37:42.572
42.0, -252.3011308107525, -185.64302395051345, -184.23308166721836, -193.65575960557908, 0.12800000607967377, 0.12800000607967377, 1.0240000486373901, 0.0, 0.0, 0.0, 0.0, 0.0, 1.65183706257329E9, 0.0, 2022-05-06 12:37:42.573
42.0, -301.27886063046753, -255.88956481823698, -241.10200039343908, -225.1083182329312, 0.12800000607967377, 0.12800000607967377, 1.0240000486373901, 0.0, 0.0, 0.0, 0.0, 0.0, 1.65183706257329E9, 0.0, 2022-05-06 12:37:42.573
43.0, -266.2434778455645, -139.11118870181963, -200.9317349693738, -206.28914165589958, 0.12800000607967377, 0.12800000607967377, 1.0240000486373901, 0.0, 0.0, 0.0, 0.0, 0.0, 1.6518370625863316E9, 0.0, 2022-05-06 12:37:42.586
43.0, -207.36997274309397, -54.13318190863356, -119.62257003271952, -152.80483238957822, 0.12800000607967377, 0.12800000607967377, 1.0240000486373901, 0.0, 0.0, 0.0, 0.0, 0.0, 1.6518370625863316E9, 0.0, 2022-05-06 12:37:42.586
44.0, -255.7119195703417, -192.32622517133132, -194.56268534483388, -197.45175806060433, 0.12800000607967377, 0.12800000607967377, 1.0240000486373901, 0.0, 0.0, 0.0, 0.0, 0.0, 1.6518370626023443E9, 0.0, 2022-05-06 12:37:42.602
44.0, -299.1770368553698, -259.49856827547774, -253.8101804428734, -227.75242750160396, 0.12800000607967377, 0.12800000607967377, 1.0240000486373901, 0.0, 0.0, 0.0, 0.0, 0.0, 1.6518370626023443E9, 0.0, 2022-05-06 12:37:42.602
45.0, -260.73086531087756, -128.1869409312494, -187.7747669252567, -188.72657146397978, 0.12800000607967377, 0.12800000607967377, 1.0240000486373901, 0.0, 0.0, 0.0, 0.0, 0.0, 1.6518370626032896E9, 0.0, 2022-05-06 12:37:42.603
45.0, -205.3167676674202, -52.13607533229515, -113.48913410538808, -141.89554421883076, 0.12800000607967377, 0.12800000607967377, 1.0240000486373901, 0.0, 0.0, 0.0, 0.0, 0.0, 1.6518370626032896E9, 0.0, 2022-05-06 12:37:42.603
46.0, -236.97502079233527, -183.72071537328884, -177.3965445482172, -178.22119248844683, 0.12800000607967377, 0.12800000607967377, 1.0240000486373901, 0.0, 0.0, 0.0, 0.0, 0.0, 1.6518370626323876E9, 0.0, 2022-05-06 12:37:42.632
46.0, -298.185963367112, -258.22700229054317, -246.82404732564464, -219.49472839944065, 0.12800000607967377, 0.12800000607967377, 1.0240000486373901, 0.0, 0.0, 0.0, 0.0, 0.0, 1.6518370626323876E9, 0.0, 2022-05-06 12:37:42.632
47.0, -260.33069601561874, -132.28587128268555, -186.42466304125264, -192.82550181541592, 0.12800000607967377, 0.12800000607967377, 1.0240000486373901, 0.0, 0.0, 0.0, 0.0, 0.0, 1.6518370626333E9, 0.0, 2022-05-06 12:37:42.633
47.0, -218.42885691206902, -58.57244315603748, -126.55634455056861, -163.0783375678584, 0.12800000607967377, 0.12800000607967377, 1.0240000486373901, 0.0, 0.0, 0.0, 0.0, 0.0, 1.6518370626333E9, 0.0, 2022-05-06 12:37:42.633
48.0, -249.8215771401301, -185.05585965747014, -183.694536073599, -191.3519812328741, 0.12800000607967377, 0.12800000607967377, 1.0240000486373901, 0.0, 0.0, 0.0, 0.0, 0.0, 1.6518370626342752E9, 0.0, 2022-05-06 12:37:42.634
48.0, -304.71582868974656, -262.3184528420679, -249.2101034973748, -228.10023819748312, 0.12800000607967377, 0.12800000607967377, 1.0240000486373901, 0.0, 0.0, 0.0, 0.0, 0.0, 1.6518370626342752E9, 0.0, 2022-05-06 12:37:42.634
49.0, -244.51465910300612, -117.27391286054626, -156.97295089019462, -148.33939184248447, 0.12800000607967377, 0.12800000607967377, 1.0240000486373901, 0.0, 0.0, 0.0, 0.0, 0.0, 1.6518370626463587E9, 0.0, 2022-05-06 12:37:42.646
49.0, -197.77712935674936, -39.12870328640565, -110.17558274464682, -129.3593995673582, 0.12800000607967377, 0.12800000607967377, 1.0240000486373901, 0.0, 0.0, 0.0, 0.0, 0.0, 1.6518370626463587E9, 0.0, 2022-05-06 12:37:42.646
50.0, -243.2318734182045, -176.59620595769957, -186.46580194076523, -193.99983040150255, 0.12800000607967377, 0.12800000607967377, 1.0240000486373901, 0.0, 0.0, 0.0, 0.0, 0.0, 1.6518370626623604E9, 0.0, 2022-05-06 12:37:42.662
50.0, -301.97822192218155, -258.7393685844727, -251.18477067397907, -244.24538630619645, 0.12800000607967377, 0.12800000607967377, 1.0240000486373901, 0.0, 0.0, 0.0, 0.0, 0.0, 1.6518370626623604E9, 0.0, 2022-05-06 12:37:42.662
51.0, -250.4910192321986, -129.40240841684863, -185.7402613493614, -193.54356260690838, 0.12800000607967377, 0.12800000607967377, 1.0240000486373901, 0.0, 0.0, 0.0, 0.0, 0.0, 1.6518370626632817E9, 0.0, 2022-05-06 12:37:42.663
51.0, -206.56589425262064, -54.54457090375945, -113.46295480569825, -142.08627911657095, 0.12800000607967377, 0.12800000607967377, 1.0240000486373901, 0.0, 0.0, 0.0, 0.0, 0.0, 1.6518370626632817E9, 0.0, 2022-05-06 12:37:42.663
52.0, -259.8295494215563, -189.04633291019127, -184.13584426837042, -183.2027392294258, 0.12800000607967377, 0.12800000607967377, 1.0240000486373901, 0.0, 0.0, 0.0, 0.0, 0.0, 1.6518370626763268E9, 0.0, 2022-05-06 12:37:42.676
52.0, -306.2192684719339, -264.4801150164567, -258.67579028522596, -248.90156175103039, 0.12800000607967377, 0.12800000607967377, 1.0240000486373901, 0.0, 0.0, 0.0, 0.0, 0.0, 1.6518370626763268E9, 0.0, 2022-05-06 12:37:42.676
53.0, -262.1258479943499, -125.27355886576697, -183.1746899797581, -193.40144640859216, 0.12800000607967377, 0.12800000607967377, 1.0240000486373901, 0.0, 0.0, 0.0, 0.0, 0.0, 1.6518370626923292E9, 0.0, 2022-05-06 12:37:42.692
53.0, -207.1717580454424, -57.29339737119153, -118.81849154224619, -156.05854535102844, 0.12800000607967377, 0.12800000607967377, 1.0240000486373901, 0.0, 0.0, 0.0, 0.0, 0.0, 1.6518370626923292E9, 0.0, 2022-05-06 12:37:42.692
54.0, -255.008818378672, -189.27820670744404, -191.15189658524469, -195.5780681828037, 0.12800000607967377, 0.12800000607967377, 1.0240000486373901, 0.0, 0.0, 0.0, 0.0, 0.0, 1.6518370626932888E9, 0.0, 2022-05-06 12:37:42.693
54.0, -300.9871484339237, -252.24316236143932, -248.14797190995887, -225.4075102293864, 0.12800000607967377, 0.12800000607967377, 1.0240000486373901, 0.0, 0.0, 0.0, 0.0, 0.0, 1.6518370626932888E9, 0.0, 2022-05-06 12:37:42.693
55.0, -250.5994763309136, -115.42266238247976, -173.78754109097645, -181.29913015197963, 0.12800000607967377, 0.12800000607967377, 1.0240000486373901, 0.0, 0.0, 0.0, 0.0, 0.0, 1.6518370627063563E9, 0.0, 2022-05-06 12:37:42.706
55.0, -211.87281228974462, -59.986125339288265, -122.49481319868937, -156.64570964407176, 0.12800000607967377, 0.12800000607967377, 1.0240000486373901, 0.0, 0.0, 0.0, 0.0, 0.0, 1.6518370627063563E9, 0.0, 2022-05-06 12:37:42.706
56.0, -248.7893647523597, -186.7051555379294, -183.0325737814419, -186.74816438741982, 0.12800000607967377, 0.12800000607967377, 1.0240000486373901, 0.0, 0.0, 0.0, 0.0, 0.0, 1.6518370627223303E9, 0.0, 2022-05-06 12:37:42.722
56.0, -286.59975330438465, -240.92248519556597, -229.5344898304902, -204.4678103774786, 0.12800000607967377, 0.12800000607967377, 1.0240000486373901, 0.0, 0.0, 0.0, 0.0, 0.0, 1.6518370627223303E9, 0.0, 2022-05-06 12:37:42.722
57.0, -241.7097341362387, -102.94635613029823, -149.40713327983394, -146.67887626215816, 0.12800000607967377, 0.12800000607967377, 1.0240000486373901, 0.0, 0.0, 0.0, 0.0, 0.0, 1.6518370627232747E9, 0.0, 2022-05-06 12:37:42.723
57.0, -192.15605972334743, -40.82287796633318, -106.1065715928562, -135.84812599048018, 0.12800000607967377, 0.12800000607967377, 1.0240000486373901, 0.0, 0.0, 0.0, 0.0, 0.0, 1.6518370627232747E9, 0.0, 2022-05-06 12:37:42.723
58.0, -249.17831434775144, -192.46086156973615, -185.24285465525463, -193.82031520362943, 0.12800000607967377, 0.12800000607967377, 1.0240000486373901, 0.0, 0.0, 0.0, 0.0, 0.0, 1.651837062736338E9, 0.0, 2022-05-06 12:37:42.736
58.0, -301.50325462780893, -258.0400072927587, -248.2452093088068, -224.42017664108425, 0.12800000607967377, 0.12800000607967377, 1.0240000486373901, 0.0, 0.0, 0.0, 0.0, 0.0, 1.651837062736338E9, 0.0, 2022-05-06 12:37:42.736
59.0, -231.35769105888903, -109.86891094828025, -168.34598665544763, -167.69711401313543, 0.12800000607967377, 0.12800000607967377, 1.0240000486373901, 0.0, 0.0, 0.0, 0.0, 0.0, 1.651837062752357E9, 0.0, 2022-05-06 12:37:42.752
59.0, -214.24390886165202, -64.18977288948372, -124.53679857449606, -164.8211309472099, 0.12800000607967377, 0.12800000607967377, 1.0240000486373901, 0.0, 0.0, 0.0, 0.0, 0.0, 1.651837062752357E9, 0.0, 2022-05-06 12:37:42.752
60.0, -260.85054210945964, -202.17712165461853, -199.1852016900666, -210.10757951065898, 0.12800000607967377, 0.12800000607967377, 1.0240000486373901, 0.0, 0.0, 0.0, 0.0, 0.0, 1.6518370627532897E9, 0.0, 2022-05-06 12:37:42.753
60.0, -316.10008415486664, -261.0655863569118, -256.55900691030547, -243.2318734182045, 0.12800000607967377, 0.12800000607967377, 1.0240000486373901, 0.0, 0.0, 0.0, 0.0, 0.0, 1.6518370627532897E9, 0.0, 2022-05-06 12:37:42.753
61.0, -263.1917194817215, -120.75575971929356, -178.78404743177816, -185.32326250430197, 0.12800000607967377, 0.12800000607967377, 1.0240000486373901, 0.0, 0.0, 0.0, 0.0, 0.0, 1.6518370627664013E9, 0.0, 2022-05-06 12:37:42.766
61.0, -210.11879921052605, -68.74871093546972, -124.30492477724329, -146.8883106596768, 0.12800000607967377, 0.12800000607967377, 1.0240000486373901, 0.0, 0.0, 0.0, 0.0, 0.0, 1.6518370627664013E9, 0.0, 2022-05-06 12:37:42.766
62.0, -247.5963366664946, -205.62156951380894, -204.54821822652593, -212.07476688735187, 0.12800000607967377, 0.12800000607967377, 1.0240000486373901, 0.0, 0.0, 0.0, 0.0, 0.0, 1.651837062782347E9, 0.0, 2022-05-06 12:37:42.782
62.0, -318.31784482859075, -256.8095802073367, -253.78026124322787, -230.50499386899173, 0.12800000607967377, 0.12800000607967377, 1.0240000486373901, 0.0, 0.0, 0.0, 0.0, 0.0, 1.651837062782347E9, 0.0, 2022-05-06 12:37:42.782
63.0, -251.33623662218451, -114.84671778930351, -169.05656764702871, -169.86999588739127, 0.12800000607967377, 0.12800000607967377, 1.0240000486373901, 0.0, 0.0, 0.0, 0.0, 0.0, 1.6518370627833395E9, 0.0, 2022-05-06 12:37:42.783
63.0, -199.66951873432845, -62.09542891429737, -114.45028839400038, -137.3291263729334, 0.12800000607967377, 0.12800000607967377, 1.0240000486373901, 0.0, 0.0, 0.0, 0.0, 0.0, 1.6518370627833395E9, 0.0, 2022-05-06 12:37:42.783
64.0, -246.3808691808954, -195.28822593623772, -196.69068841962144, -201.85362030845135, 0.12800000607967377, 0.12800000607967377, 1.0240000486373901, 0.0, 0.0, 0.0, 0.0, 0.0, 1.651837062796346E9, 0.0, 2022-05-06 12:37:42.796
64.0, -300.7814539363608, -246.7978680259548, -247.7702420144342, -232.76389344222844, 0.12800000607967377, 0.12800000607967377, 1.0240000486373901, 0.0, 0.0, 0.0, 0.0, 0.0, 1.651837062796346E9, 0.0, 2022-05-06 12:37:42.796
65.0, -236.95632129255682, -101.1773834512569, -161.2439166395925, -170.06447068508714, 0.12800000607967377, 0.12800000607967377, 1.0240000486373901, 0.0, 0.0, 0.0, 0.0, 0.0, 1.6518370628113315E9, 0.0, 2022-05-06 12:37:42.811
65.0, -197.18622516375035, -51.937860634643584, -108.63474396290258, -131.6220390405506, 0.12800000607967377, 0.12800000607967377, 1.0240000486373901, 0.0, 0.0, 0.0, 0.0, 0.0, 1.6518370628113315E9, 0.0, 2022-05-06 12:37:42.811
66.0, -251.51949172001332, -190.41513629397377, -186.75003433739766, -184.32844911608845, 0.12800000607967377, 0.12800000607967377, 1.0240000486373901, 0.0, 0.0, 0.0, 0.0, 0.0, 1.651837062843383E9, 0.0, 2022-05-06 12:37:42.843
66.0, -296.41699068807065, -247.15689842170104, -241.30395499104634, -229.6635163789615, 0.12800000607967377, 0.12800000607967377, 1.0240000486373901, 0.0, 0.0, 0.0, 0.0, 0.0, 1.651837062843383E9, 0.0, 2022-05-06 12:37:42.843
67.0, -239.28253906499594, -104.7714273086749, -167.16417826944962, -174.87024212814867, 0.12800000607967377, 0.12800000607967377, 1.0240000486373901, 0.0, 0.0, 0.0, 0.0, 0.0, 1.6518370628443024E9, 0.0, 2022-05-06 12:37:42.844
67.0, -202.8783528963104, -58.4901653570123, -110.67672933870926, -138.85500555485487, 0.12800000607967377, 0.12800000607967377, 1.0240000486373901, 0.0, 0.0, 0.0, 0.0, 0.0, 1.6518370628443024E9, 0.0, 2022-05-06 12:37:42.844
68.0, -256.43746016174555, -199.94814128102735, -188.72096161404625, -194.81512859184295, 0.12800000607967377, 0.12800000607967377, 1.0240000486373901, 0.0, 0.0, 0.0, 0.0, 0.0, 1.651837062845305E9, 0.0, 2022-05-06 12:37:42.845
68.0, -282.8374139489606, -235.96337785432115, -236.45704464847222, -217.02265452872962, 0.12800000607967377, 0.12800000607967377, 1.0240000486373901, 0.0, 0.0, 0.0, 0.0, 0.0, 1.651837062845305E9, 0.0, 2022-05-06 12:37:42.845
69.0, -252.7087799059227, -119.35703713586554, -179.4422698239796, -185.74213129933923, 0.12800000607967377, 0.12800000607967377, 1.0240000486373901, 0.0, 0.0, 0.0, 0.0, 0.0, 1.6518370628462763E9, 0.0, 2022-05-06 12:37:42.846
69.0, -208.14413203392178, -68.55797603772953, -118.02937265159562, -155.5910578565672, 0.12800000607967377, 0.12800000607967377, 1.0240000486373901, 0.0, 0.0, 0.0, 0.0, 0.0, 1.6518370628462763E9, 0.0, 2022-05-06 12:37:42.846
70.0, -251.77006501704454, -193.11908396193758, -190.38521709432825, -191.35946103278548, 0.12800000607967377, 0.12800000607967377, 1.0240000486373901, 0.0, 0.0, 0.0, 0.0, 0.0, 1.6518370628563247E9, 0.0, 2022-05-06 12:37:42.856
70.0, -298.09246586821973, -242.8784528723918, -238.9141589193605, -210.53392810560763, 0.12800000607967377, 0.12800000607967377, 1.0240000486373901, 0.0, 0.0, 0.0, 0.0, 0.0, 1.6518370628563247E9, 0.0, 2022-05-06 12:37:42.856
71.0, -237.83145788218826, -95.81062701484188, -159.04111556569114, -174.9338204273954, 0.12800000607967377, 0.12800000607967377, 1.0240000486373901, 0.0, 0.0, 0.0, 0.0, 0.0, 1.6518370628723369E9, 0.0, 2022-05-06 12:37:42.872
71.0, -198.22217745147645, -58.325609758961946, -121.63463620888069, -156.86262384150177, 0.12800000607967377, 0.12800000607967377, 1.0240000486373901, 0.0, 0.0, 0.0, 0.0, 0.0, 1.6518370628723369E9, 0.0, 2022-05-06 12:37:42.872
72.0, -241.02533244434744, -190.27302009565756, -189.15852990886196, -185.1624468062073, 0.12800000607967377, 0.12800000607967377, 1.0240000486373901, 0.0, 0.0, 0.0, 0.0, 0.0, 1.651837062873341E9, 0.0, 2022-05-06 12:37:42.873
72.0, -298.5487336628139, -243.55163486441597, -240.0211693062447, -224.75302773714066, 0.12800000607967377, 0.12800000607967377, 1.0240000486373901, 0.0, 0.0, 0.0, 0.0, 0.0, 1.651837062873341E9, 0.0, 2022-05-06 12:37:42.873
73.0, -248.49391265586019, -104.92850310681388, -163.41305861389264, -175.40130792185664, 0.12800000607967377, 0.12800000607967377, 1.0240000486373901, 0.0, 0.0, 0.0, 0.0, 0.0, 1.6518370628863585E9, 0.0, 2022-05-06 12:37:42.886
73.0, -188.31892236880958, -51.3768756412901, -103.01741422945634, -120.85486706811935, 0.12800000607967377, 0.12800000607967377, 1.0240000486373901, 0.0, 0.0, 0.0, 0.0, 0.0, 1.6518370628863585E9, 0.0, 2022-05-06 12:37:42.886
74.0, -241.9303882336244, -191.83255837718025, -183.01387428166345, -175.92863381560892, 0.12800000607967377, 0.12800000607967377, 1.0240000486373901, 0.0, 0.0, 0.0, 0.0, 0.0, 1.6518370629013343E9, 0.0, 2022-05-06 12:37:42.901
74.0, -286.5436548050493, -238.49529012432322, -242.12299308134243, -230.7443474661559, 0.12800000607967377, 0.12800000607967377, 1.0240000486373901, 0.0, 0.0, 0.0, 0.0, 0.0, 1.6518370629013343E9, 0.0, 2022-05-06 12:37:42.901
75.0, -251.82990341633558, -110.72160813817754, -170.44407053058967, -189.25763725768775, 0.12800000607967377, 0.12800000607967377, 1.0240000486373901, 0.0, 0.0, 0.0, 0.0, 0.0, 1.651837062917342E9, 0.0, 2022-05-06 12:37:42.917
75.0, -219.39001120068133, -80.0918275010772, -133.3367831702344, -165.6700882371515, 0.12800000607967377, 0.12800000607967377, 1.0240000486373901, 0.0, 0.0, 0.0, 0.0, 0.0, 1.651837062917342E9, 0.0, 2022-05-06 12:37:42.917
76.0, -256.91242745611817, -201.556298261974, -193.98300085170195, -198.1735587520525, 0.12800000607967377, 0.12800000607967377, 1.0240000486373901, 0.0, 0.0, 0.0, 0.0, 0.0, 1.6518370629182794E9, 0.0, 2022-05-06 12:37:42.918
76.0, -290.37705225963145, -238.95903771882877, -233.06495538866147, -208.93699082452804, 0.12800000607967377, 0.12800000607967377, 1.0240000486373901, 0.0, 0.0, 0.0, 0.0, 0.0, 1.6518370629182794E9, 0.0, 2022-05-06 12:37:42.918
77.0, -232.52827974501997, -92.27642155671492, -151.4977373550646, -157.56572503317147, 0.12800000607967377, 0.12800000607967377, 1.0240000486373901, 0.0, 0.0, 0.0, 0.0, 0.0, 1.6518370629483805E9, 0.0, 2022-05-06 12:37:42.948
77.0, -188.21046527009457, -57.959099563304335, -107.32203907845542, -133.67524411622435, 0.12800000607967377, 0.12800000607967377, 1.0240000486373901, 0.0, 0.0, 0.0, 0.0, 0.0, 1.6518370629483805E9, 0.0, 2022-05-06 12:37:42.948
78.0, -248.21342015918344, -198.05575190344825, -197.30403201235458, -195.0544821890071, 0.12800000607967377, 0.12800000607967377, 1.0240000486373901, 0.0, 0.0, 0.0, 0.0, 0.0, 1.6518370629492943E9, 0.0, 2022-05-06 12:37:42.949
78.0, -298.3318194653839, -235.19669836340472, -235.67914545768872, -220.59799888636917, 0.12800000607967377, 0.12800000607967377, 1.0240000486373901, 0.0, 0.0, 0.0, 0.0, 0.0, 1.6518370629492943E9, 0.0, 2022-05-06 12:37:42.949
79.0, -250.40500153321773, -108.84417836042121, -170.63106552837417, -195.32375498581678, 0.12800000607967377, 0.12800000607967377, 1.0240000486373901, 0.0, 0.0, 0.0, 0.0, 0.0, 1.6518370629502857E9, 0.0, 2022-05-06 12:37:42.950
79.0, -199.00755644217134, -65.29678327636793, -118.1490494501777, -146.1777296680957, 0.12800000607967377, 0.12800000607967377, 1.0240000486373901, 0.0, 0.0, 0.0, 0.0, 0.0, 1.6518370629502857E9, 0.0, 2022-05-06 12:37:42.950
80.0, -249.87393573950976, -193.27989966003224, -184.98854145826772, -185.1250478066504, 0.12800000607967377, 0.12800000607967377, 1.0240000486373901, 0.0, 0.0, 0.0, 0.0, 0.0, 1.65183706295129E9, 0.0, 2022-05-06 12:37:42.951
80.0, -309.09899143781513, -242.2838087794371, -240.63077299902216, -223.70585574954748, 0.12800000607967377, 0.12800000607967377, 1.0240000486373901, 0.0, 0.0, 0.0, 0.0, 0.0, 1.65183706295129E9, 0.0, 2022-05-06 12:37:42.951
81.0, -251.1941204238683, -107.11634458089247, -163.4616773133166, -175.28163112327456, 0.12800000607967377, 0.12800000607967377, 1.0240000486373901, 0.0, 0.0, 0.0, 0.0, 0.0, 1.6518370629773448E9, 0.0, 2022-05-06 12:37:42.977
81.0, -197.15256606414914, -64.18603298952803, -111.83609832497314, -139.23273545037955, 0.12800000607967377, 0.12800000607967377, 1.0240000486373901, 0.0, 0.0, 0.0, 0.0, 0.0, 1.6518370629773448E9, 0.0, 2022-05-06 12:37:42.977
82.0, -263.69660597573966, -209.42504776874557, -196.82906471798196, -196.10539407655597, 0.12800000607967377, 0.12800000607967377, 1.0240000486373901, 0.0, 0.0, 0.0, 0.0, 0.0, 1.6518370629783366E9, 0.0, 2022-05-06 12:37:42.978
82.0, -301.2526813307777, -239.62473991094157, -246.92876452440396, -233.8896033288911, 0.12800000607967377, 0.12800000607967377, 1.0240000486373901, 0.0, 0.0, 0.0, 0.0, 0.0, 1.6518370629783366E9, 0.0, 2022-05-06 12:37:42.978
83.0, -245.1878410950303, -103.23058852693066, -160.8774064439349, -171.81100396439433, 0.12800000607967377, 0.12800000607967377, 1.0240000486373901, 0.0, 0.0, 0.0, 0.0, 0.0, 1.6518370629913242E9, 0.0, 2022-05-06 12:37:42.991
83.0, -198.45405124872923, -68.98058473272249, -121.19332801410928, -152.3710039947182, 0.12800000607967377, 0.12800000607967377, 1.0240000486373901, 0.0, 0.0, 0.0, 0.0, 0.0, 1.6518370629913242E9, 0.0, 2022-05-06 12:37:42.991
84.0, -269.4149130079895, -221.70313932327554, -215.91751409182325, -228.9230161877349, 0.12800000607967377, 0.12800000607967377, 1.0240000486373901, 0.0, 0.0, 0.0, 0.0, 0.0, 1.6518370629923143E9, 0.0, 2022-05-06 12:37:42.992
84.0, -313.91224268078804, -249.5466944933869, -252.99862215248868, -239.42465526331216, 0.12800000607967377, 0.12800000607967377, 1.0240000486373901, 0.0, 0.0, 0.0, 0.0, 0.0, 1.6518370629923143E9, 0.0, 2022-05-06 12:37:42.992
85.0, -253.81579029280692, -102.9201768306084, -162.48556342488155, -179.17112707719207, 0.12800000607967377, 0.12800000607967377, 1.0240000486373901, 0.0, 0.0, 0.0, 0.0, 0.0, 1.6518370630063283E9, 0.0, 2022-05-06 12:37:43.006
85.0, -221.3684182772413, -80.63411299465224, -126.27585205389187, -153.6238704798743, 0.12800000607967377, 0.12800000607967377, 1.0240000486373901, 0.0, 0.0, 0.0, 0.0, 0.0, 1.6518370630063283E9, 0.0, 2022-05-06 12:37:43.006
86.0, -276.66283912211657, -216.0858095898293, -216.4560596854426, -214.41220435965806, 0.12800000607967377, 0.12800000607967377, 1.0240000486373901, 0.0, 0.0, 0.0, 0.0, 0.0, 1.6518370630213223E9, 0.0, 2022-05-06 12:37:43.021
86.0, -307.46839505713433, -247.6954440153204, -247.53088841727003, -227.18770260829479, 0.12800000607967377, 0.12800000607967377, 1.0240000486373901, 0.0, 0.0, 0.0, 0.0, 0.0, 1.6518370630213223E9, 0.0, 2022-05-06 12:37:43.021
87.0, -248.27699845843017, -98.45099638355896, -162.29108862718567, -164.49575965106487, 0.12800000607967377, 0.12800000607967377, 1.0240000486373901, 0.0, 0.0, 0.0, 0.0, 0.0, 1.6518370630222747E9, 0.0, 2022-05-06 12:37:43.022
87.0, -217.22834902629256, -78.72676401725039, -130.75999210076407, -167.94394741021097, 0.12800000607967377, 0.12800000607967377, 1.0240000486373901, 0.0, 0.0, 0.0, 0.0, 0.0, 1.6518370630222747E9, 0.0, 2022-05-06 12:37:43.022
88.0, -267.25325083360076, -217.30127707542852, -212.80217742873356, -208.93699082452804, 0.12800000607967377, 0.12800000607967377, 1.0240000486373901, 0.0, 0.0, 0.0, 0.0, 0.0, 1.6518370630363715E9, 0.0, 2022-05-06 12:37:43.036
88.0, -302.28115381859243, -239.60230051120743, -239.7219773097895, -221.43199657648802, 0.12800000607967377, 0.12800000607967377, 1.0240000486373901, 0.0, 0.0, 0.0, 0.0, 0.0, 1.6518370630363715E9, 0.0, 2022-05-06 12:37:43.036
89.0, -249.22319314721972, -102.85285863140598, -169.71479003923014, -178.06411669030786, 0.12800000607967377, 0.12800000607967377, 1.0240000486373901, 0.0, 0.0, 0.0, 0.0, 0.0, 1.6518370630513551E9, 0.0, 2022-05-06 12:37:43.051
89.0, -203.26730249170214, -63.4193534986116, -110.67298943875358, -142.11993821617216, 0.12800000607967377, 0.12800000607967377, 1.0240000486373901, 0.0, 0.0, 0.0, 0.0, 0.0, 1.6518370630513551E9, 0.0, 2022-05-06 12:37:43.051
90.0, -255.14345477707684, -201.2982451650314, -197.68924170779064, -194.47479769587517, 0.12800000607967377, 0.12800000607967377, 1.0240000486373901, 0.0, 0.0, 0.0, 0.0, 0.0, 1.6518370630522938E9, 0.0, 2022-05-06 12:37:43.052
90.0, -309.1924889367074, -241.32639439078048, -248.15171180991456, -220.23148869071156, 0.12800000607967377, 0.12800000607967377, 1.0240000486373901, 0.0, 0.0, 0.0, 0.0, 0.0, 1.6518370630522938E9, 0.0, 2022-05-06 12:37:43.052
91.0, -245.77500538807362, -94.9504500250332, -158.9139589671977, -178.09403588995337, 0.12800000607967377, 0.12800000607967377, 1.0240000486373901, 0.0, 0.0, 0.0, 0.0, 0.0, 1.6518370630663795E9, 0.0, 2022-05-06 12:37:43.066
91.0, -213.79138096701354, -78.06480172509328, -125.23615986621007, -158.87095011770725, 0.12800000607967377, 0.12800000607967377, 1.0240000486373901, 0.0, 0.0, 0.0, 0.0, 0.0, 1.6518370630663795E9, 0.0, 2022-05-06 12:37:43.066
92.0, -273.66717925760895, -226.0489030717872, -215.17701390059665, -214.77497465535998, 0.12800000607967377, 0.12800000607967377, 1.0240000486373901, 0.0, 0.0, 0.0, 0.0, 0.0, 1.651837063082398E9, 0.0, 2022-05-06 12:37:43.082
92.0, -290.3172138603404, -229.51953023066744, -229.3886337322183, -202.88583269622177, 0.12800000607967377, 0.12800000607967377, 1.0240000486373901, 0.0, 0.0, 0.0, 0.0, 0.0, 1.651837063082398E9, 0.0, 2022-05-06 12:37:43.082
93.0, -243.66570181306452, -91.59575976477936, -158.54744877154008, -167.90654841065407, 0.12800000607967377, 0.12800000607967377, 1.0240000486373901, 0.0, 0.0, 0.0, 0.0, 0.0, 1.6518370630832884E9, 0.0, 2022-05-06 12:37:43.083
93.0, -216.74964183196425, -75.71614455292001, -128.40011522872373, -160.28837220091373, 0.12800000607967377, 0.12800000607967377, 1.0240000486373901, 0.0, 0.0, 0.0, 0.0, 0.0, 1.6518370630832884E9, 0.0, 2022-05-06 12:37:43.083
94.0, -269.39995340816677, -214.62350870715454, -208.9725198741071, -207.19045754522085, 0.12800000607967377, 0.12800000607967377, 1.0240000486373901, 0.0, 0.0, 0.0, 0.0, 0.0, 1.6518370630963278E9, 0.0, 2022-05-06 12:37:43.096
94.0, -301.97822192218155, -233.2070715869777, -245.95639053592458, -225.8114194246009, 0.12800000607967377, 0.12800000607967377, 1.0240000486373901, 0.0, 0.0, 0.0, 0.0, 0.0, 1.6518370630963278E9, 0.0, 2022-05-06 12:37:43.096
95.0, -245.61044979002327, -102.16471703955904, -163.96656380733475, -187.03239678405225, 0.12800000607967377, 0.12800000607967377, 1.0240000486373901, 0.0, 0.0, 0.0, 0.0, 0.0, 1.6518370631123455E9, 0.0, 2022-05-06 12:37:43.112
95.0, -219.8462789952755, -84.01872245455161, -128.01490553328767, -162.73052687197924, 0.12800000607967377, 0.12800000607967377, 1.0240000486373901, 0.0, 0.0, 0.0, 0.0, 0.0, 1.6518370631123455E9, 0.0, 2022-05-06 12:37:43.112
96.0, -278.04660210572183, -220.00148484343663, -204.8960289224051, -203.81706778518856, 0.12800000607967377, 0.12800000607967377, 1.0240000486373901, 0.0, 0.0, 0.0, 0.0, 0.0, 1.6518370631132948E9, 0.0, 2022-05-06 12:37:43.113
96.0, -306.3277255706489, -232.65730629349127, -241.7677025855519, -227.07924550957978, 0.12800000607967377, 0.12800000607967377, 1.0240000486373901, 0.0, 0.0, 0.0, 0.0, 0.0, 1.6518370631132948E9, 0.0, 2022-05-06 12:37:43.113
97.0, -243.08601731993258, -95.30200062086806, -163.4280182137154, -180.5997688602656, 0.12800000607967377, 0.12800000607967377, 1.0240000486373901, 0.0, 0.0, 0.0, 0.0, 0.0, 1.6518370631263282E9, 0.0, 2022-05-06 12:37:43.126
97.0, -229.6971754785627, -91.60323956469074, -132.94035377493128, -159.08786431513727, 0.12800000607967377, 0.12800000607967377, 1.0240000486373901, 0.0, 0.0, 0.0, 0.0, 0.0, 1.6518370631263282E9, 0.0, 2022-05-06 12:37:43.126
98.0, -286.27064210828394, -230.84719471493736, -219.37318165088072, -215.4705960471183, 0.12800000607967377, 0.12800000607967377, 1.0240000486373901, 0.0, 0.0, 0.0, 0.0, 0.0, 1.651837063142357E9, 0.0, 2022-05-06 12:37:43.142
98.0, -299.45004955213517, -230.15905312309042, -232.74332399247214, -215.0666868519038, 0.12800000607967377, 0.12800000607967377, 1.0240000486373901, 0.0, 0.0, 0.0, 0.0, 0.0, 1.651837063142357E9, 0.0, 2022-05-06 12:37:43.142
99.0, -239.1142435669899, -85.53338193660602, -147.15197360655293, -164.28258535359055, 0.12800000607967377, 0.12800000607967377, 1.0240000486373901, 0.0, 0.0, 0.0, 0.0, 0.0, 1.651837063143288E9, 0.0, 2022-05-06 12:37:43.143
99.0, -214.88717165403068, -71.5349364024587, -118.1490494501777, -141.49163502361625, 0.12800000607967377, 0.12800000607967377, 1.0240000486373901, 0.0, 0.0, 0.0, 0.0, 0.0, 1.651837063143288E9, 0.0, 2022-05-06 12:37:43.143
100.0, -275.7203843332827, -217.7126660705544, -210.02343176165596, -209.75228901486844, 0.12800000607967377, 0.12800000607967377, 1.0240000486373901, 0.0, 0.0, 0.0, 0.0, 0.0, 1.651837063157327E9, 0.0, 2022-05-06 12:37:43.157
100.0, -305.1159979850054, -230.44328551972285, -243.26366256782785, -225.26913393102586, 0.12800000607967377, 0.12800000607967377, 1.0240000486373901, 0.0, 0.0, 0.0, 0.0, 0.0, 1.651837063157327E9, 0.0, 2022-05-06 12:37:43.157
0.0, -247.58698691660538, -93.06554044736549, -161.11676004109904, -179.27771422592923, 0.12800000607967377, 0.12800000607967377, 1.0240000486373901, 0.0, 0.0, 0.0, 0.0, 0.0, 1.6518370631582873E9, 0.0, 2022-05-06 12:37:43.158
1.0, -227.8702343502082, -95.85176591435447, -140.46877238573506, -173.55940719367936, 0.12800000607967377, 0.12800000607967377, 1.0240000486373901, 0.0, 0.0, 0.0, 0.0, 0.0, 1.6518370631873264E9, 0.0, 2022-05-06 12:37:43.187
1.0, -276.6011307728477, -228.82390883890912, -213.8605691161938, -204.61179652577266, 0.12800000607967377, 0.12800000607967377, 1.0240000486373901, 0.0, 0.0, 0.0, 0.0, 0.0, 1.6518370631873264E9, 0.0, 2022-05-06 12:37:43.187
2.0, -304.384847543668, -230.36848752060905, -242.15665218094364, -213.33324322244152, 0.12800000607967377, 0.12800000607967377, 1.0240000486373901, 0.0, 0.0, 0.0, 0.0, 0.0, 1.6518370631882906E9, 0.0, 2022-05-06 12:37:43.188
2.0, -239.42278531333432, -80.00954970205203, -147.89247379777953, -176.14741796301678, 0.12800000607967377, 0.12800000607967377, 1.0240000486373901, 0.0, 0.0, 0.0, 0.0, 0.0, 1.6518370631882906E9, 0.0, 2022-05-06 12:37:43.188
3.0, -218.87577495677397, -89.84922648547217, -128.38889552885666, -157.41425908496603, 0.12800000607967377, 0.12800000607967377, 1.0240000486373901, 0.0, 0.0, 0.0, 0.0, 0.0, 1.6518370631892896E9, 0.0, 2022-05-06 12:37:43.189
3.0, -289.17467442387715, -248.30878760805354, -225.5701958774589, -209.01365877361968, 0.12800000607967377, 0.12800000607967377, 1.0240000486373901, 0.0, 0.0, 0.0, 0.0, 0.0, 1.6518370631892896E9, 0.0, 2022-05-06 12:37:43.189
4.0, -302.6158748646267, -228.58829514170066, -246.4724967298098, -232.82560179149732, 0.12800000607967377, 0.12800000607967377, 1.0240000486373901, 0.0, 0.0, 0.0, 0.0, 0.0, 1.6518370632014208E9, 0.0, 2022-05-06 12:37:43.201
4.0, -233.03503618901595, -72.66064628912136, -149.33981508063152, -178.48111553536728, 0.12800000607967377, 0.12800000607967377, 1.0240000486373901, 0.0, 0.0, 0.0, 0.0, 0.0, 1.6518370632014208E9, 0.0, 2022-05-06 12:37:43.201
5.0, -221.6021620244719, -91.2105500693433, -129.71656001312658, -157.40677928505465, 0.12800000607967377, 0.12800000607967377, 1.0240000486373901, 0.0, 0.0, 0.0, 0.0, 0.0, 1.6518370632173364E9, 0.0, 2022-05-06 12:37:43.217
5.0, -291.47471289662644, -244.95783724775538, -221.99111161986366, -209.09593657264486, 0.12800000607967377, 0.12800000607967377, 1.0240000486373901, 0.0, 0.0, 0.0, 0.0, 0.0, 1.6518370632173364E9, 0.0, 2022-05-06 12:37:43.217
6.0, -310.88479366665706, -231.52785650687292, -250.05158098740503, -223.33747560391203, 0.12800000607967377, 0.12800000607967377, 1.0240000486373901, 0.0, 0.0, 0.0, 0.0, 0.0, 1.6518370632183003E9, 0.0, 2022-05-06 12:37:43.218
6.0, -232.59372799424455, -64.39546738704666, -141.69545957120135, -165.30170809151605, 0.12800000607967377, 0.12800000607967377, 1.0240000486373901, 0.0, 0.0, 0.0, 0.0, 0.0, 1.6518370632183003E9, 0.0, 2022-05-06 12:37:43.218
7.0, -221.61712162429467, -98.33879938488826, -138.636221407447, -169.85316633759066, 0.12800000607967377, 0.12800000607967377, 1.0240000486373901, 0.0, 0.0, 0.0, 0.0, 0.0, 1.6518370632313447E9, 0.0, 2022-05-06 12:37:43.231
7.0, -277.12471676664427, -225.6823928761296, -218.6439011595212, -211.27255834685639, 0.12800000607967377, 0.12800000607967377, 1.0240000486373901, 0.0, 0.0, 0.0, 0.0, 0.0, 1.6518370632313447E9, 0.0, 2022-05-06 12:37:43.231
8.0, -303.0571830593981, -232.10380110004917, -241.79014198528603, -228.83886843873188, 0.12800000607967377, 0.12800000607967377, 1.0240000486373901, 0.0, 0.0, 0.0, 0.0, 0.0, 1.6518370632473347E9, 0.0, 2022-05-06 12:37:43.247
8.0, -248.00211581168696, -92.14552505826578, -156.78221599245444, -172.45613670675084, 0.12800000607967377, 0.12800000607967377, 1.0240000486373901, 0.0, 0.0, 0.0, 0.0, 0.0, 1.6518370632473347E9, 0.0, 2022-05-06 12:37:43.247
9.0, -221.02621743129566, -92.13056545844302, -131.54537109145895, -159.28794896276668, 0.12800000607967377, 0.12800000607967377, 1.0240000486373901, 0.0, 0.0, 0.0, 0.0, 0.0, 1.6518370632482705E9, 0.0, 2022-05-06 12:37:43.248
9.0, -283.2282334943302, -232.00282380124554, -218.7486183582805, -209.2305729710497, 0.12800000607967377, 0.12800000607967377, 1.0240000486373901, 0.0, 0.0, 0.0, 0.0, 0.0, 1.6518370632482705E9, 0.0, 2022-05-06 12:37:43.248
10.0, -309.59078828198835, -236.96193114249036, -250.21987648541108, -237.67251213407144, 0.12800000607967377, 0.12800000607967377, 1.0240000486373901, 0.0, 0.0, 0.0, 0.0, 0.0, 1.651837063261326E9, 0.0, 2022-05-06 12:37:43.261
10.0, -241.89859908400103, -87.16771821724251, -156.763516492676, -180.90083080669865, 0.12800000607967377, 0.12800000607967377, 1.0240000486373901, 0.0, 0.0, 0.0, 0.0, 0.0, 1.651837063261326E9, 0.0, 2022-05-06 12:37:43.261
11.0, -221.39646752690896, -90.82908027386293, -131.81464388826862, -164.15729870507494, 0.12800000607967377, 0.12800000607967377, 1.0240000486373901, 0.0, 0.0, 0.0, 0.0, 0.0, 1.6518370632773292E9, 0.0, 2022-05-06 12:37:43.277
11.0, -281.50039971480146, -230.04685612441972, -210.91352795111015, -196.53361262148246, 0.12800000607967377, 0.12800000607967377, 1.0240000486373901, 0.0, 0.0, 0.0, 0.0, 0.0, 1.6518370632773292E9, 0.0, 2022-05-06 12:37:43.277
12.0, -304.601761741098, -226.22093846974894, -237.653812634293, -216.16434748889878, 0.12800000607967377, 0.12800000607967377, 1.0240000486373901, 0.0, 0.0, 0.0, 0.0, 0.0, 1.6518370632783117E9, 0.0, 2022-05-06 12:37:43.278
12.0, -235.29019586229697, -80.82484789239243, -144.80705633433536, -166.48351647751406, 0.12800000607967377, 0.12800000607967377, 1.0240000486373901, 0.0, 0.0, 0.0, 0.0, 0.0, 1.6518370632783117E9, 0.0, 2022-05-06 12:37:43.278
13.0, -213.1537280245684, -88.58888020040467, -129.42858771653846, -161.22895703976974, 0.12800000607967377, 0.12800000607967377, 1.0240000486373901, 0.0, 0.0, 0.0, 0.0, 0.0, 1.6518370632913778E9, 0.0, 2022-05-06 12:37:43.291
13.0, -278.852550546173, -228.40504004387185, -215.0461174021475, -211.99435903830454, 0.12800000607967377, 0.12800000607967377, 1.0240000486373901, 0.0, 0.0, 0.0, 0.0, 0.0, 1.6518370632913778E9, 0.0, 2022-05-06 12:37:43.291
14.0, -311.03064976492897, -231.39322010846809, -243.06918777013198, -225.1251477827318, 0.12800000607967377, 0.12800000607967377, 1.0240000486373901, 0.0, 0.0, 0.0, 0.0, 0.0, 1.6518370633073435E9, 0.0, 2022-05-06 12:37:43.307
14.0, -257.2209692024626, -98.67539038090035, -169.32958034379408, -181.06164650479332, 0.12800000607967377, 0.12800000607967377, 1.0240000486373901, 0.0, 0.0, 0.0, 0.0, 0.0, 1.6518370633073435E9, 0.0, 2022-05-06 12:37:43.307
15.0, -218.16893386514857, -89.67719108751044, -136.5231779324822, -163.01662921858951, 0.12800000607967377, 0.12800000607967377, 1.0240000486373901, 0.0, 0.0, 0.0, 0.0, 0.0, 1.6518370633223825E9, 0.0, 2022-05-06 12:37:43.322
15.0, -265.4749284046702, -226.43037286726758, -213.94658681517467, -201.10377036733553, 0.12800000607967377, 0.12800000607967377, 1.0240000486373901, 0.0, 0.0, 0.0, 0.0, 0.0, 1.6518370633223825E9, 0.0, 2022-05-06 12:37:43.322
16.0, -297.13692142954096, -224.00691769598052, -235.66044595791027, -214.60854910733178, 0.12800000607967377, 0.12800000607967377, 1.0240000486373901, 0.0, 0.0, 0.0, 0.0, 0.0, 1.6518370633232937E9, 0.0, 2022-05-06 12:37:43.323
16.0, -237.36958023766056, -86.172904829029, -159.31038836250082, -180.0331740169786, 0.12800000607967377, 0.12800000607967377, 1.0240000486373901, 0.0, 0.0, 0.0, 0.0, 0.0, 1.6518370633232937E9, 0.0, 2022-05-06 12:37:43.323
17.0, -208.55365107906982, -90.02874168334529, -128.72922642482445, -157.3207615860738, 0.12800000607967377, 0.12800000607967377, 1.0240000486373901, 0.0, 0.0, 0.0, 0.0, 0.0, 1.651837063337347E9, 0.0, 2022-05-06 12:37:43.337
17.0, -281.3769830162637, -226.80062296288088, -208.77430517645553, -200.12017667898908, 0.12800000607967377, 0.12800000607967377, 1.0240000486373901, 0.0, 0.0, 0.0, 0.0, 0.0, 1.651837063337347E9, 0.0, 2022-05-06 12:37:43.337
18.0, -305.58535542944446, -231.45305850775912, -239.48636361258104, -215.5622235960327, 0.12800000607967377, 0.12800000607967377, 1.0240000486373901, 0.0, 0.0, 0.0, 0.0, 0.0, 1.6518370633382802E9, 0.0, 2022-05-06 12:37:43.338
18.0, -231.48297770740464, -78.22935732314363, -148.65541338874027, -171.8016542145051, 0.12800000607967377, 0.12800000607967377, 1.0240000486373901, 0.0, 0.0, 0.0, 0.0, 0.0, 1.6518370633382802E9, 0.0, 2022-05-06 12:37:43.338
19.0, -214.13732171291485, -89.80808758595958, -133.62475546682253, -163.01288931863382, 0.12800000607967377, 0.12800000607967377, 1.0240000486373901, 0.0, 0.0, 0.0, 0.0, 0.0, 1.6518370633513277E9, 0.0, 2022-05-06 12:37:43.351
19.0, -269.951588651631, -221.70687922323123, -206.44060760410503, -200.41562877548859, 0.12800000607967377, 0.12800000607967377, 1.0240000486373901, 0.0, 0.0, 0.0, 0.0, 0.0, 1.6518370633513277E9, 0.0, 2022-05-06 12:37:43.351
20.0, -295.83917614491656, -222.13696771813557, -237.07038824120536, -217.55185037245974, 0.12800000607967377, 0.12800000607967377, 1.0240000486373901, 0.0, 0.0, 0.0, 0.0, 0.0, 1.651837063367352E9, 0.0, 2022-05-06 12:37:43.367
20.0, -240.4325583013706, -87.19389751693234, -151.84928795089945, -170.4702498302795, 0.12800000607967377, 0.12800000607967377, 1.0240000486373901, 0.0, 0.0, 0.0, 0.0, 0.0, 1.651837063367352E9, 0.0, 2022-05-06 12:37:43.367
21.0, -218.06421666638926, -94.61011912906542, -130.4458405044861, -153.22931103454903, 0.12800000607967377, 0.12800000607967377, 1.0240000486373901, 0.0, 0.0, 0.0, 0.0, 0.0, 1.6518370633682828E9, 0.0, 2022-05-06 12:37:43.368
21.0, -278.1195301548578, -233.685778781306, -222.07338941888884, -210.3824621574022, 0.12800000607967377, 0.12800000607967377, 1.0240000486373901, 0.0, 0.0, 0.0, 0.0, 0.0, 1.6518370633682828E9, 0.0, 2022-05-06 12:37:43.368
22.0, -300.33079599170014, -225.2036856818013, -236.1728122518398, -226.06386267160997, 0.12800000607967377, 0.12800000607967377, 1.0240000486373901, 0.0, 0.0, 0.0, 0.0, 0.0, 1.6518370633813372E9, 0.0, 2022-05-06 12:37:43.381
22.0, -235.19669836340472, -81.51298948423937, -140.83528258139268, -161.07562114158645, 0.12800000607967377, 0.12800000607967377, 1.0240000486373901, 0.0, 0.0, 0.0, 0.0, 0.0, 1.6518370633813372E9, 0.0, 2022-05-06 12:37:43.381
23.0, -212.9704729267396, -100.82957275537774, -136.95326642738655, -156.77473619254306, 0.12800000607967377, 0.12800000607967377, 1.0240000486373901, 0.0, 0.0, 0.0, 0.0, 0.0, 1.6518370633973377E9, 0.0, 2022-05-06 12:37:43.397
23.0, -280.01565943239257, -241.01598269445822, -226.44907236704603, -217.52193117281422, 0.12800000607967377, 0.12800000607967377, 1.0240000486373901, 0.0, 0.0, 0.0, 0.0, 0.0, 1.6518370633973377E9, 0.0, 2022-05-06 12:37:43.397
24.0, -296.7554516340606, -222.7503113108687, -239.26944941515103, -219.44797964999452, 0.12800000607967377, 0.12800000607967377, 1.0240000486373901, 0.0, 0.0, 0.0, 0.0, 0.0, 1.6518370633983593E9, 0.0, 2022-05-06 12:37:43.398
24.0, -220.8280027336441, -64.20099258935079, -123.79255848331377, -134.61956885503605, 0.12800000607967377, 0.12800000607967377, 1.0240000486373901, 0.0, 0.0, 0.0, 0.0, 0.0, 1.6518370633983593E9, 0.0, 2022-05-06 12:37:43.398
25.0, -213.66983421845362, -91.09087327076122, -135.28527104714885, -157.29458228638396, 0.12800000607967377, 0.12800000607967377, 1.0240000486373901, 0.0, 0.0, 0.0, 0.0, 0.0, 1.651837063411332E9, 0.0, 2022-05-06 12:37:43.411
25.0, -276.46649437444285, -234.25424357457086, -223.50951100187376, -209.99725246196613, 0.12800000607967377, 0.12800000607967377, 1.0240000486373901, 0.0, 0.0, 0.0, 0.0, 0.0, 1.651837063411332E9, 0.0, 2022-05-06 12:37:43.411
26.0, -290.3003843105398, -217.1217618775554, -223.96577879646793, -187.79720632499084, 0.12800000607967377, 0.12800000607967377, 1.0240000486373901, 0.0, 0.0, 0.0, 0.0, 0.0, 1.6518370634273527E9, 0.0, 2022-05-06 12:37:43.427
26.0, -209.46244676830247, -55.73385908966884, -124.48817987507209, -143.48313175002113, 0.12800000607967377, 0.12800000607967377, 1.0240000486373901, 0.0, 0.0, 0.0, 0.0, 0.0, 1.6518370634273527E9, 0.0, 2022-05-06 12:37:43.427
27.0, -223.39731400320306, -92.65789135219529, -143.56166964909062, -175.22740257391706, 0.12800000607967377, 0.12800000607967377, 1.0240000486373901, 0.0, 0.0, 0.0, 0.0, 0.0, 1.6518370634282987E9, 0.0, 2022-05-06 12:37:43.428
27.0, -288.4603535323404, -244.52400885289535, -235.71654445724562, -235.08076146477833, 0.12800000607967377, 0.12800000607967377, 1.0240000486373901, 0.0, 0.0, 0.0, 0.0, 0.0, 1.6518370634282987E9, 0.0, 2022-05-06 12:37:43.428
28.0, -299.608995300252, -213.91292771557346, -235.07328166486695, -228.57707544183359, 0.12800000607967377, 0.12800000607967377, 1.0240000486373901, 0.0, 0.0, 0.0, 0.0, 0.0, 1.6518370634413483E9, 0.0, 2022-05-06 12:37:43.441
28.0, -230.48442441923544, -73.30764898145571, -147.17815290624276, -175.39195817196742, 0.12800000607967377, 0.12800000607967377, 1.0240000486373901, 0.0, 0.0, 0.0, 0.0, 0.0, 1.6518370634413483E9, 0.0, 2022-05-06 12:37:43.441
29.0, -217.77998426975682, -104.26654081465676, -143.80102324625477, -166.97344337170944, 0.12800000607967377, 0.12800000607967377, 1.0240000486373901, 0.0, 0.0, 0.0, 0.0, 0.0, 1.6518370634573493E9, 0.0, 2022-05-06 12:37:43.457
29.0, -285.03086527297273, -243.5404151645489, -227.15591345867142, -212.95925322687253, 0.12800000607967377, 0.12800000607967377, 1.0240000486373901, 0.0, 0.0, 0.0, 0.0, 0.0, 1.6518370634573493E9, 0.0, 2022-05-06 12:37:43.457
30.0, -308.4688182952814, -226.49021126655862, -243.34968026680872, -227.59722165344283, 0.12800000607967377, 0.12800000607967377, 1.0240000486373901, 0.0, 0.0, 0.0, 0.0, 0.0, 1.651837063458302E9, 0.0, 2022-05-06 12:37:43.458
30.0, -227.11851445911452, -68.37098103994504, -145.36804132768884, -167.27637526812032, 0.12800000607967377, 0.12800000607967377, 1.0240000486373901, 0.0, 0.0, 0.0, 0.0, 0.0, 1.651837063458302E9, 0.0, 2022-05-06 12:37:43.458
31.0, -216.14564798912033, -101.89544424274936, -137.49929182091728, -155.82106170384213, 0.12800000607967377, 0.12800000607967377, 1.0240000486373901, 0.0, 0.0, 0.0, 0.0, 0.0, 1.6518370634714005E9, 0.0, 2022-05-06 12:37:43.471
31.0, -286.7923581521027, -246.51363562932238, -226.02646367205307, -212.65632133046165, 0.12800000607967377, 0.12800000607967377, 1.0240000486373901, 0.0, 0.0, 0.0, 0.0, 0.0, 1.6518370634714005E9, 0.0, 2022-05-06 12:37:43.471
32.0, -296.979845631402, -217.7837241697125, -240.64573259884492, -223.9358595968224, 0.12800000607967377, 0.12800000607967377, 1.0240000486373901, 0.0, 0.0, 0.0, 0.0, 0.0, 1.6518370634863248E9, 0.0, 2022-05-06 12:37:43.486
32.0, -234.43375877244398, -71.20956510631368, -142.6827931595035, -162.97923021903262, 0.12800000607967377, 0.12800000607967377, 1.0240000486373901, 0.0, 0.0, 0.0, 0.0, 0.0, 1.6518370634863248E9, 0.0, 2022-05-06 12:37:43.486
33.0, -222.7540512108244, -102.42277013650164, -137.13278162525967, -158.59232757100835, 0.12800000607967377, 0.12800000607967377, 1.0240000486373901, 0.0, 0.0, 0.0, 0.0, 0.0, 1.6518370634872952E9, 0.0, 2022-05-06 12:37:43.487
33.0, -280.7748591233976, -238.727163921576, -224.19391269376501, -205.9282413101755, 0.12800000607967377, 0.12800000607967377, 1.0240000486373901, 0.0, 0.0, 0.0, 0.0, 0.0, 1.6518370634872952E9, 0.0, 2022-05-06 12:37:43.487
34.0, -297.4510730258189, -223.58804890094325, -236.43460524873808, -225.17002658220008, 0.12800000607967377, 0.12800000607967377, 1.0240000486373901, 0.0, 0.0, 0.0, 0.0, 0.0, 1.6518370635013585E9, 0.0, 2022-05-06 12:37:43.501
34.0, -229.58310852991417, -70.36808761628345, -139.20468620071188, -163.2485030158423, 0.12800000607967377, 0.12800000607967377, 1.0240000486373901, 0.0, 0.0, 0.0, 0.0, 0.0, 1.6518370635013585E9, 0.0, 2022-05-06 12:37:43.501
35.0, -201.20100776618347, -86.71519032260403, -119.28971893666312, -137.25993822375312, 0.12800000607967377, 0.12800000607967377, 1.0240000486373901, 0.0, 0.0, 0.0, 0.0, 0.0, 1.6518370635163321E9, 0.0, 2022-05-06 12:37:43.516
35.0, -271.90755632845685, -228.59951484156772, -204.89976882236078, -178.30908013740554, 0.12800000607967377, 0.12800000607967377, 1.0240000486373901, 0.0, 0.0, 0.0, 0.0, 0.0, 1.6518370635163321E9, 0.0, 2022-05-06 12:37:43.516
36.0, -284.06597108440474, -204.82871072320268, -232.15989959938452, -214.73570570582524, 0.12800000607967377, 0.12800000607967377, 1.0240000486373901, 0.0, 0.0, 0.0, 0.0, 0.0, 1.6518370635313628E9, 0.0, 2022-05-06 12:37:43.531
36.0, -226.31817586859688, -74.26506337011233, -143.2362983529456, -175.9118042658083, 0.12800000607967377, 0.12800000607967377, 1.0240000486373901, 0.0, 0.0, 0.0, 0.0, 0.0, 1.6518370635313628E9, 0.0, 2022-05-06 12:37:43.531
37.0, -224.41082689119503, -104.54329341137782, -139.87786819273606, -168.58908015256748, 0.12800000607967377, 0.12800000607967377, 1.0240000486373901, 0.0, 0.0, 0.0, 0.0, 0.0, 1.6518370635323613E9, 0.0, 2022-05-06 12:37:43.532
37.0, -277.3416309640743, -244.00790265901014, -217.6079488717951, -207.51395889138803, 0.12800000607967377, 0.12800000607967377, 1.0240000486373901, 0.0, 0.0, 0.0, 0.0, 0.0, 1.6518370635323613E9, 0.0, 2022-05-06 12:37:43.532
38.0, -289.0063789258711, -210.18424745975062, -230.52556331874803, -211.36979574570432, 0.12800000607967377, 0.12800000607967377, 1.0240000486373901, 0.0, 0.0, 0.0, 0.0, 0.0, 1.6518370635473237E9, 0.0, 2022-05-06 12:37:43.547
38.0, -247.85999961337075, -80.53313569584861, -165.4326045899652, -195.74823363078758, 0.12800000607967377, 0.12800000607967377, 1.0240000486373901, 0.0, 0.0, 0.0, 0.0, 0.0, 1.6518370635473237E9, 0.0, 2022-05-06 12:37:43.547
39.0, -227.8702343502082, -113.9267024002038, -149.0855018836446, -177.51622134679928, 0.12800000607967377, 0.12800000607967377, 1.0240000486373901, 0.0, 0.0, 0.0, 0.0, 0.0, 1.6518370635482895E9, 0.0, 2022-05-06 12:37:43.548
39.0, -284.0697109843604, -245.14857214549556, -229.73644442809746, -218.36340866284445, 0.12800000607967377, 0.12800000607967377, 1.0240000486373901, 0.0, 0.0, 0.0, 0.0, 0.0, 1.6518370635482895E9, 0.0, 2022-05-06 12:37:43.548
40.0, -299.1976063051261, -213.92414741544053, -238.2821158268489, -220.40913393860683, 0.12800000607967377, 0.12800000607967377, 1.0240000486373901, 0.0, 0.0, 0.0, 0.0, 0.0, 1.6518370635613651E9, 0.0, 2022-05-06 12:37:43.561
40.0, -226.89786036172882, -72.6456866892986, -141.96099246805534, -160.98960344260558, 0.12800000607967377, 0.12800000607967377, 1.0240000486373901, 0.0, 0.0, 0.0, 0.0, 0.0, 1.6518370635613651E9, 0.0, 2022-05-06 12:37:43.561
41.0, -223.57682920107618, -109.61833765124902, -144.81827603420243, -169.3594995434396, 0.12800000607967377, 0.12800000607967377, 1.0240000486373901, 0.0, 0.0, 0.0, 0.0, 0.0, 1.6518370635773225E9, 0.0, 2022-05-06 12:37:43.577
41.0, -284.36516308085993, -241.03094229428098, -224.21635209349915, -204.90350872231647, 0.12800000607967377, 0.12800000607967377, 1.0240000486373901, 0.0, 0.0, 0.0, 0.0, 0.0, 1.6518370635773225E9, 0.0, 2022-05-06 12:37:43.577
42.0, -292.9407536792569, -208.99495927384123, -229.89726012619212, -217.80242366949096, 0.12800000607967377, 0.12800000607967377, 1.0240000486373901, 0.0, 0.0, 0.0, 0.0, 0.0, 1.651837063578313E9, 0.0, 2022-05-06 12:37:43.578
42.0, -229.13806043518707, -73.82375517534092, -143.6102883485146, -169.71852993918583, 0.12800000607967377, 0.12800000607967377, 1.0240000486373901, 0.0, 0.0, 0.0, 0.0, 0.0, 1.651837063578313E9, 0.0, 2022-05-06 12:37:43.578
43.0, -211.03694464964792, -104.6629702099599, -129.6716812136583, -142.72767195897177, 0.12800000607967377, 0.12800000607967377, 1.0240000486373901, 0.0, 0.0, 0.0, 0.0, 0.0, 1.6518370635913532E9, 0.0, 2022-05-06 12:37:43.591
43.0, -279.45841433899477, -238.36439362587407, -220.62604813603684, -195.69587503140792, 0.12800000607967377, 0.12800000607967377, 1.0240000486373901, 0.0, 0.0, 0.0, 0.0, 0.0, 1.6518370635913532E9, 0.0, 2022-05-06 12:37:43.591
44.0, -302.1184681705199, -218.33348946319893, -249.01562869967893, -246.74924932653084, 0.12800000607967377, 0.12800000607967377, 1.0240000486373901, 0.0, 0.0, 0.0, 0.0, 0.0, 1.6518370636073277E9, 0.0, 2022-05-06 12:37:43.607
44.0, -229.9084798260592, -70.99265090888366, -145.5737358252518, -177.6620774450712, 0.12800000607967377, 0.12800000607967377, 1.0240000486373901, 0.0, 0.0, 0.0, 0.0, 0.0, 1.6518370636073277E9, 0.0, 2022-05-06 12:37:43.607
45.0, -224.7548976871185, -111.82113872515038, -140.91756038041785, -162.3172679268755, 0.12800000607967377, 0.12800000607967377, 1.0240000486373901, 0.0, 0.0, 0.0, 0.0, 0.0, 1.651837063608277E9, 0.0, 2022-05-06 12:37:43.608
45.0, -285.4946128674783, -248.7276564030908, -232.51519009517506, -218.46812586160377, 0.12800000607967377, 0.12800000607967377, 1.0240000486373901, 0.0, 0.0, 0.0, 0.0, 0.0, 1.651837063608277E9, 0.0, 2022-05-06 12:37:43.608
46.0, -288.6772677297704, -207.4092416926287, -226.37053446797654, -224.54546328959987, 0.12800000607967377, 0.12800000607967377, 1.0240000486373901, 0.0, 0.0, 0.0, 0.0, 0.0, 1.6518370636213431E9, 0.0, 2022-05-06 12:37:43.621
46.0, -236.93575184280053, -70.79817611118779, -145.50641762604937, -170.94147722469643, 0.12800000607967377, 0.12800000607967377, 1.0240000486373901, 0.0, 0.0, 0.0, 0.0, 0.0, 1.6518370636213431E9, 0.0, 2022-05-06 12:37:43.621
47.0, -211.1192224486731, -107.90546347154304, -138.92419370403513, -160.2827623509802, 0.12800000607967377, 0.12800000607967377, 1.0240000486373901, 0.0, 0.0, 0.0, 0.0, 0.0, 1.6518370636373463E9, 0.0, 2022-05-06 12:37:43.637
47.0, -271.31291223550215, -244.03034205874428, -224.22757179336622, -208.6396687780507, 0.12800000607967377, 0.12800000607967377, 1.0240000486373901, 0.0, 0.0, 0.0, 0.0, 0.0, 1.6518370636373463E9, 0.0, 2022-05-06 12:37:43.637
48.0, -283.6246628896333, -193.08168496238068, -213.2696649231948, -193.94934175210074, 0.12800000607967377, 0.12800000607967377, 1.0240000486373901, 0.0, 0.0, 0.0, 0.0, 0.0, 1.651837063638302E9, 0.0, 2022-05-06 12:37:43.638
48.0, -225.77589037502185, -64.48896488593891, -141.01853767922148, -166.12074618181214, 0.12800000607967377, 0.12800000607967377, 1.0240000486373901, 0.0, 0.0, 0.0, 0.0, 0.0, 1.651837063638302E9, 0.0, 2022-05-06 12:37:43.638
49.0, -228.13576724706218, -113.08522491017357, -147.88499399786815, -168.9107115487568, 0.12800000607967377, 0.12800000607967377, 1.0240000486373901, 0.0, 0.0, 0.0, 0.0, 0.0, 1.6518370636513417E9, 0.0, 2022-05-06 12:37:43.651
49.0, -284.98598647350445, -243.7984682614915, -219.69107314711437, -210.69661375368014, 0.12800000607967377, 0.12800000607967377, 1.0240000486373901, 0.0, 0.0, 0.0, 0.0, 0.0, 1.6518370636513417E9, 0.0, 2022-05-06 12:37:43.651
50.0, -295.51380484877154, -199.13658299064264, -221.41142712673172, -215.20319320028648, 0.12800000607967377, 0.12800000607967377, 1.0240000486373901, 0.0, 0.0, 0.0, 0.0, 0.0, 1.651837063667356E9, 0.0, 2022-05-06 12:37:43.667
50.0, -216.39996118610725, -43.65772213274613, -129.94095401046798, -154.6055942182429, 0.12800000607967377, 0.12800000607967377, 1.0240000486373901, 0.0, 0.0, 0.0, 0.0, 0.0, 1.651837063667356E9, 0.0, 2022-05-06 12:37:43.667
51.0, -217.14794117724523, -130.8983683991246, -152.06620214832947, -183.04753338126466, 0.12800000607967377, 0.12800000607967377, 1.0240000486373901, 0.0, 0.0, 0.0, 0.0, 0.0, 1.6518370636682737E9, 0.0, 2022-05-06 12:37:43.668
51.0, -299.7959902980365, -281.3096648170613, -252.47877605864778, -231.95046520186588, 0.12800000607967377, 0.12800000607967377, 1.0240000486373901, 0.0, 0.0, 0.0, 0.0, 0.0, 1.6518370636682737E9, 0.0, 2022-05-06 12:37:43.668
52.0, -280.7524197236635, -194.8543975413777, -220.84296233346686, -214.0475641139783, 0.12800000607967377, 0.12800000607967377, 1.0240000486373901, 0.0, 0.0, 0.0, 0.0, 0.0, 1.6518370636813543E9, 0.0, 2022-05-06 12:37:43.681
52.0, -215.13587500108406, -52.05379753326997, -131.49675239203498, -159.78161575691774, 0.12800000607967377, 0.12800000607967377, 1.0240000486373901, 0.0, 0.0, 0.0, 0.0, 0.0, 1.6518370636813543E9, 0.0, 2022-05-06 12:37:43.681
53.0, -221.78167722234502, -132.33448998210952, -152.3466946450062, -178.87380503071472, 0.12800000607967377, 0.12800000607967377, 1.0240000486373901, 0.0, 0.0, 0.0, 0.0, 0.0, 1.6518370636973567E9, 0.0, 2022-05-06 12:37:43.697
53.0, -294.6012692595832, -275.97656748024747, -243.2412231680937, -230.82475531520322, 0.12800000607967377, 0.12800000607967377, 1.0240000486373901, 0.0, 0.0, 0.0, 0.0, 0.0, 1.6518370636973567E9, 0.0, 2022-05-06 12:37:43.697
54.0, -275.524039585609, -185.6579835503362, -206.006779209245, -196.75426671886817, 0.12800000607967377, 0.12800000607967377, 1.0240000486373901, 0.0, 0.0, 0.0, 0.0, 0.0, 1.6518370636982944E9, 0.0, 2022-05-06 12:37:43.698
54.0, -189.43154260562733, -33.51885335287079, -107.46415527677163, -136.48203903296962, 0.12800000607967377, 0.12800000607967377, 1.0240000486373901, 0.0, 0.0, 0.0, 0.0, 0.0, 1.6518370636982944E9, 0.0, 2022-05-06 12:37:43.698
55.0, -211.10426284885034, -114.7046015909873, -134.4886723565869, -160.86244684411213, 0.12800000607967377, 0.12800000607967377, 1.0240000486373901, 0.0, 0.0, 0.0, 0.0, 0.0, 1.651837063711348E9, 0.0, 2022-05-06 12:37:43.711
55.0, -276.7133277715184, -255.94940321752802, -220.81304313382134, -214.3467561104335, 0.12800000607967377, 0.12800000607967377, 1.0240000486373901, 0.0, 0.0, 0.0, 0.0, 0.0, 1.651837063711348E9, 0.0, 2022-05-06 12:37:43.711
56.0, -268.98669446306303, -165.73553648637608, -196.75052681891248, -188.1861559203826, 0.12800000607967377, 0.12800000607967377, 1.0240000486373901, 0.0, 0.0, 0.0, 0.0, 0.0, 1.651837063727387E9, 0.0, 2022-05-06 12:37:43.727
56.0, -202.0050862566568, -33.11868405761197, -112.26992671983317, -150.43934566760436, 0.12800000607967377, 0.12800000607967377, 1.0240000486373901, 0.0, 0.0, 0.0, 0.0, 0.0, 1.651837063727387E9, 0.0, 2022-05-06 12:37:43.727
57.0, -207.83185038762167, -111.68276242678985, -129.17053461959586, -156.25489009870216, 0.12800000607967377, 0.12800000607967377, 1.0240000486373901, 0.0, 0.0, 0.0, 0.0, 0.0, 1.651837063728294E9, 0.0, 2022-05-06 12:37:43.728
57.0, -281.4929199148901, -258.75806808425114, -229.00716393673792, -216.01849139062688, 0.12800000607967377, 0.12800000607967377, 1.0240000486373901, 0.0, 0.0, 0.0, 0.0, 0.0, 1.651837063728294E9, 0.0, 2022-05-06 12:37:43.728
58.0, -270.49761404516175, -177.50126174697652, -194.54398584505543, -188.61998431524262, 0.12800000607967377, 0.12800000607967377, 1.0240000486373901, 0.0, 0.0, 0.0, 0.0, 0.0, 1.6518370637413275E9, 0.0, 2022-05-06 12:37:43.741
58.0, -194.2971524479799, -25.261154250707477, -94.71109642786905, -116.76902636652812, 0.12800000607967377, 0.12800000607967377, 1.0240000486373901, 0.0, 0.0, 0.0, 0.0, 0.0, 1.6518370637413275E9, 0.0, 2022-05-06 12:37:43.741
59.0, -208.13852218398824, -113.94914179993793, -133.65841456642374, -145.8280490222387, 0.12800000607967377, 0.12800000607967377, 1.0240000486373901, 0.0, 0.0, 0.0, 0.0, 0.0, 1.6518370637573204E9, 0.0, 2022-05-06 12:37:43.757
59.0, -283.4227082920261, -260.38118466502056, -228.76407043961808, -224.6389607884921, 0.12800000607967377, 0.12800000607967377, 1.0240000486373901, 0.0, 0.0, 0.0, 0.0, 0.0, 1.6518370637573204E9, 0.0, 2022-05-06 12:37:43.757
60.0, -266.72031508991495, -184.01990736974403, -211.66898774215952, -218.81967645743862, 0.12800000607967377, 0.12800000607967377, 1.0240000486373901, 0.0, 0.0, 0.0, 0.0, 0.0, 1.6518370637583344E9, 0.0, 2022-05-06 12:37:43.758
60.0, -211.33239674614742, -50.46434005210176, -122.92116179363802, -159.59088085917756, 0.12800000607967377, 0.12800000607967377, 1.0240000486373901, 0.0, 0.0, 0.0, 0.0, 0.0, 1.6518370637583344E9, 0.0, 2022-05-06 12:37:43.758
61.0, -217.54437057254836, -130.92454769881442, -140.76048458227888, -164.00022290693596, 0.12800000607967377, 0.12800000607967377, 1.0240000486373901, 0.0, 0.0, 0.0, 0.0, 0.0, 1.6518370637713335E9, 0.0, 2022-05-06 12:37:43.771
61.0, -279.91842203354463, -265.12337780883536, -229.47465143119916, -220.94393963227049, 0.12800000607967377, 0.12800000607967377, 1.0240000486373901, 0.0, 0.0, 0.0, 0.0, 0.0, 1.6518370637713335E9, 0.0, 2022-05-06 12:37:43.771
62.0, -270.157283149194, -169.3221005438827, -196.86646371753886, -202.23696005390957, 0.12800000607967377, 0.12800000607967377, 1.0240000486373901, 0.0, 0.0, 0.0, 0.0, 0.0, 1.6518370637873273E9, 0.0, 2022-05-06 12:37:43.787
62.0, -184.1844629677944, -21.349218897055835, -91.62567896442488, -125.60640996182337, 0.12800000607967377, 0.12800000607967377, 1.0240000486373901, 0.0, 0.0, 0.0, 0.0, 0.0, 1.6518370637873273E9, 0.0, 2022-05-06 12:37:43.787
63.0, -204.1555287311785, -112.48310101730749, -122.17318180250004, -136.9383068275638, 0.12800000607967377, 0.12800000607967377, 1.0240000486373901, 0.0, 0.0, 0.0, 0.0, 0.0, 1.651837063788282E9, 0.0, 2022-05-06 12:37:43.788
63.0, -269.4504420575686, -252.79666755488142, -220.80930323386565, -210.8237703521736, 0.12800000607967377, 0.12800000607967377, 1.0240000486373901, 0.0, 0.0, 0.0, 0.0, 0.0, 1.651837063788282E9, 0.0, 2022-05-06 12:37:43.788
