%OpenBCI Raw EEG Data
%Number of channels = 4
%Sample Rate = 200 Hz
%Board = OpenBCI_GUI$BoardGanglionBLE
Sample Index, EXG Channel 0, EXG Channel 1, EXG Channel 2, EXG Channel 3, Accel Channel 0, Accel Channel 1, Accel Channel 2, Other, Other, Other, Other, Other, Timestamp, Other, Timestamp (Formatted)
0.0, -264.65215041441843, -117.8872564532794, -172.35702935792506, -184.14519401825964, 0.0, 0.0, 0.0, 0.0, 0.0, 0.0, 0.0, 0.0, 1.651837110469182E9, 0.0, 2022-05-06 12:38:30.469
1.0, -213.29210432292894, -67.04331655567512, -126.26276240404695, -145.583085575141, 0.0, 0.12800000607967377, 0.0, 0.0, 0.0, 0.0, 0.0, 0.0, 1.651837110482176E9, 0.0, 2022-05-06 12:38:30.482
1.0, -264.49881451623514, -210.7901112525724, -207.48216974176466, -211.96256988868117, 0.0, 0.12800000607967377, 0.0, 0.0, 0.0, 0.0, 0.0, 0.0, 1.651837110482176E9, 0.0, 2022-05-06 12:38:30.482
2.0, -314.51249662367627, -257.78195419581607, -256.0073716668412, -236.53371259756386, 0.12800000607967377, 0.12800000607967377, 0.0, 0.0, 0.0, 0.0, 0.0, 0.0, 1.6518371104991724E9, 0.0, 2022-05-06 12:38:30.499
2.0, -260.4372831643559, -117.56936495704576, -172.73849915340543, -180.10984196607023, 0.12800000607967377, 0.12800000607967377, 0.0, 0.0, 0.0, 0.0, 0.0, 0.0, 1.6518371104991724E9, 0.0, 2022-05-06 12:38:30.499
3.0, -217.2302189762704, -74.66149276541546, -132.71408982761204, -166.33205052930862, 0.12800000607967377, 0.12800000607967377, 0.0, 0.0, 0.0, 0.0, 0.0, 0.0, 1.6518371105001764E9, 0.0, 2022-05-06 12:38:30.500
3.0, -273.328718311619, -208.83788347570226, -202.62777959927917, -207.32883384358138, 0.12800000607967377, 0.12800000607967377, 0.0, 0.0, 0.0, 0.0, 0.0, 0.0, 1.6518371105001764E9, 0.0, 2022-05-06 12:38:30.500
4.0, -313.4690645360388, -255.71752942027524, -254.64978798292577, -235.28084611240774, 0.12800000607967377, 0.12800000607967377, 0.0, 0.0, 0.0, 0.0, 0.0, 0.0, 1.6518371105122273E9, 0.0, 2022-05-06 12:38:30.512
4.0, -255.54175412235782, -112.5167601169087, -171.706286765635, -184.2349516171962, 0.12800000607967377, 0.12800000607967377, 0.0, 0.0, 0.0, 0.0, 0.0, 0.0, 1.6518371105122273E9, 0.0, 2022-05-06 12:38:30.512
5.0, -199.83220438240096, -70.03149662027135, -123.36060003843158, -146.1403306685388, 0.12800000607967377, 0.12800000607967377, 0.0, 0.0, 0.0, 0.0, 0.0, 0.0, 1.6518371105282736E9, 0.0, 2022-05-06 12:38:30.528
5.0, -279.600530537311, -208.51251217955723, -198.63730634655803, -198.96641754265875, 0.12800000607967377, 0.12800000607967377, 0.0, 0.0, 0.0, 0.0, 0.0, 0.0, 1.6518371105282736E9, 0.0, 2022-05-06 12:38:30.528
6.0, -329.3187605482526, -264.2968599186279, -270.82111539132893, -253.29220429901034, 0.12800000607967377, 0.12800000607967377, 0.0, 0.0, 0.0, 0.0, 0.0, 0.0, 1.6518371105292983E9, 0.0, 2022-05-06 12:38:30.529
6.0, -268.49676756886765, -131.97919948631898, -194.6804921934381, -202.75493619777262, 0.12800000607967377, 0.12800000607967377, 0.0, 0.0, 0.0, 0.0, 0.0, 0.0, 1.6518371105292983E9, 0.0, 2022-05-06 12:38:30.529
7.0, -216.20548638841137, -74.17156587122008, -135.4666561949998, -163.4111886639148, 0.12800000607967377, 0.12800000607967377, 0.0, 0.0, 0.0, 0.0, 0.0, 0.0, 1.651837110542258E9, 0.0, 2022-05-06 12:38:30.542
7.0, -281.35080371657386, -224.11163489473984, -220.5531200869009, -219.68172339722514, 0.12800000607967377, 0.12800000607967377, 0.0, 0.0, 0.0, 0.0, 0.0, 0.0, 1.651837110542258E9, 0.0, 2022-05-06 12:38:30.542
8.0, -315.11462051654235, -253.05472065182403, -248.16854135971516, -230.19458217266947, 0.12800000607967377, 0.12800000607967377, 0.0, 0.0, 0.0, 0.0, 0.0, 0.0, 1.6518371105582788E9, 0.0, 2022-05-06 12:38:30.558
8.0, -253.70172334415838, -111.4808078291826, -177.77614439371973, -183.26257762871683, 0.12800000607967377, 0.12800000607967377, 0.0, 0.0, 0.0, 0.0, 0.0, 0.0, 1.6518371105582788E9, 0.0, 2022-05-06 12:38:30.558
9.0, -226.20597886992618, -77.77682942850515, -135.18616369832307, -170.4870793800801, 0.12800000607967377, 0.12800000607967377, 0.0, 0.0, 0.0, 0.0, 0.0, 0.0, 1.651837110559208E9, 0.0, 2022-05-06 12:38:30.559
9.0, -277.21073446562514, -215.2705113994889, -210.33197350800037, -210.90791810117662, 0.12800000607967377, 0.12800000607967377, 0.0, 0.0, 0.0, 0.0, 0.0, 0.0, 1.651837110559208E9, 0.0, 2022-05-06 12:38:30.559
10.0, -316.8087951964699, -259.1395378797315, -254.51141168456525, -232.77137324213982, 0.12800000607967377, 0.12800000607967377, 1.0240000486373901, 0.0, 0.0, 0.0, 0.0, 0.0, 1.6518371105722766E9, 0.0, 2022-05-06 12:38:30.572
10.0, -253.55960714584216, -110.04468624619767, -164.03201205655932, -170.22154648322612, 0.12800000607967377, 0.12800000607967377, 1.0240000486373901, 0.0, 0.0, 0.0, 0.0, 0.0, 1.6518371105722766E9, 0.0, 2022-05-06 12:38:30.572
11.0, -204.342523728963, -60.378814834635705, -115.3497343333438, -130.4327508546412, 0.12800000607967377, 0.06400000303983688, 1.0240000486373901, 0.0, 0.0, 0.0, 0.0, 0.0, 1.651837110588261E9, 0.0, 2022-05-06 12:38:30.588
11.0, -255.79980721930042, -204.5556980264373, -202.01069610659033, -189.9457788495347, 0.12800000607967377, 0.06400000303983688, 1.0240000486373901, 0.0, 0.0, 0.0, 0.0, 0.0, 1.651837110588261E9, 0.0, 2022-05-06 12:38:30.588
12.0, -318.63012647489086, -249.41579799493775, -254.65352788288146, -239.86596345808357, 0.06400000303983688, 0.06400000303983688, 1.0240000486373901, 0.0, 0.0, 0.0, 0.0, 0.0, 1.6518371105892391E9, 0.0, 2022-05-06 12:38:30.589
12.0, -251.58867986919358, -100.31720646144822, -168.9350208984688, -187.39516707975417, 0.06400000303983688, 0.06400000303983688, 1.0240000486373901, 0.0, 0.0, 0.0, 0.0, 0.0, 1.6518371105892391E9, 0.0, 2022-05-06 12:38:30.589
13.0, -223.18039980577305, -86.96202371967956, -140.91569043044, -174.5261713322252, 0.06400000303983688, 0.06400000303983688, 1.0240000486373901, 0.0, 0.0, 0.0, 0.0, 0.0, 1.6518371106022267E9, 0.0, 2022-05-06 12:38:30.602
13.0, -282.68968790071085, -243.52545556472614, -224.18830284383148, -216.1774371387437, 0.06400000303983688, 0.06400000303983688, 1.0240000486373901, 0.0, 0.0, 0.0, 0.0, 0.0, 1.6518371106022267E9, 0.0, 2022-05-06 12:38:30.602
14.0, -311.6439933576621, -238.16243902826682, -239.5181527622044, -220.7700342843309, 0.06400000303983688, 0.06400000303983688, 1.0240000486373901, 0.0, 0.0, 0.0, 0.0, 0.0, 1.651837110618261E9, 0.0, 2022-05-06 12:38:30.618
14.0, -239.8341743084602, -71.90892639802769, -149.69323562644422, -161.4814002867788, 0.06400000303983688, 0.06400000303983688, 1.0240000486373901, 0.0, 0.0, 0.0, 0.0, 0.0, 1.651837110618261E9, 0.0, 2022-05-06 12:38:30.618
15.0, -209.54098466737196, -83.6896112584509, -125.7616158099845, -152.42710249405354, 0.06400000303983688, 0.06400000303983688, 1.0240000486373901, 0.0, 0.0, 0.0, 0.0, 0.0, 1.651837110619183E9, 0.0, 2022-05-06 12:38:30.619
15.0, -277.61464366083965, -244.73344325041398, -229.850511376746, -216.2148361383006, 0.06400000303983688, 0.06400000303983688, 1.0240000486373901, 0.0, 0.0, 0.0, 0.0, 0.0, 1.651837110619183E9, 0.0, 2022-05-06 12:38:30.619
16.0, -312.2872561500408, -234.5796148707159, -254.17482068855315, -228.2161750961095, 0.06400000303983688, 0.06400000303983688, 1.0240000486373901, 0.0, 0.0, 0.0, 0.0, 0.0, 1.651837110632266E9, 0.0, 2022-05-06 12:38:30.632
16.0, -242.2838087794371, -75.41321265650913, -144.74160808511078, -166.83693702332675, 0.06400000303983688, 0.06400000303983688, 1.0240000486373901, 0.0, 0.0, 0.0, 0.0, 0.0, 1.651837110632266E9, 0.0, 2022-05-06 12:38:30.632
17.0, -214.4926122087054, -94.1351518346928, -127.90083858463913, -151.41358960606158, 0.06400000303983688, 0.06400000303983688, 1.0240000486373901, 0.0, 0.0, 0.0, 0.0, 0.0, 1.6518371106642344E9, 0.0, 2022-05-06 12:38:30.664
17.0, -287.0167521494441, -255.48939552297816, -233.82228512968868, -227.06054600980133, 0.06400000303983688, 0.06400000303983688, 1.0240000486373901, 0.0, 0.0, 0.0, 0.0, 0.0, 1.6518371106642344E9, 0.0, 2022-05-06 12:38:30.664
18.0, -309.8750206786208, -230.13661372335628, -250.8612693278119, -229.1810692846775, 0.06400000303983688, 0.06400000303983688, 1.0240000486373901, 0.0, 0.0, 0.0, 0.0, 0.0, 1.651837110665177E9, 0.0, 2022-05-06 12:38:30.665
18.0, -229.9084798260592, -65.72313187131658, -139.2476950502023, -164.8884491464123, 0.06400000303983688, 0.06400000303983688, 1.0240000486373901, 0.0, 0.0, 0.0, 0.0, 0.0, 1.651837110665177E9, 0.0, 2022-05-06 12:38:30.665
19.0, -214.65716780675575, -98.29018068546429, -135.5077950945124, -163.54956496227533, 0.06400000303983688, 0.06400000303983688, 1.0240000486373901, 0.0, 0.0, 0.0, 0.0, 0.0, 1.651837110666241E9, 0.0, 2022-05-06 12:38:30.666
19.0, -286.6278025540523, -255.26126162568107, -227.26624050736427, -218.5821928102523, 0.06400000303983688, 0.06400000303983688, 1.0240000486373901, 0.0, 0.0, 0.0, 0.0, 0.0, 1.651837110666241E9, 0.0, 2022-05-06 12:38:30.666
20.0, -321.9436778356321, -241.47225048905239, -246.96055367402732, -232.8873101407662, 0.06400000303983688, 0.06400000303983688, 0.5120000243186951, 0.0, 0.0, 0.0, 0.0, 0.0, 1.6518371106672113E9, 0.0, 2022-05-06 12:38:30.667
20.0, -229.07448213594034, -60.90988062834367, -134.57656000554562, -160.05275850370526, 0.06400000303983688, 0.06400000303983688, 0.5120000243186951, 0.0, 0.0, 0.0, 0.0, 0.0, 1.6518371106672113E9, 0.0, 2022-05-06 12:38:30.667
21.0, -206.95297389803454, -82.8331741685979, -122.30594825092703, -148.09629834536463, 0.06400000303983688, 0.09600000455975533, 0.5120000243186951, 0.0, 0.0, 0.0, 0.0, 0.0, 1.651837110677214E9, 0.0, 2022-05-06 12:38:30.677
21.0, -281.57145781395957, -255.19020352652296, -236.2606999007985, -215.42945714760572, 0.06400000303983688, 0.09600000455975533, 0.5120000243186951, 0.0, 0.0, 0.0, 0.0, 0.0, 1.651837110677214E9, 0.0, 2022-05-06 12:38:30.677
22.0, -307.2009922103025, -226.29573646886274, -235.4042628109455, -221.4768753759563, 0.09600000455975533, 0.09600000455975533, 0.5120000243186951, 0.0, 0.0, 0.0, 0.0, 0.0, 1.651837110692231E9, 0.0, 2022-05-06 12:38:30.692
22.0, -234.56465527089313, -64.30570978811011, -153.61639067996293, -175.61822211928666, 0.09600000455975533, 0.09600000455975533, 0.5120000243186951, 0.0, 0.0, 0.0, 0.0, 0.0, 1.651837110692231E9, 0.0, 2022-05-06 12:38:30.692
23.0, -216.87118858052418, -93.85465933801606, -131.72301633935422, -167.99630600959063, 0.09600000455975533, 0.09600000455975533, 0.5120000243186951, 0.0, 0.0, 0.0, 0.0, 0.0, 1.6518371107082322E9, 0.0, 2022-05-06 12:38:30.708
23.0, -290.008672113996, -257.2845475017093, -231.08467836212367, -224.94376263488084, 0.09600000455975533, 0.09600000455975533, 0.5120000243186951, 0.0, 0.0, 0.0, 0.0, 0.0, 1.6518371107082322E9, 0.0, 2022-05-06 12:38:30.708
24.0, -299.65761399967596, -226.54256986593828, -238.8524505700916, -225.59450522717088, 0.09600000455975533, 0.09600000455975533, 0.5120000243186951, 0.0, 0.0, 0.0, 0.0, 0.0, 1.6518371107091758E9, 0.0, 2022-05-06 12:38:30.709
24.0, -226.00776417227462, -59.36904184659943, -135.48909559473395, -149.5548593280837, 0.09600000455975533, 0.09600000455975533, 0.5120000243186951, 0.0, 0.0, 0.0, 0.0, 0.0, 1.6518371107091758E9, 0.0, 2022-05-06 12:38:30.709
25.0, -206.9641935979016, -91.6929971636273, -129.23598286882043, -153.98290087562054, 0.09600000455975533, 0.09600000455975533, 0.5120000243186951, 0.0, 0.0, 0.0, 0.0, 0.0, 1.6518371107222352E9, 0.0, 2022-05-06 12:38:30.722
25.0, -287.8544897395186, -253.40627124765888, -233.5230931332335, -238.66171567235142, 0.09600000455975533, 0.09600000455975533, 0.5120000243186951, 0.0, 0.0, 0.0, 0.0, 0.0, 1.6518371107222352E9, 0.0, 2022-05-06 12:38:30.722
26.0, -308.5623157941736, -232.69096539309248, -244.6305960016325, -233.6315502319485, 0.09600000455975533, 0.09600000455975533, 0.5120000243186951, 0.0, 0.0, 0.0, 0.0, 0.0, 1.6518371107382405E9, 0.0, 2022-05-06 12:38:30.738
26.0, -227.55982265388593, -58.56870325608179, -139.07191975228488, -143.96744879428297, 0.09600000455975533, 0.09600000455975533, 0.5120000243186951, 0.0, 0.0, 0.0, 0.0, 0.0, 1.6518371107382405E9, 0.0, 2022-05-06 12:38:30.738
27.0, -218.87203505681828, -95.67599061643705, -141.9553826181218, -169.64934179000556, 0.09600000455975533, 0.09600000455975533, 0.5120000243186951, 0.0, 0.0, 0.0, 0.0, 0.0, 1.651837110739214E9, 0.0, 2022-05-06 12:38:30.739
27.0, -293.59149627154693, -263.79571332456544, -242.94764102157205, -228.01048059854656, 0.09600000455975533, 0.09600000455975533, 0.5120000243186951, 0.0, 0.0, 0.0, 0.0, 0.0, 1.651837110739214E9, 0.0, 2022-05-06 12:38:30.739
28.0, -301.74073827499524, -224.6090415888466, -234.77221971843392, -220.00335479341447, 0.09600000455975533, 0.09600000455975533, 0.5120000243186951, 0.0, 0.0, 0.0, 0.0, 0.0, 1.651837110752329E9, 0.0, 2022-05-06 12:38:30.752
28.0, -218.6364213596098, -51.919161134865135, -131.79033453855664, -146.8434318602085, 0.09600000455975533, 0.09600000455975533, 0.5120000243186951, 0.0, 0.0, 0.0, 0.0, 0.0, 1.651837110752329E9, 0.0, 2022-05-06 12:38:30.752
29.0, -208.40779498079792, -90.8029009741731, -127.58294708840549, -162.87264307029545, 0.09600000455975533, 0.09600000455975533, 0.5120000243186951, 0.0, 0.0, 0.0, 0.0, 0.0, 1.6518371107683134E9, 0.0, 2022-05-06 12:38:30.768
29.0, -298.6141819120385, -266.16306999651715, -237.73422048334032, -233.21268143691123, 0.09600000455975533, 0.09600000455975533, 0.5120000243186951, 0.0, 0.0, 0.0, 0.0, 0.0, 1.6518371107683134E9, 0.0, 2022-05-06 12:38:30.768
30.0, -303.6742665520869, -229.43725243164226, -241.79575183521956, -231.54468605667353, 0.09600000455975533, 0.09600000455975533, 0.7680000364780426, 0.0, 0.0, 0.0, 0.0, 0.0, 1.6518371107691715E9, 0.0, 2022-05-06 12:38:30.769
30.0, -228.26292384555563, -62.47689870977774, -139.20655615068972, -169.32771039381623, 0.09600000455975533, 0.09600000455975533, 0.7680000364780426, 0.0, 0.0, 0.0, 0.0, 0.0, 1.6518371107691715E9, 0.0, 2022-05-06 12:38:30.769
31.0, -213.80447061685845, -96.45014990726486, -140.52674083504826, -167.16978811938316, 0.09600000455975533, 0.11200000531971455, 0.7680000364780426, 0.0, 0.0, 0.0, 0.0, 0.0, 1.651837110782235E9, 0.0, 2022-05-06 12:38:30.782
31.0, -298.4496263139881, -258.6907498850487, -235.16116931382567, -225.50848752819002, 0.09600000455975533, 0.11200000531971455, 0.7680000364780426, 0.0, 0.0, 0.0, 0.0, 0.0, 1.651837110782235E9, 0.0, 2022-05-06 12:38:30.782
32.0, -298.7600380103104, -221.06735633080825, -228.668702990748, -213.18177727423608, 0.11200000531971455, 0.11200000531971455, 0.7680000364780426, 0.0, 0.0, 0.0, 0.0, 0.0, 1.6518371107982652E9, 0.0, 2022-05-06 12:38:30.798
32.0, -227.72811815189198, -58.91651395196095, -133.59296631719917, -155.59853765647858, 0.11200000531971455, 0.11200000531971455, 0.7680000364780426, 0.0, 0.0, 0.0, 0.0, 0.0, 1.6518371107982652E9, 0.0, 2022-05-06 12:38:30.798
33.0, -218.63268145965412, -100.19378976291046, -142.53506711125374, -173.85298934020102, 0.11200000531971455, 0.11200000531971455, 0.7680000364780426, 0.0, 0.0, 0.0, 0.0, 0.0, 1.6518371107992084E9, 0.0, 2022-05-06 12:38:30.799
33.0, -277.2144743655808, -263.38058442948386, -237.7790992828086, -227.7711270013824, 0.11200000531971455, 0.11200000531971455, 0.7680000364780426, 0.0, 0.0, 0.0, 0.0, 0.0, 1.6518371107992084E9, 0.0, 2022-05-06 12:38:30.799
34.0, -315.48487061215565, -232.78820279194042, -243.7068407125771, -233.67268913146108, 0.11200000531971455, 0.11200000531971455, 0.7680000364780426, 0.0, 0.0, 0.0, 0.0, 0.0, 1.6518371108122792E9, 0.0, 2022-05-06 12:38:30.812
34.0, -239.5798611114733, -75.00930346129462, -151.12561730947345, -180.24447836447507, 0.11200000531971455, 0.11200000531971455, 0.7680000364780426, 0.0, 0.0, 0.0, 0.0, 0.0, 1.6518371108122792E9, 0.0, 2022-05-06 12:38:30.812
35.0, -220.54003043705598, -99.4383299718611, -134.57282010558993, -154.8879566648975, 0.11200000531971455, 0.11200000531971455, 0.7680000364780426, 0.0, 0.0, 0.0, 0.0, 0.0, 1.6518371108282504E9, 0.0, 2022-05-06 12:38:30.828
35.0, -296.8339895331301, -264.34921851800755, -237.7417002832517, -221.16646367963403, 0.11200000531971455, 0.11200000531971455, 0.7680000364780426, 0.0, 0.0, 0.0, 0.0, 0.0, 1.6518371108282504E9, 0.0, 2022-05-06 12:38:30.828
36.0, -303.2778371567838, -222.48103851405904, -237.82397808227688, -225.01108083408326, 0.11200000531971455, 0.11200000531971455, 0.7680000364780426, 0.0, 0.0, 0.0, 0.0, 0.0, 1.6518371108292685E9, 0.0, 2022-05-06 12:38:30.829
36.0, -221.50492462562397, -55.80117728887126, -134.61395900510252, -160.63992279674858, 0.11200000531971455, 0.11200000531971455, 0.7680000364780426, 0.0, 0.0, 0.0, 0.0, 0.0, 1.6518371108292685E9, 0.0, 2022-05-06 12:38:30.829
37.0, -213.411781121511, -100.7323353565298, -132.79262772668153, -162.45751417521387, 0.11200000531971455, 0.11200000531971455, 0.7680000364780426, 0.0, 0.0, 0.0, 0.0, 0.0, 1.651837110842229E9, 0.0, 2022-05-06 12:38:30.842
37.0, -283.7106805886142, -264.37913771765307, -231.35395115893334, -217.05631362833083, 0.11200000531971455, 0.11200000531971455, 0.7680000364780426, 0.0, 0.0, 0.0, 0.0, 0.0, 1.651837110842229E9, 0.0, 2022-05-06 12:38:30.842
38.0, -291.50837199622765, -218.94683305593207, -237.65568258427083, -220.2576679904014, 0.11200000531971455, 0.11200000531971455, 0.7680000364780426, 0.0, 0.0, 0.0, 0.0, 0.0, 1.6518371108582819E9, 0.0, 2022-05-06 12:38:30.858
38.0, -216.1194686894305, -46.00637930491939, -127.27253539208323, -156.83644454181194, 0.11200000531971455, 0.11200000531971455, 0.7680000364780426, 0.0, 0.0, 0.0, 0.0, 0.0, 1.6518371108582819E9, 0.0, 2022-05-06 12:38:30.858
39.0, -210.65173495421186, -92.86358584975824, -127.82978048548102, -155.86781045328826, 0.11200000531971455, 0.11200000531971455, 0.7680000364780426, 0.0, 0.0, 0.0, 0.0, 0.0, 1.6518371108592105E9, 0.0, 2022-05-06 12:38:30.859
39.0, -286.4445474562235, -253.20057675009593, -226.847371712327, -215.4032778479159, 0.11200000531971455, 0.11200000531971455, 0.7680000364780426, 0.0, 0.0, 0.0, 0.0, 0.0, 1.6518371108592105E9, 0.0, 2022-05-06 12:38:30.859
40.0, -302.14838737016544, -222.35388191556558, -237.80527858249843, -227.7748669013381, 0.11200000531971455, 0.11200000531971455, 0.9600000455975533, 0.0, 0.0, 0.0, 0.0, 0.0, 1.6518371108722382E9, 0.0, 2022-05-06 12:38:30.872
40.0, -222.36136171547696, -53.089749820996076, -126.10942650586367, -143.59345879871398, 0.11200000531971455, 0.11200000531971455, 0.9600000455975533, 0.0, 0.0, 0.0, 0.0, 0.0, 1.6518371108722382E9, 0.0, 2022-05-06 12:38:30.872
41.0, -208.96130017424002, -91.49852236593142, -127.85221988521516, -154.57380506861955, 0.11200000531971455, 0.12800000607967377, 0.9600000455975533, 0.0, 0.0, 0.0, 0.0, 0.0, 1.6518371108882344E9, 0.0, 2022-05-06 12:38:30.888
41.0, -293.81215036893263, -267.0344666861929, -243.2991916174069, -237.39014968741685, 0.11200000531971455, 0.12800000607967377, 0.9600000455975533, 0.0, 0.0, 0.0, 0.0, 0.0, 1.6518371108882344E9, 0.0, 2022-05-06 12:38:30.888
42.0, -311.37472056085244, -227.462585255038, -250.87622892763466, -238.32886457629502, 0.12800000607967377, 0.12800000607967377, 0.9600000455975533, 0.0, 0.0, 0.0, 0.0, 0.0, 1.6518371108891747E9, 0.0, 2022-05-06 12:38:30.889
42.0, -216.65801428304985, -50.51295875152573, -130.82544034998864, -162.72304707206786, 0.12800000607967377, 0.12800000607967377, 0.9600000455975533, 0.0, 0.0, 0.0, 0.0, 0.0, 1.6518371108891747E9, 0.0, 2022-05-06 12:38:30.889
43.0, -211.68768724193797, -96.78300100332126, -131.30414754431695, -154.22973427269608, 0.12800000607967377, 0.12800000607967377, 0.9600000455975533, 0.0, 0.0, 0.0, 0.0, 0.0, 1.6518371109022913E9, 0.0, 2022-05-06 12:38:30.902
43.0, -290.6818541060202, -257.1012924038805, -230.49751406908035, -216.00166184082627, 0.12800000607967377, 0.12800000607967377, 0.9600000455975533, 0.0, 0.0, 0.0, 0.0, 0.0, 1.6518371109022913E9, 0.0, 2022-05-06 12:38:30.902
44.0, -290.62201570672914, -213.12754872487858, -230.83784496504813, -227.04932630993426, 0.12800000607967377, 0.12800000607967377, 0.9600000455975533, 0.0, 0.0, 0.0, 0.0, 0.0, 1.651837110918306E9, 0.0, 2022-05-06 12:38:30.918
44.0, -213.31828362261876, -46.301831401418895, -123.28954193927348, -145.7738204728812, 0.12800000607967377, 0.12800000607967377, 0.9600000455975533, 0.0, 0.0, 0.0, 0.0, 0.0, 1.651837110918306E9, 0.0, 2022-05-06 12:38:30.918
45.0, -213.65861451858655, -96.5436474061571, -129.97648306004703, -152.52807979285717, 0.12800000607967377, 0.12800000607967377, 0.9600000455975533, 0.0, 0.0, 0.0, 0.0, 0.0, 1.651837110919212E9, 0.0, 2022-05-06 12:38:30.919
45.0, -286.06681756069884, -259.2891338779591, -233.661469431594, -215.5453940462321, 0.12800000607967377, 0.12800000607967377, 0.9600000455975533, 0.0, 0.0, 0.0, 0.0, 0.0, 1.651837110919212E9, 0.0, 2022-05-06 12:38:30.919
46.0, -300.1662403936498, -215.0124583025463, -238.99456676840782, -223.41414355300367, 0.12800000607967377, 0.12800000607967377, 0.9600000455975533, 0.0, 0.0, 0.0, 0.0, 0.0, 1.6518371109322257E9, 0.0, 2022-05-06 12:38:30.932
46.0, -216.3476025867276, -55.28507109498605, -132.40741803124547, -158.69143491983414, 0.12800000607967377, 0.12800000607967377, 0.9600000455975533, 0.0, 0.0, 0.0, 0.0, 0.0, 1.6518371109322257E9, 0.0, 2022-05-06 12:38:30.932
47.0, -225.57767567737028, -112.3297651191242, -143.9898881940171, -168.65452840179205, 0.12800000607967377, 0.12800000607967377, 0.9600000455975533, 0.0, 0.0, 0.0, 0.0, 0.0, 1.6518371109482236E9, 0.0, 2022-05-06 12:38:30.948
47.0, -296.1196686415933, -275.1089106905274, -245.03076529689133, -235.76329320669174, 0.12800000607967377, 0.12800000607967377, 0.9600000455975533, 0.0, 0.0, 0.0, 0.0, 0.0, 1.6518371109482236E9, 0.0, 2022-05-06 12:38:30.948
48.0, -300.13632119400427, -235.1667791637592, -252.0094186142087, -233.19772183708847, 0.12800000607967377, 0.12800000607967377, 0.9600000455975533, 0.0, 0.0, 0.0, 0.0, 0.0, 1.6518371109491875E9, 0.0, 2022-05-06 12:38:30.949
48.0, -214.57862990768626, -54.372535505797714, -131.19569044560194, -150.0672256220132, 0.12800000607967377, 0.12800000607967377, 0.9600000455975533, 0.0, 0.0, 0.0, 0.0, 0.0, 1.6518371109491875E9, 0.0, 2022-05-06 12:38:30.949
49.0, -207.90290848677978, -94.14637153455988, -127.36603289097548, -153.82208517752588, 0.12800000607967377, 0.12800000607967377, 0.9600000455975533, 0.0, 0.0, 0.0, 0.0, 0.0, 1.6518371109782224E9, 0.0, 2022-05-06 12:38:30.978
49.0, -274.64516309602186, -243.5778141641058, -220.01083459332585, -200.28660222701728, 0.12800000607967377, 0.12800000607967377, 0.9600000455975533, 0.0, 0.0, 0.0, 0.0, 0.0, 1.6518371109782224E9, 0.0, 2022-05-06 12:38:30.978
50.0, -288.51271213172004, -200.01171958027408, -222.74470146093518, -203.81332788523287, 0.12800000607967377, 0.12800000607967377, 0.9920000471174717, 0.0, 0.0, 0.0, 0.0, 0.0, 1.6518371109791903E9, 0.0, 2022-05-06 12:38:30.979
50.0, -218.11283536581323, -43.53804533416405, -128.27482858020812, -155.1160905621946, 0.12800000607967377, 0.12800000607967377, 0.9920000471174717, 0.0, 0.0, 0.0, 0.0, 0.0, 1.6518371109791903E9, 0.0, 2022-05-06 12:38:30.979
51.0, -219.9715656437911, -103.95986901829019, -136.15105788689107, -174.4214541334659, 0.12800000607967377, 0.12800000607967377, 0.9920000471174717, 0.0, 0.0, 0.0, 0.0, 0.0, 1.6518371109801848E9, 0.0, 2022-05-06 12:38:30.980
51.0, -290.06477061333135, -261.7724274485372, -232.32258524745703, -225.00734093412757, 0.12800000607967377, 0.12800000607967377, 0.9920000471174717, 0.0, 0.0, 0.0, 0.0, 0.0, 1.6518371109801848E9, 0.0, 2022-05-06 12:38:30.980
52.0, -297.32765632728115, -214.73570570582524, -228.34707159455866, -216.11011893954128, 0.12800000607967377, 0.12800000607967377, 0.9920000471174717, 0.0, 0.0, 0.0, 0.0, 0.0, 1.6518371109922848E9, 0.0, 2022-05-06 12:38:30.992
52.0, -221.96119242021814, -55.60670249117538, -131.21812984533608, -159.27111941296607, 0.12800000607967377, 0.12800000607967377, 0.9920000471174717, 0.0, 0.0, 0.0, 0.0, 0.0, 1.6518371109922848E9, 0.0, 2022-05-06 12:38:30.992
53.0, -208.57983037875965, -101.34193904930726, -134.65135800465941, -154.50648686941713, 0.12800000607967377, 0.12800000607967377, 0.9920000471174717, 0.0, 0.0, 0.0, 0.0, 0.0, 1.651837111008243E9, 0.0, 2022-05-06 12:38:31.008
53.0, -282.57375100208446, -255.9942820169963, -226.86607121210545, -207.22037674486637, 0.12800000607967377, 0.12800000607967377, 0.9920000471174717, 0.0, 0.0, 0.0, 0.0, 0.0, 1.651837111008243E9, 0.0, 2022-05-06 12:38:31.008
54.0, -291.99829889042303, -205.51311241509393, -224.63335093855858, -197.85940715577453, 0.12800000607967377, 0.12800000607967377, 0.9920000471174717, 0.0, 0.0, 0.0, 0.0, 0.0, 1.6518371110091891E9, 0.0, 2022-05-06 12:38:31.009
54.0, -214.0849631135352, -41.64565595658496, -123.11376664135605, -145.09689858090132, 0.12800000607967377, 0.12800000607967377, 0.9920000471174717, 0.0, 0.0, 0.0, 0.0, 0.0, 1.6518371110091891E9, 0.0, 2022-05-06 12:38:31.009
55.0, -214.8666022042744, -96.955036401283, -134.958029801026, -163.96095395740122, 0.12800000607967377, 0.12800000607967377, 0.9920000471174717, 0.0, 0.0, 0.0, 0.0, 0.0, 1.6518371110222187E9, 0.0, 2022-05-06 12:38:31.022
55.0, -292.1291953888722, -264.35295841796324, -240.8944359458983, -232.41234284639359, 0.12800000607967377, 0.12800000607967377, 0.9920000471174717, 0.0, 0.0, 0.0, 0.0, 0.0, 1.6518371110222187E9, 0.0, 2022-05-06 12:38:31.022
56.0, -287.72359324106947, -207.671034689527, -222.07899926882237, -204.71464377455413, 0.12800000607967377, 0.12800000607967377, 0.9920000471174717, 0.0, 0.0, 0.0, 0.0, 0.0, 1.651837111038278E9, 0.0, 2022-05-06 12:38:31.038
56.0, -214.6048092073761, -46.5972834979184, -127.62034608796239, -144.09086549282074, 0.12800000607967377, 0.12800000607967377, 0.9920000471174717, 0.0, 0.0, 0.0, 0.0, 0.0, 1.651837111038278E9, 0.0, 2022-05-06 12:38:31.038
57.0, -218.11657526576892, -105.9569755946286, -131.6220390405506, -158.65403592027724, 0.12800000607967377, 0.12800000607967377, 0.9920000471174717, 0.0, 0.0, 0.0, 0.0, 0.0, 1.6518371110392146E9, 0.0, 2022-05-06 12:38:31.039
57.0, -286.79609805205837, -261.38347785314545, -237.61080378480256, -231.24175416026264, 0.12800000607967377, 0.12800000607967377, 0.9920000471174717, 0.0, 0.0, 0.0, 0.0, 0.0, 1.6518371110392146E9, 0.0, 2022-05-06 12:38:31.039
58.0, -286.9232546505518, -213.59129631938413, -236.5224928976968, -226.09191192127764, 0.12800000607967377, 0.12800000607967377, 0.9920000471174717, 0.0, 0.0, 0.0, 0.0, 0.0, 1.6518371110522692E9, 0.0, 2022-05-06 12:38:31.052
58.0, -217.2376987761818, -54.694166901987046, -129.31452076788992, -163.22045376617461, 0.12800000607967377, 0.12800000607967377, 0.9920000471174717, 0.0, 0.0, 0.0, 0.0, 0.0, 1.6518371110522692E9, 0.0, 2022-05-06 12:38:31.052
59.0, -212.94803352700546, -103.08099252870306, -130.18217755760998, -160.95781429298222, 0.12800000607967377, 0.12800000607967377, 0.9920000471174717, 0.0, 0.0, 0.0, 0.0, 0.0, 1.6518371110682473E9, 0.0, 2022-05-06 12:38:31.068
59.0, -282.71960710035637, -258.8179064835422, -230.42645596992224, -207.06704084668308, 0.12800000607967377, 0.12800000607967377, 0.9920000471174717, 0.0, 0.0, 0.0, 0.0, 0.0, 1.6518371110682473E9, 0.0, 2022-05-06 12:38:31.068
60.0, -286.9232546505518, -204.9296880220063, -229.95522857550532, -207.53452834114432, 0.12800000607967377, 0.12800000607967377, 1.008000047877431, 0.0, 0.0, 0.0, 0.0, 0.0, 1.6518371110692177E9, 0.0, 2022-05-06 12:38:31.069
60.0, -224.85961488587782, -63.27723730029538, -136.33805288467556, -166.23855303041637, 0.12800000607967377, 0.12800000607967377, 1.008000047877431, 0.0, 0.0, 0.0, 0.0, 0.0, 1.6518371110692177E9, 0.0, 2022-05-06 12:38:31.069
61.0, -214.14480151282623, -102.2170756389387, -128.5441013770178, -159.9256019052118, 0.12800000607967377, 0.12800000607967377, 1.008000047877431, 0.0, 0.0, 0.0, 0.0, 0.0, 1.6518371110822344E9, 0.0, 2022-05-06 12:38:31.082
61.0, -291.62804879480973, -262.9617156344466, -240.72614044789225, -231.780299753882, 0.12800000607967377, 0.12800000607967377, 1.008000047877431, 0.0, 0.0, 0.0, 0.0, 0.0, 1.6518371110822344E9, 0.0, 2022-05-06 12:38:31.082
62.0, -296.92374713206664, -209.81025746418163, -231.45866835769266, -216.065240140073, 0.12800000607967377, 0.12800000607967377, 1.008000047877431, 0.0, 0.0, 0.0, 0.0, 0.0, 1.65183711109823E9, 0.0, 2022-05-06 12:38:31.098
62.0, -210.7863713526167, -46.86281639477238, -131.2517889449373, -147.87564424797893, 0.12800000607967377, 0.12800000607967377, 1.008000047877431, 0.0, 0.0, 0.0, 0.0, 0.0, 1.65183711109823E9, 0.0, 2022-05-06 12:38:31.098
63.0, -217.57428977219388, -109.59215835155919, -145.69154267385602, -170.7488723769784, 0.12800000607967377, 0.12800000607967377, 1.008000047877431, 0.0, 0.0, 0.0, 0.0, 0.0, 1.6518371110991871E9, 0.0, 2022-05-06 12:38:31.099
63.0, -288.55011113127694, -260.8449322595261, -236.53745249751955, -218.04364721663296, 0.12800000607967377, 0.12800000607967377, 1.008000047877431, 0.0, 0.0, 0.0, 0.0, 0.0, 1.6518371110991871E9, 0.0, 2022-05-06 12:38:31.099
64.0, -305.28990333294496, -217.87722166860476, -239.3685567639768, -223.72081534937024, 0.12800000607967377, 0.12800000607967377, 1.008000047877431, 0.0, 0.0, 0.0, 0.0, 0.0, 1.6518371111122248E9, 0.0, 2022-05-06 12:38:31.112
64.0, -214.80676380498335, -49.944493958260864, -126.30764120351523, -151.0358597105369, 0.12800000607967377, 0.12800000607967377, 1.008000047877431, 0.0, 0.0, 0.0, 0.0, 0.0, 1.6518371111122248E9, 0.0, 2022-05-06 12:38:31.112
65.0, -204.49585962714627, -96.77926110336557, -127.9120582845062, -143.9225699948147, 0.12800000607967377, 0.12800000607967377, 1.008000047877431, 0.0, 0.0, 0.0, 0.0, 0.0, 1.6518371111282742E9, 0.0, 2022-05-06 12:38:31.128
65.0, -283.92011498613283, -253.55960714584216, -224.26310084294528, -213.03966107591987, 0.12800000607967377, 0.12800000607967377, 1.008000047877431, 0.0, 0.0, 0.0, 0.0, 0.0, 1.6518371111282742E9, 0.0, 2022-05-06 12:38:31.128
66.0, -279.05450514378026, -195.17976883752272, -219.16561720333993, -204.37057297863066, 0.12800000607967377, 0.12800000607967377, 1.008000047877431, 0.0, 0.0, 0.0, 0.0, 0.0, 1.6518371111291568E9, 0.0, 2022-05-06 12:38:31.129
66.0, -218.0903959660791, -51.163701343815774, -125.16323181707412, -142.5163676114753, 0.12800000607967377, 0.12800000607967377, 1.008000047877431, 0.0, 0.0, 0.0, 0.0, 0.0, 1.6518371111291568E9, 0.0, 2022-05-06 12:38:31.129
67.0, -205.14660221943632, -99.34109257301316, -130.8403999498114, -148.5937050394714, 0.12800000607967377, 0.12800000607967377, 1.008000047877431, 0.0, 0.0, 0.0, 0.0, 0.0, 1.6518371111422577E9, 0.0, 2022-05-06 12:38:31.142
67.0, -298.2663712161593, -266.5894185914658, -242.06502463202924, -241.4853401388973, 0.12800000607967377, 0.12800000607967377, 1.008000047877431, 0.0, 0.0, 0.0, 0.0, 0.0, 1.6518371111422577E9, 0.0, 2022-05-06 12:38:31.142
68.0, -309.15321998717263, -216.33638288686052, -246.13777568377554, -235.35938401147723, 0.12800000607967377, 0.12800000607967377, 1.008000047877431, 0.0, 0.0, 0.0, 0.0, 0.0, 1.6518371111742485E9, 0.0, 2022-05-06 12:38:31.174
68.0, -224.32480919221416, -64.29822998819873, -139.7002229448408, -167.06507092062384, 0.12800000607967377, 0.12800000607967377, 1.008000047877431, 0.0, 0.0, 0.0, 0.0, 0.0, 1.6518371111742485E9, 0.0, 2022-05-06 12:38:31.174
69.0, -222.66429361188784, -116.33893787162378, -147.6624699505046, -180.9737588558346, 0.12800000607967377, 0.12800000607967377, 1.008000047877431, 0.0, 0.0, 0.0, 0.0, 0.0, 1.651837111175181E9, 0.0, 2022-05-06 12:38:31.175
69.0, -301.4116270788945, -271.881377028767, -245.7114270888269, -233.1528430376202, 0.12800000607967377, 0.12800000607967377, 1.008000047877431, 0.0, 0.0, 0.0, 0.0, 0.0, 1.651837111175181E9, 0.0, 2022-05-06 12:38:31.175
70.0, -304.36240814393386, -218.03803736669943, -240.10531705524772, -226.4359827172011, 0.12800000607967377, 0.12800000607967377, 1.008000047877431, 0.0, 0.0, 0.0, 0.0, 0.0, 1.6518371111761956E9, 0.0, 2022-05-06 12:38:31.176
70.0, -224.96807198459283, -59.582216144073755, -137.5834395699203, -166.9266946222633, 0.12800000607967377, 0.12800000607967377, 1.008000047877431, 0.0, 0.0, 0.0, 0.0, 0.0, 1.6518371111761956E9, 0.0, 2022-05-06 12:38:31.176
71.0, -236.81981494417414, -121.78797210706398, -150.94236221164465, -177.8621620927006, 0.12800000607967377, 0.12800000607967377, 1.008000047877431, 0.0, 0.0, 0.0, 0.0, 0.0, 1.6518371111771712E9, 0.0, 2022-05-06 12:38:31.177
71.0, -304.1716732461937, -268.0292800744064, -240.4493878511712, -232.7414540424943, 0.12800000607967377, 0.12800000607967377, 1.008000047877431, 0.0, 0.0, 0.0, 0.0, 0.0, 1.6518371111771712E9, 0.0, 2022-05-06 12:38:31.177
72.0, -299.18264670530334, -211.21271994756535, -230.68450906686485, -211.37914549559355, 0.12800000607967377, 0.12800000607967377, 1.008000047877431, 0.0, 0.0, 0.0, 0.0, 0.0, 1.6518371111872208E9, 0.0, 2022-05-06 12:38:31.187
72.0, -220.4988915375434, -47.99600608134642, -133.52938801795244, -154.1848554732278, 0.12800000607967377, 0.12800000607967377, 1.008000047877431, 0.0, 0.0, 0.0, 0.0, 0.0, 1.6518371111872208E9, 0.0, 2022-05-06 12:38:31.187
73.0, -211.24263914721087, -111.57430532807484, -141.89554421883076, -168.72184660099447, 0.12800000607967377, 0.12800000607967377, 1.008000047877431, 0.0, 0.0, 0.0, 0.0, 0.0, 1.6518371112023363E9, 0.0, 2022-05-06 12:38:31.202
73.0, -287.3009845460765, -263.75831432500854, -239.5966906612739, -224.75302773714066, 0.12800000607967377, 0.12800000607967377, 1.008000047877431, 0.0, 0.0, 0.0, 0.0, 0.0, 1.6518371112023363E9, 0.0, 2022-05-06 12:38:31.202
74.0, -307.76945700356737, -206.46678690379485, -229.93278917577118, -209.48301621805876, 0.12800000607967377, 0.12800000607967377, 1.008000047877431, 0.0, 0.0, 0.0, 0.0, 0.0, 1.6518371112182655E9, 0.0, 2022-05-06 12:38:31.218
74.0, -223.92089999699965, -49.65278176171705, -128.9891494717449, -150.56837221607566, 0.12800000607967377, 0.12800000607967377, 1.008000047877431, 0.0, 0.0, 0.0, 0.0, 0.0, 1.6518371112182655E9, 0.0, 2022-05-06 12:38:31.218
75.0, -214.1971601122059, -101.81316644372419, -126.78634839784354, -156.9673410402611, 0.12800000607967377, 0.12800000607967377, 1.008000047877431, 0.0, 0.0, 0.0, 0.0, 0.0, 1.6518371112192035E9, 0.0, 2022-05-06 12:38:31.219
75.0, -294.3768752622418, -261.23762175487354, -238.72903387155384, -228.45926859322935, 0.12800000607967377, 0.12800000607967377, 1.008000047877431, 0.0, 0.0, 0.0, 0.0, 0.0, 1.6518371112192035E9, 0.0, 2022-05-06 12:38:31.219
76.0, -298.9844320076518, -201.36182346427813, -225.68052292615175, -207.72152333892882, 0.12800000607967377, 0.12800000607967377, 1.008000047877431, 0.0, 0.0, 0.0, 0.0, 0.0, 1.651837111232277E9, 0.0, 2022-05-06 12:38:31.232
76.0, -219.79953024582937, -46.313051101285964, -126.72277009859681, -142.53506711125374, 0.12800000607967377, 0.12800000607967377, 1.008000047877431, 0.0, 0.0, 0.0, 0.0, 0.0, 1.651837111232277E9, 0.0, 2022-05-06 12:38:31.232
77.0, -228.84634823864326, -117.9246554528363, -144.8874641833827, -168.43387430440634, 0.12800000607967377, 0.12800000607967377, 1.008000047877431, 0.0, 0.0, 0.0, 0.0, 0.0, 1.6518371112642817E9, 0.0, 2022-05-06 12:38:31.264
77.0, -290.5733970073052, -259.434989976231, -238.28772567678243, -219.37131170090288, 0.12800000607967377, 0.12800000607967377, 1.008000047877431, 0.0, 0.0, 0.0, 0.0, 0.0, 1.6518371112642817E9, 0.0, 2022-05-06 12:38:31.264
78.0, -297.8699418208562, -210.24782575899735, -235.7071947073564, -223.85919164773077, 0.12800000607967377, 0.12800000607967377, 1.008000047877431, 0.0, 0.0, 0.0, 0.0, 0.0, 1.6518371112651973E9, 0.0, 2022-05-06 12:38:31.265
78.0, -214.91522090369835, -46.36914960062131, -119.14573278836906, -130.9114580489695, 0.12800000607967377, 0.12800000607967377, 1.008000047877431, 0.0, 0.0, 0.0, 0.0, 0.0, 1.6518371112651973E9, 0.0, 2022-05-06 12:38:31.265
79.0, -209.11089617246762, -100.63883785763755, -130.52998825348914, -151.09195820987225, 0.12800000607967377, 0.12800000607967377, 1.008000047877431, 0.0, 0.0, 0.0, 0.0, 0.0, 1.6518371112661877E9, 0.0, 2022-05-06 12:38:31.266
79.0, -290.53973790770397, -266.20046899607405, -245.03450519684702, -237.43128858692944, 0.12800000607967377, 0.12800000607967377, 1.008000047877431, 0.0, 0.0, 0.0, 0.0, 0.0, 1.6518371112661877E9, 0.0, 2022-05-06 12:38:31.266
80.0, -304.5755824414082, -207.65981498965994, -237.4425082867965, -221.34597887750715, 0.12800000607967377, 0.12800000607967377, 1.008000047877431, 0.0, 0.0, 0.0, 0.0, 0.0, 1.6518371112672017E9, 0.0, 2022-05-06 12:38:31.267
80.0, -225.4168599792756, -49.929534358438104, -127.26879549212754, -157.64426293224096, 0.12800000607967377, 0.12800000607967377, 1.008000047877431, 0.0, 0.0, 0.0, 0.0, 0.0, 1.6518371112672017E9, 0.0, 2022-05-06 12:38:31.267
81.0, -226.44159256713465, -116.90740266488865, -145.47088857647032, -177.69012669473886, 0.12800000607967377, 0.12800000607967377, 1.008000047877431, 0.0, 0.0, 0.0, 0.0, 0.0, 1.6518371112772217E9, 0.0, 2022-05-06 12:38:31.277
81.0, -294.7433854578994, -263.38432432943955, -240.1539357546717, -228.5901650916785, 0.12800000607967377, 0.12800000607967377, 1.008000047877431, 0.0, 0.0, 0.0, 0.0, 0.0, 1.6518371112772217E9, 0.0, 2022-05-06 12:38:31.277
82.0, -301.80805647419766, -212.83209662837908, -235.39304311107844, -228.01048059854656, 0.12800000607967377, 0.12800000607967377, 1.008000047877431, 0.0, 0.0, 0.0, 0.0, 0.0, 1.6518371112922235E9, 0.0, 2022-05-06 12:38:31.292
82.0, -230.7162982164882, -55.70393989002332, -133.27881472092122, -162.32661767676473, 0.12800000607967377, 0.12800000607967377, 1.008000047877431, 0.0, 0.0, 0.0, 0.0, 0.0, 1.6518371112922235E9, 0.0, 2022-05-06 12:38:31.292
83.0, -228.83886843873188, -119.80956503050402, -149.8465715246275, -170.4496803805232, 0.12800000607967377, 0.12800000607967377, 1.008000047877431, 0.0, 0.0, 0.0, 0.0, 0.0, 1.6518371113083131E9, 0.0, 2022-05-06 12:38:31.308
83.0, -295.06875675404444, -266.60437819128856, -246.24623278249055, -226.50704081635922, 0.12800000607967377, 0.12800000607967377, 1.008000047877431, 0.0, 0.0, 0.0, 0.0, 0.0, 1.6518371113083131E9, 0.0, 2022-05-06 12:38:31.308
84.0, -297.80636352160946, -201.9639473571442, -229.71213507838547, -216.3270331369713, 0.12800000607967377, 0.12800000607967377, 1.008000047877431, 0.0, 0.0, 0.0, 0.0, 0.0, 1.6518371113092084E9, 0.0, 2022-05-06 12:38:31.309
84.0, -220.11742174206302, -49.951973758172244, -127.91953808441758, -142.12741801608354, 0.12800000607967377, 0.12800000607967377, 1.008000047877431, 0.0, 0.0, 0.0, 0.0, 0.0, 1.6518371113092084E9, 0.0, 2022-05-06 12:38:31.309
85.0, -216.0147514906712, -108.35425146622583, -131.92871083691716, -151.55944570433348, 0.12800000607967377, 0.12800000607967377, 1.008000047877431, 0.0, 0.0, 0.0, 0.0, 0.0, 1.651837111322225E9, 0.0, 2022-05-06 12:38:31.322
85.0, -289.73565941723064, -260.82249285979196, -236.01012660376728, -219.93229669425637, 0.12800000607967377, 0.12800000607967377, 1.008000047877431, 0.0, 0.0, 0.0, 0.0, 0.0, 1.651837111322225E9, 0.0, 2022-05-06 12:38:31.322
86.0, -299.29484370397404, -198.65413589635864, -223.0700727570802, -213.70536326803267, 0.12800000607967377, 0.12800000607967377, 1.008000047877431, 0.0, 0.0, 0.0, 0.0, 0.0, 1.651837111338242E9, 0.0, 2022-05-06 12:38:31.338
86.0, -213.39308162173256, -41.24174676137045, -111.99878397304565, -133.00580202415586, 0.12800000607967377, 0.12800000607967377, 1.008000047877431, 0.0, 0.0, 0.0, 0.0, 0.0, 1.651837111338242E9, 0.0, 2022-05-06 12:38:31.338
87.0, -210.19920705957338, -97.14951119897887, -121.94317795522511, -147.83824524842203, 0.12800000607967377, 0.12800000607967377, 1.008000047877431, 0.0, 0.0, 0.0, 0.0, 0.0, 1.651837111339186E9, 0.0, 2022-05-06 12:38:31.339
87.0, -295.3529891506769, -261.0730661568232, -241.6311962371692, -224.74928783718497, 0.12800000607967377, 0.12800000607967377, 1.008000047877431, 0.0, 0.0, 0.0, 0.0, 0.0, 1.651837111339186E9, 0.0, 2022-05-06 12:38:31.339
88.0, -291.06332390150055, -199.52927248599008, -234.2224544249475, -218.37649831268936, 0.12800000607967377, 0.12800000607967377, 1.008000047877431, 0.0, 0.0, 0.0, 0.0, 0.0, 1.6518371113522418E9, 0.0, 2022-05-06 12:38:31.352
88.0, -226.65850676456466, -61.74013841850683, -133.7687416151166, -145.35869157779962, 0.12800000607967377, 0.12800000607967377, 1.008000047877431, 0.0, 0.0, 0.0, 0.0, 0.0, 1.6518371113522418E9, 0.0, 2022-05-06 12:38:31.352
89.0, -226.55004966584966, -120.35185052407905, -146.01317407004535, -165.69252763688564, 0.12800000607967377, 0.12800000607967377, 1.008000047877431, 0.0, 0.0, 0.0, 0.0, 0.0, 1.6518371113682587E9, 0.0, 2022-05-06 12:38:31.368
89.0, -299.50801800144836, -265.4786683046259, -247.61129626631737, -232.74893384240568, 0.12800000607967377, 0.12800000607967377, 1.008000047877431, 0.0, 0.0, 0.0, 0.0, 0.0, 1.6518371113682587E9, 0.0, 2022-05-06 12:38:31.368
90.0, -297.4959518252872, -206.84825669927523, -233.7362674307078, -232.35250444710255, 0.12800000607967377, 0.12800000607967377, 1.008000047877431, 0.0, 0.0, 0.0, 0.0, 0.0, 1.6518371113692117E9, 0.0, 2022-05-06 12:38:31.369
90.0, -225.14758718246594, -57.71600606618449, -140.59405903425068, -164.3723429525271, 0.12800000607967377, 0.12800000607967377, 1.008000047877431, 0.0, 0.0, 0.0, 0.0, 0.0, 1.6518371113692117E9, 0.0, 2022-05-06 12:38:31.369
91.0, -229.58310852991417, -127.81669083563611, -155.448941658251, -169.83259688783437, 0.12800000607967377, 0.12800000607967377, 1.008000047877431, 0.0, 0.0, 0.0, 0.0, 0.0, 1.6518371113822608E9, 0.0, 2022-05-06 12:38:31.382
91.0, -291.1231623007916, -265.89753709966317, -228.0665790978819, -220.34368568938226, 0.12800000607967377, 0.12800000607967377, 1.008000047877431, 0.0, 0.0, 0.0, 0.0, 0.0, 1.6518371113822608E9, 0.0, 2022-05-06 12:38:31.382
92.0, -287.0840703486465, -196.888903117273, -229.64107697922736, -217.138591427356, 0.12800000607967377, 0.12800000607967377, 1.008000047877431, 0.0, 0.0, 0.0, 0.0, 0.0, 1.6518371113983161E9, 0.0, 2022-05-06 12:38:31.398
92.0, -228.5733355418779, -51.28711804235354, -133.2114965217188, -161.9301882814616, 0.12800000607967377, 0.12800000607967377, 1.008000047877431, 0.0, 0.0, 0.0, 0.0, 0.0, 1.6518371113983161E9, 0.0, 2022-05-06 12:38:31.398
93.0, -236.30744865024462, -123.86735648242757, -149.0724122337997, -172.55150415562093, 0.12800000607967377, 0.12800000607967377, 1.008000047877431, 0.0, 0.0, 0.0, 0.0, 0.0, 1.6518371114132364E9, 0.0, 2022-05-06 12:38:31.413
93.0, -291.239099199418, -260.1006921683438, -233.86716392915696, -220.998168181628, 0.12800000607967377, 0.12800000607967377, 1.008000047877431, 0.0, 0.0, 0.0, 0.0, 0.0, 1.6518371114132364E9, 0.0, 2022-05-06 12:38:31.413
94.0, -302.4214000669308, -206.380769204814, -238.80383187066764, -222.4342897646129, 0.12800000607967377, 0.12800000607967377, 1.008000047877431, 0.0, 0.0, 0.0, 0.0, 0.0, 1.651837111414202E9, 0.0, 2022-05-06 12:38:31.414
94.0, -222.28656371636316, -53.24682561913505, -133.03572122380137, -158.3024853244424, 0.12800000607967377, 0.12800000607967377, 1.008000047877431, 0.0, 0.0, 0.0, 0.0, 0.0, 1.651837111414202E9, 0.0, 2022-05-06 12:38:31.414
95.0, -222.61941481241956, -119.68988823192194, -144.56209288723767, -158.17532872594893, 0.12800000607967377, 0.12800000607967377, 1.008000047877431, 0.0, 0.0, 0.0, 0.0, 0.0, 1.6518371114282272E9, 0.0, 2022-05-06 12:38:31.428
95.0, -299.70249279914424, -265.42630970524624, -246.36964948102832, -232.67787574324757, 0.12800000607967377, 0.12800000607967377, 1.008000047877431, 0.0, 0.0, 0.0, 0.0, 0.0, 1.6518371114282272E9, 0.0, 2022-05-06 12:38:31.428
96.0, -303.69670595182106, -205.14286231948063, -231.98599425144494, -220.11929169204086, 0.12800000607967377, 0.12800000607967377, 1.008000047877431, 0.0, 0.0, 0.0, 0.0, 0.0, 1.6518371114292004E9, 0.0, 2022-05-06 12:38:31.429
96.0, -215.43132709758356, -48.283978377934545, -127.19773739296943, -151.95587509963661, 0.12800000607967377, 0.12800000607967377, 1.008000047877431, 0.0, 0.0, 0.0, 0.0, 0.0, 1.6518371114292004E9, 0.0, 2022-05-06 12:38:31.429
97.0, -228.7603305396624, -121.91886860551313, -156.54099244531244, -175.61074231937528, 0.12800000607967377, 0.12800000607967377, 1.008000047877431, 0.0, 0.0, 0.0, 0.0, 0.0, 1.6518371114423387E9, 0.0, 2022-05-06 12:38:31.442
97.0, -295.0799764539115, -262.2548745428212, -236.19712160155177, -224.75302773714066, 0.12800000607967377, 0.12800000607967377, 1.008000047877431, 0.0, 0.0, 0.0, 0.0, 0.0, 1.6518371114423387E9, 0.0, 2022-05-06 12:38:31.442
98.0, -291.889841791708, -190.49741409299895, -223.89659064728767, -209.9168446129188, 0.12800000607967377, 0.12800000607967377, 1.008000047877431, 0.0, 0.0, 0.0, 0.0, 0.0, 1.6518371114582357E9, 0.0, 2022-05-06 12:38:31.458
98.0, -206.70240060100332, -39.61115038068965, -120.15176587644964, -137.912550766021, 0.12800000607967377, 0.12800000607967377, 1.008000047877431, 0.0, 0.0, 0.0, 0.0, 0.0, 1.6518371114582357E9, 0.0, 2022-05-06 12:38:31.458
99.0, -218.88699465664104, -119.22988053737208, -147.7410078495741, -163.4897265629843, 0.12800000607967377, 0.12800000607967377, 1.008000047877431, 0.0, 0.0, 0.0, 0.0, 0.0, 1.6518371114591868E9, 0.0, 2022-05-06 12:38:31.459
99.0, -318.2523965793662, -277.86521695787087, -252.31983031053096, -247.71601346507668, 0.12800000607967377, 0.12800000607967377, 1.008000047877431, 0.0, 0.0, 0.0, 0.0, 0.0, 1.6518371114591868E9, 0.0, 2022-05-06 12:38:31.459
100.0, -303.7490645512007, -211.01824514986947, -235.01531321555376, -227.50185420457274, 0.12800000607967377, 0.12800000607967377, 1.0240000486373901, 0.0, 0.0, 0.0, 0.0, 0.0, 1.6518371114732392E9, 0.0, 2022-05-06 12:38:31.473
100.0, -231.48297770740464, -65.43141967477277, -138.3987377602607, -158.2576065249741, 0.12800000607967377, 0.12800000607967377, 1.0240000486373901, 0.0, 0.0, 0.0, 0.0, 0.0, 1.6518371114732392E9, 0.0, 2022-05-06 12:38:31.473
0.0, -234.25798347452655, -129.50338571565226, -159.19445146387443, -186.22831829357892, 0.12800000607967377, 0.12800000607967377, 1.0240000486373901, 0.0, 0.0, 0.0, 0.0, 0.0, 1.651837111474212E9, 0.0, 2022-05-06 12:38:31.474
1.0, -298.4533662139438, -267.83106537675485, -245.82923393743113, -236.08492460288107, 0.12800000607967377, 0.12800000607967377, 1.0240000486373901, 0.0, 0.0, 0.0, 0.0, 0.0, 1.65183711150325E9, 0.0, 2022-05-06 12:38:31.503
1.0, -301.3405689797364, -202.68574804859236, -233.93635207833722, -217.09745252784342, 0.12800000607967377, 0.12800000607967377, 1.0240000486373901, 0.0, 0.0, 0.0, 0.0, 0.0, 1.65183711150325E9, 0.0, 2022-05-06 12:38:31.503
2.0, -224.05927629536018, -48.86740277102217, -127.12480934383348, -149.53241992834955, 0.12800000607967377, 0.12800000607967377, 1.0240000486373901, 0.0, 0.0, 0.0, 0.0, 0.0, 1.6518371115042448E9, 0.0, 2022-05-06 12:38:31.504
2.0, -224.8259557862766, -117.87229685345665, -150.7908962634392, -164.12550955545157, 0.12800000607967377, 0.12800000607967377, 1.0240000486373901, 0.0, 0.0, 0.0, 0.0, 0.0, 1.6518371115042448E9, 0.0, 2022-05-06 12:38:31.504
3.0, -296.29170403955504, -266.83251208858564, -234.9797841659747, -227.15778340864927, 0.12800000607967377, 0.12800000607967377, 1.0240000486373901, 0.0, 0.0, 0.0, 0.0, 0.0, 1.6518371115052032E9, 0.0, 2022-05-06 12:38:31.505
3.0, -297.85124232107773, -205.0381451207213, -233.2444705865346, -229.0352131864056, 0.12800000607967377, 0.12800000607967377, 1.0240000486373901, 0.0, 0.0, 0.0, 0.0, 0.0, 1.6518371115052032E9, 0.0, 2022-05-06 12:38:31.505
4.0, -217.7164059705101, -47.18070789100602, -128.90126182278618, -151.73148110229522, 0.12800000607967377, 0.12800000607967377, 1.0240000486373901, 0.0, 0.0, 0.0, 0.0, 0.0, 1.6518371115172334E9, 0.0, 2022-05-06 12:38:31.517
4.0, -221.8228161218576, -120.83803751831874, -149.201438782271, -164.50697935093194, 0.12800000607967377, 0.12800000607967377, 1.0240000486373901, 0.0, 0.0, 0.0, 0.0, 0.0, 1.6518371115172334E9, 0.0, 2022-05-06 12:38:31.517
5.0, -299.29110380401835, -265.64322390267625, -242.23892997996882, -225.8899573236704, 0.12800000607967377, 0.12800000607967377, 1.0240000486373901, 0.0, 0.0, 0.0, 0.0, 0.0, 1.6518371115332325E9, 0.0, 2022-05-06 12:38:31.533
5.0, -293.06417037779465, -197.30403201235458, -221.2019927292131, -203.9068253841251, 0.12800000607967377, 0.12800000607967377, 1.0240000486373901, 0.0, 0.0, 0.0, 0.0, 0.0, 1.6518371115332325E9, 0.0, 2022-05-06 12:38:31.533
6.0, -211.8223236403428, -42.285178849007934, -116.49601366976276, -138.15190436318517, 0.12800000607967377, 0.12800000607967377, 1.0240000486373901, 0.0, 0.0, 0.0, 0.0, 0.0, 1.651837111534172E9, 0.0, 2022-05-06 12:38:31.534
6.0, -215.66320089483634, -115.67697557946667, -131.6762675899081, -149.32298553083092, 0.12800000607967377, 0.12800000607967377, 1.0240000486373901, 0.0, 0.0, 0.0, 0.0, 0.0, 1.651837111534172E9, 0.0, 2022-05-06 12:38:31.534
7.0, -290.3116040104069, -261.256321254652, -232.67226589331403, -224.7418080372736, 0.12800000607967377, 0.12800000607967377, 1.0240000486373901, 0.0, 0.0, 0.0, 0.0, 0.0, 1.651837111547227E9, 0.0, 2022-05-06 12:38:31.547
7.0, -285.5955901662819, -187.2175218318589, -217.753804970067, -200.2753825271502, 0.12800000607967377, 0.12800000607967377, 1.0240000486373901, 0.0, 0.0, 0.0, 0.0, 0.0, 1.651837111547227E9, 0.0, 2022-05-06 12:38:31.547
8.0, -220.72702543484047, -51.919161134865135, -142.28636376420036, -176.55319710820913, 0.12800000607967377, 0.12800000607967377, 1.0240000486373901, 0.0, 0.0, 0.0, 0.0, 0.0, 1.651837111563238E9, 0.0, 2022-05-06 12:38:31.563
8.0, -221.66948022367433, -117.09813756262884, -139.55997669650242, -164.409741952084, 0.12800000607967377, 0.12800000607967377, 1.0240000486373901, 0.0, 0.0, 0.0, 0.0, 0.0, 1.651837111563238E9, 0.0, 2022-05-06 12:38:31.563
9.0, -304.5381834418513, -271.8925967286341, -246.93250442435965, -233.72504773084074, 0.12800000607967377, 0.12800000607967377, 1.0240000486373901, 0.0, 0.0, 0.0, 0.0, 0.0, 1.6518371115641892E9, 0.0, 2022-05-06 12:38:31.564
9.0, -296.4936586371623, -207.4466406921856, -231.71111160470173, -225.19059603195637, 0.12800000607967377, 0.12800000607967377, 1.0240000486373901, 0.0, 0.0, 0.0, 0.0, 0.0, 1.6518371115641892E9, 0.0, 2022-05-06 12:38:31.564
10.0, -213.194866924081, -47.64071558555588, -129.87737571122125, -149.46136182919145, 0.12800000607967377, 0.12800000607967377, 1.0240000486373901, 0.0, 0.0, 0.0, 0.0, 0.0, 1.6518371115772393E9, 0.0, 2022-05-06 12:38:31.577
10.0, -228.67057294072583, -127.25944574223831, -155.35731410933658, -177.91078079212457, 0.12800000607967377, 0.12800000607967377, 1.0240000486373901, 0.0, 0.0, 0.0, 0.0, 0.0, 1.6518371115772393E9, 0.0, 2022-05-06 12:38:31.577
11.0, -302.98986486019567, -272.21048822486773, -240.8364674965851, -229.87669067643583, 0.12800000607967377, 0.12800000607967377, 1.0240000486373901, 0.0, 0.0, 0.0, 0.0, 0.0, 1.651837111593249E9, 0.0, 2022-05-06 12:38:31.593
11.0, -287.4131815447472, -192.02703317487612, -224.17895309394225, -206.36393965501338, 0.12800000607967377, 0.12800000607967377, 1.0240000486373901, 0.0, 0.0, 0.0, 0.0, 0.0, 1.651837111593249E9, 0.0, 2022-05-06 12:38:31.593
12.0, -212.7872178289108, -48.23535967851058, -128.61702942615375, -164.2264868542552, 0.12800000607967377, 0.12800000607967377, 1.0240000486373901, 0.0, 0.0, 0.0, 0.0, 0.0, 1.6518371115941896E9, 0.0, 2022-05-06 12:38:31.594
12.0, -237.6500727343373, -130.79365120036528, -152.8366215392016, -180.06870306655765, 0.12800000607967377, 0.12800000607967377, 1.0240000486373901, 0.0, 0.0, 0.0, 0.0, 0.0, 1.6518371115941896E9, 0.0, 2022-05-06 12:38:31.594
13.0, -303.87996104964986, -270.0338664506562, -245.51508234115317, -233.4856941336766, 0.12800000607967377, 0.12800000607967377, 1.0240000486373901, 0.0, 0.0, 0.0, 0.0, 0.0, 1.651837111607233E9, 0.0, 2022-05-06 12:38:31.607
13.0, -297.088302730117, -194.87309704115614, -231.40443980833516, -218.5447938106954, 0.12800000607967377, 0.12800000607967377, 1.0240000486373901, 0.0, 0.0, 0.0, 0.0, 0.0, 1.651837111607233E9, 0.0, 2022-05-06 12:38:31.607
14.0, -219.80701004574075, -47.60331658599898, -130.5617774031125, -159.53665230982006, 0.12800000607967377, 0.12800000607967377, 1.0240000486373901, 0.0, 0.0, 0.0, 0.0, 0.0, 1.6518371116232412E9, 0.0, 2022-05-06 12:38:31.623
14.0, -230.97061141347513, -132.88425527559593, -156.0940744006075, -180.32301626354456, 0.12800000607967377, 0.12800000607967377, 1.0240000486373901, 0.0, 0.0, 0.0, 0.0, 0.0, 1.6518371116232412E9, 0.0, 2022-05-06 12:38:31.623
15.0, -296.28422423964366, -269.3681642585434, -245.96013043588027, -228.20869529619813, 0.12800000607967377, 0.12800000607967377, 1.0240000486373901, 0.0, 0.0, 0.0, 0.0, 0.0, 1.651837111624261E9, 0.0, 2022-05-06 12:38:31.624
15.0, -292.0880564893596, -189.35674460651353, -222.13696771813557, -209.20252372138202, 0.12800000607967377, 0.12800000607967377, 1.0240000486373901, 0.0, 0.0, 0.0, 0.0, 0.0, 1.651837111624261E9, 0.0, 2022-05-06 12:38:31.624
16.0, -217.48079227330163, -45.34441701276228, -124.90704867010936, -154.49900706950575, 0.12800000607967377, 0.12800000607967377, 1.0240000486373901, 0.0, 0.0, 0.0, 0.0, 0.0, 1.6518371116372955E9, 0.0, 2022-05-06 12:38:31.637
16.0, -219.44423975003883, -117.58058465691283, -141.59448227239773, -161.7768523832783, 0.12800000607967377, 0.12800000607967377, 1.0240000486373901, 0.0, 0.0, 0.0, 0.0, 0.0, 1.6518371116372955E9, 0.0, 2022-05-06 12:38:31.637
17.0, -289.2345128231682, -261.1890030554496, -229.51953023066744, -218.51861451100558, 0.12800000607967377, 0.12800000607967377, 1.0240000486373901, 0.0, 0.0, 0.0, 0.0, 0.0, 1.6518371116533115E9, 0.0, 2022-05-06 12:38:31.653
17.0, -287.813350840006, -189.8504114006646, -217.43217357387766, -202.3959058020264, 0.12800000607967377, 0.12800000607967377, 1.0240000486373901, 0.0, 0.0, 0.0, 0.0, 0.0, 1.6518371116533115E9, 0.0, 2022-05-06 12:38:31.653
18.0, -214.6010693074204, -45.69596760859713, -132.46912638051435, -157.3375911358744, 0.12800000607967377, 0.12800000607967377, 1.0240000486373901, 0.0, 0.0, 0.0, 0.0, 0.0, 1.6518371116542163E9, 0.0, 2022-05-06 12:38:31.654
18.0, -225.6487337765284, -124.22264697821811, -148.06824909569696, -171.59782966692, 0.12800000607967377, 0.12800000607967377, 1.0240000486373901, 0.0, 0.0, 0.0, 0.0, 0.0, 1.6518371116542163E9, 0.0, 2022-05-06 12:38:31.654
19.0, -296.5198379368521, -266.3388452944346, -239.44896461302415, -228.34707159455866, 0.12800000607967377, 0.12800000607967377, 1.0240000486373901, 0.0, 0.0, 0.0, 0.0, 0.0, 1.6518371116672306E9, 0.0, 2022-05-06 12:38:31.667
19.0, -295.32306995103136, -201.91532865772024, -229.4634317313321, -217.138591427356, 0.12800000607967377, 0.12800000607967377, 1.0240000486373901, 0.0, 0.0, 0.0, 0.0, 0.0, 1.6518371116672306E9, 0.0, 2022-05-06 12:38:31.667
20.0, -218.4232470621355, -46.98997299326584, -126.98269314551726, -158.45956112258136, 0.12800000607967377, 0.12800000607967377, 1.0240000486373901, 0.0, 0.0, 0.0, 0.0, 0.0, 1.651837111683232E9, 0.0, 2022-05-06 12:38:31.683
20.0, -224.69131938787177, -122.95482089323923, -143.92070004483685, -164.43592125177383, 0.12800000607967377, 0.12800000607967377, 1.0240000486373901, 0.0, 0.0, 0.0, 0.0, 0.0, 1.651837111683232E9, 0.0, 2022-05-06 12:38:31.683
21.0, -304.8298956383951, -272.3974832226522, -247.81886071385816, -238.4822004744783, 0.12800000607967377, 0.12800000607967377, 1.0240000486373901, 0.0, 0.0, 0.0, 0.0, 0.0, 1.651837111684222E9, 0.0, 2022-05-06 12:38:31.684
21.0, -300.1550206937827, -202.6670485488139, -229.4634317313321, -218.42885691206902, 0.12800000607967377, 0.12800000607967377, 1.0240000486373901, 0.0, 0.0, 0.0, 0.0, 0.0, 1.651837111684222E9, 0.0, 2022-05-06 12:38:31.684
22.0, -216.25784498779103, -43.818537830840796, -125.9654403575696, -149.79047302529216, 0.12800000607967377, 0.12800000607967377, 1.0240000486373901, 0.0, 0.0, 0.0, 0.0, 0.0, 1.651837111697238E9, 0.0, 2022-05-06 12:38:31.697
22.0, -218.69251985894516, -126.95277394587174, -150.58146186592057, -163.20549416635185, 0.12800000607967377, 0.12800000607967377, 1.0240000486373901, 0.0, 0.0, 0.0, 0.0, 0.0, 1.651837111697238E9, 0.0, 2022-05-06 12:38:31.697
23.0, -295.4090876500122, -267.56927237985656, -238.8019619206898, -216.42427053581923, 0.12800000607967377, 0.12800000607967377, 1.0240000486373901, 0.0, 0.0, 0.0, 0.0, 0.0, 1.6518371117132688E9, 0.0, 2022-05-06 12:38:31.713
23.0, -288.7857248284854, -195.7444937308319, -228.65935324085876, -215.30978034902364, 0.12800000607967377, 0.12800000607967377, 1.0240000486373901, 0.0, 0.0, 0.0, 0.0, 0.0, 1.6518371117132688E9, 0.0, 2022-05-06 12:38:31.713
24.0, -220.99255833169445, -48.07454398041591, -128.1869409312494, -162.99605976883322, 0.12800000607967377, 0.12800000607967377, 1.0240000486373901, 0.0, 0.0, 0.0, 0.0, 0.0, 1.651837111714209E9, 0.0, 2022-05-06 12:38:31.714
24.0, -214.9339204034768, -131.63138879043981, -156.48302399599925, -175.47610592097044, 0.12800000607967377, 0.12800000607967377, 1.0240000486373901, 0.0, 0.0, 0.0, 0.0, 0.0, 1.651837111714209E9, 0.0, 2022-05-06 12:38:31.714
25.0, -296.4599995375611, -266.5594993918203, -225.99280457245186, -202.7287568980828, 0.12800000607967377, 0.12800000607967377, 1.0240000486373901, 0.0, 0.0, 0.0, 0.0, 0.0, 1.6518371117272458E9, 0.0, 2022-05-06 12:38:31.727
25.0, -289.2569522229023, -187.6663098265417, -226.63606736483052, -220.90093078278005, 0.12800000607967377, 0.12800000607967377, 1.0240000486373901, 0.0, 0.0, 0.0, 0.0, 0.0, 1.6518371117272458E9, 0.0, 2022-05-06 12:38:31.727
26.0, -216.37378188641742, -43.092997239436954, -127.73441303661093, -155.78553265426308, 0.12800000607967377, 0.12800000607967377, 1.0240000486373901, 0.0, 0.0, 0.0, 0.0, 0.0, 1.6518371117432313E9, 0.0, 2022-05-06 12:38:31.743
26.0, -227.06989575969055, -128.9349209223874, -152.81418213946745, -171.09294317290187, 0.12800000607967377, 0.12800000607967377, 1.0240000486373901, 0.0, 0.0, 0.0, 0.0, 0.0, 1.6518371117432313E9, 0.0, 2022-05-06 12:38:31.743
27.0, -301.5799225769006, -270.5948514440097, -250.19369718572125, -243.69562101271003, 0.12800000607967377, 0.12800000607967377, 1.0240000486373901, 0.0, 0.0, 0.0, 0.0, 0.0, 1.6518371117442436E9, 0.0, 2022-05-06 12:38:31.744
27.0, -287.5253785434179, -191.63434367952868, -225.050349783618, -209.38203891925514, 0.12800000607967377, 0.12800000607967377, 1.0240000486373901, 0.0, 0.0, 0.0, 0.0, 0.0, 1.6518371117442436E9, 0.0, 2022-05-06 12:38:31.744
28.0, -215.607102395501, -47.36396298883483, -127.51001903926954, -157.24783353693783, 0.12800000607967377, 0.12800000607967377, 1.0240000486373901, 0.0, 0.0, 0.0, 0.0, 0.0, 1.6518371117572472E9, 0.0, 2022-05-06 12:38:31.757
28.0, -233.88025357900187, -134.36899555800483, -155.46951110800728, -179.66105397138745, 0.12800000607967377, 0.12800000607967377, 1.0240000486373901, 0.0, 0.0, 0.0, 0.0, 0.0, 1.6518371117572472E9, 0.0, 2022-05-06 12:38:31.757
29.0, -301.73325847508386, -273.4745744098909, -249.92442438891158, -231.41378955822438, 0.12800000607967377, 0.12800000607967377, 1.0240000486373901, 0.0, 0.0, 0.0, 0.0, 0.0, 1.6518371117892256E9, 0.0, 2022-05-06 12:38:31.789
29.0, -288.54263133136556, -189.1435703090392, -224.7960365866311, -210.86677920166403, 0.12800000607967377, 0.12800000607967377, 1.0240000486373901, 0.0, 0.0, 0.0, 0.0, 0.0, 1.6518371117892256E9, 0.0, 2022-05-06 12:38:31.789
30.0, -210.70035365363583, -44.43936122348532, -122.47237379895523, -151.92969579994678, 0.12800000607967377, 0.12800000607967377, 1.0240000486373901, 0.0, 0.0, 0.0, 0.0, 0.0, 1.6518371117901783E9, 0.0, 2022-05-06 12:38:31.790
30.0, -212.80217742873356, -120.36307022394612, -130.96194669837132, -141.80204671993852, 0.12800000607967377, 0.12800000607967377, 1.0240000486373901, 0.0, 0.0, 0.0, 0.0, 0.0, 1.6518371117901783E9, 0.0, 2022-05-06 12:38:31.790
31.0, -295.7045397465117, -268.3583912705071, -240.52605580026284, -226.81745251268148, 0.12800000607967377, 0.12800000607967377, 1.0240000486373901, 0.0, 0.0, 0.0, 0.0, 0.0, 1.6518371117911928E9, 0.0, 2022-05-06 12:38:31.791
31.0, -292.17781408829615, -196.2232009251602, -229.03334323642775, -219.67424359731376, 0.12800000607967377, 0.12800000607967377, 1.0240000486373901, 0.0, 0.0, 0.0, 0.0, 0.0, 1.6518371117911928E9, 0.0, 2022-05-06 12:38:31.791
32.0, -220.77190423430875, -55.43840699316934, -134.58216985547915, -167.6372756138444, 0.12800000607967377, 0.12800000607967377, 1.0240000486373901, 0.0, 0.0, 0.0, 0.0, 0.0, 1.6518371117922318E9, 0.0, 2022-05-06 12:38:31.792
32.0, -225.158806882333, -129.36126951733604, -145.58869542507455, -167.83549031149596, 0.12800000607967377, 0.12800000607967377, 1.0240000486373901, 0.0, 0.0, 0.0, 0.0, 0.0, 1.6518371117922318E9, 0.0, 2022-05-06 12:38:31.792
33.0, -297.55205032462254, -269.34946475876495, -237.91560563119128, -216.2148361383006, 0.12800000607967377, 0.12800000607967377, 1.0240000486373901, 0.0, 0.0, 0.0, 0.0, 0.0, 1.6518371118182688E9, 0.0, 2022-05-06 12:38:31.818
33.0, -279.0732046435587, -179.71528252074495, -215.84271609270945, -195.08440138865262, 0.12800000607967377, 0.12800000607967377, 1.0240000486373901, 0.0, 0.0, 0.0, 0.0, 0.0, 1.6518371118182688E9, 0.0, 2022-05-06 12:38:31.818
34.0, -211.2688184469007, -48.38869557669386, -118.72499404335395, -152.13539029750973, 0.12800000607967377, 0.12800000607967377, 1.0240000486373901, 0.0, 0.0, 0.0, 0.0, 0.0, 1.6518371118192112E9, 0.0, 2022-05-06 12:38:31.819
34.0, -233.62968028197065, -134.60834915516898, -160.0957673531957, -180.6035087602213, 0.12800000607967377, 0.12800000607967377, 1.0240000486373901, 0.0, 0.0, 0.0, 0.0, 0.0, 1.6518371118192112E9, 0.0, 2022-05-06 12:38:31.819
35.0, -309.3963134842925, -273.2539203125052, -259.9585759700276, -251.0071254260838, 0.12800000607967377, 0.12800000607967377, 1.0240000486373901, 0.0, 0.0, 0.0, 0.0, 0.0, 1.651837111833228E9, 0.0, 2022-05-06 12:38:31.833
35.0, -295.84665594482794, -198.43722169892862, -237.52291613584384, -226.30134631879628, 0.12800000607967377, 0.12800000607967377, 1.0240000486373901, 0.0, 0.0, 0.0, 0.0, 0.0, 1.651837111833228E9, 0.0, 2022-05-06 12:38:31.833
36.0, -222.1257480182685, -63.587648996617645, -138.8232164052315, -167.0426315208897, 0.12800000607967377, 0.12800000607967377, 1.0240000486373901, 0.0, 0.0, 0.0, 0.0, 0.0, 1.6518371118341904E9, 0.0, 2022-05-06 12:38:31.834
36.0, -238.23349712742493, -148.77509018732235, -164.4265715018846, -185.07268920727074, 0.12800000607967377, 0.12800000607967377, 1.0240000486373901, 0.0, 0.0, 0.0, 0.0, 0.0, 1.6518371118341904E9, 0.0, 2022-05-06 12:38:31.834
37.0, -295.14729465311393, -270.8977833404206, -246.64827202772722, -226.11435132101178, 0.12800000607967377, 0.12800000607967377, 1.0240000486373901, 0.0, 0.0, 0.0, 0.0, 0.0, 1.6518371118472204E9, 0.0, 2022-05-06 12:38:31.847
37.0, -286.6465020538308, -192.26638677204028, -224.94563258485869, -207.48216974176466, 0.12800000607967377, 0.12800000607967377, 1.0240000486373901, 0.0, 0.0, 0.0, 0.0, 0.0, 1.6518371118472204E9, 0.0, 2022-05-06 12:38:31.847
38.0, -209.76911856466904, -51.21232004323974, -122.32277780072764, -138.26784126181155, 0.12800000607967377, 0.12800000607967377, 1.0240000486373901, 0.0, 0.0, 0.0, 0.0, 0.0, 1.6518371118632843E9, 0.0, 2022-05-06 12:38:31.863
38.0, -209.69058066559955, -115.44884168216959, -136.06691013788804, -154.4765676697716, 0.12800000607967377, 0.12800000607967377, 1.0240000486373901, 0.0, 0.0, 0.0, 0.0, 0.0, 1.6518371118632843E9, 0.0, 2022-05-06 12:38:31.863
39.0, -273.97572100395337, -246.26680223224685, -230.92573261400685, -218.08104621618986, 0.12800000607967377, 0.12800000607967377, 1.0240000486373901, 0.0, 0.0, 0.0, 0.0, 0.0, 1.6518371118642423E9, 0.0, 2022-05-06 12:38:31.864
39.0, -290.55095760757104, -192.09061147412285, -225.24856448126957, -213.7278026677668, 0.12800000607967377, 0.12800000607967377, 1.0240000486373901, 0.0, 0.0, 0.0, 0.0, 0.0, 1.6518371118642423E9, 0.0, 2022-05-06 12:38:31.864
40.0, -222.1257480182685, -54.716606301721185, -128.17572123138234, -157.88361652940512, 0.12800000607967377, 0.12800000607967377, 1.0240000486373901, 0.0, 0.0, 0.0, 0.0, 0.0, 1.6518371118772435E9, 0.0, 2022-05-06 12:38:31.877
40.0, -229.39611353212968, -134.57469005556777, -153.59956113016233, -178.2735510878265, 0.12800000607967377, 0.12800000607967377, 1.0240000486373901, 0.0, 0.0, 0.0, 0.0, 0.0, 1.6518371118772435E9, 0.0, 2022-05-06 12:38:31.877
41.0, -296.69187333481386, -258.8403458832763, -239.82295460859314, -222.52778726350516, 0.12800000607967377, 0.12800000607967377, 1.0240000486373901, 0.0, 0.0, 0.0, 0.0, 0.0, 1.6518371118932936E9, 0.0, 2022-05-06 12:38:31.893
41.0, -288.72214652923867, -185.5906653511338, -223.36739480355754, -206.25548255629838, 0.12800000607967377, 0.12800000607967377, 1.0240000486373901, 0.0, 0.0, 0.0, 0.0, 0.0, 1.6518371118932936E9, 0.0, 2022-05-06 12:38:31.893
42.0, -208.2245398829691, -51.33199684182182, -120.43412832310423, -153.1077642859891, 0.12800000607967377, 0.12800000607967377, 1.0240000486373901, 0.0, 0.0, 0.0, 0.0, 0.0, 1.6518371118941624E9, 0.0, 2022-05-06 12:38:31.894
42.0, -221.84525552159175, -124.08801057981327, -149.21639838209376, -171.94190046284348, 0.12800000607967377, 0.12800000607967377, 1.0240000486373901, 0.0, 0.0, 0.0, 0.0, 0.0, 1.6518371118941624E9, 0.0, 2022-05-06 12:38:31.894
43.0, -287.28976484620944, -250.0216617877595, -233.92513237847015, -209.78594811446965, 0.12800000607967377, 0.12800000607967377, 1.0240000486373901, 0.0, 0.0, 0.0, 0.0, 0.0, 1.6518371119072394E9, 0.0, 2022-05-06 12:38:31.907
43.0, -286.7175601529889, -189.08747180970386, -226.58744866540655, -203.0952670937404, 0.12800000607967377, 0.12800000607967377, 1.0240000486373901, 0.0, 0.0, 0.0, 0.0, 0.0, 1.6518371119072394E9, 0.0, 2022-05-06 12:38:31.907
44.0, -212.92933402722701, -54.60814920300618, -123.46718718716875, -144.22924179118127, 0.12800000607967377, 0.12800000607967377, 1.0240000486373901, 0.0, 0.0, 0.0, 0.0, 0.0, 1.6518371119233034E9, 0.0, 2022-05-06 12:38:31.923
44.0, -221.63582112407312, -123.13433609111235, -142.92962655657902, -151.26773350778967, 0.12800000607967377, 0.12800000607967377, 1.0240000486373901, 0.0, 0.0, 0.0, 0.0, 0.0, 1.6518371119233034E9, 0.0, 2022-05-06 12:38:31.923
45.0, -281.590157313738, -249.18392419768497, -236.28874915046617, -222.89803735911846, 0.12800000607967377, 0.12800000607967377, 1.0240000486373901, 0.0, 0.0, 0.0, 0.0, 0.0, 1.6518371119242196E9, 0.0, 2022-05-06 12:38:31.924
45.0, -282.27455900562927, -187.79346642503515, -218.236252064351, -210.07018051110208, 0.12800000607967377, 0.12800000607967377, 1.0240000486373901, 0.0, 0.0, 0.0, 0.0, 0.0, 1.6518371119242196E9, 0.0, 2022-05-06 12:38:31.924
46.0, -215.21067300019786, -56.788510877173394, -125.14640226727352, -160.23975350148976, 0.12800000607967377, 0.12800000607967377, 1.0240000486373901, 0.0, 0.0, 0.0, 0.0, 0.0, 1.651837111937222E9, 0.0, 2022-05-06 12:38:31.937
46.0, -225.92174647329375, -129.95965351024643, -154.47469771979377, -169.83259688783437, 0.12800000607967377, 0.12800000607967377, 1.0240000486373901, 0.0, 0.0, 0.0, 0.0, 0.0, 1.651837111937222E9, 0.0, 2022-05-06 12:38:31.937
47.0, -283.43392799189314, -253.0622004517354, -233.12105388799682, -218.38397811260074, 0.12800000607967377, 0.12800000607967377, 1.0240000486373901, 0.0, 0.0, 0.0, 0.0, 0.0, 1.651837111953241E9, 0.0, 2022-05-06 12:38:31.953
47.0, -284.42874138010666, -191.84003817709163, -222.74657141091302, -218.959922705777, 0.12800000607967377, 0.12800000607967377, 1.0240000486373901, 0.0, 0.0, 0.0, 0.0, 0.0, 1.651837111953241E9, 0.0, 2022-05-06 12:38:31.953
48.0, -213.53893772000447, -52.274451630655676, -126.09259695606306, -148.34313174244016, 0.12800000607967377, 0.12800000607967377, 1.0240000486373901, 0.0, 0.0, 0.0, 0.0, 0.0, 1.651837111954171E9, 0.0, 2022-05-06 12:38:31.954
48.0, -218.32974956324324, -119.99282012833282, -138.28093091165647, -162.6706884726882, 0.12800000607967377, 0.12800000607967377, 1.0240000486373901, 0.0, 0.0, 0.0, 0.0, 0.0, 1.651837111954171E9, 0.0, 2022-05-06 12:38:31.954
49.0, -296.84146933304146, -259.37515157693997, -236.22143095126376, -221.57785267475992, 0.12800000607967377, 0.12800000607967377, 1.0240000486373901, 0.0, 0.0, 0.0, 0.0, 0.0, 1.6518371119672291E9, 0.0, 2022-05-06 12:38:31.967
49.0, -283.87149628670886, -183.2158288792707, -220.8990608328022, -205.78051526192576, 0.12800000607967377, 0.12800000607967377, 1.0240000486373901, 0.0, 0.0, 0.0, 0.0, 0.0, 1.6518371119672291E9, 0.0, 2022-05-06 12:38:31.967
50.0, -217.5630700723268, -55.75629848940298, -135.39746804581955, -156.7018081434071, 0.12800000607967377, 0.12800000607967377, 1.0240000486373901, 0.0, 0.0, 0.0, 0.0, 0.0, 1.6518371119832654E9, 0.0, 2022-05-06 12:38:31.983
50.0, -216.8300496810116, -120.92405521729961, -142.25644456455484, -153.3658173829317, 0.12800000607967377, 0.12800000607967377, 1.0240000486373901, 0.0, 0.0, 0.0, 0.0, 0.0, 1.6518371119832654E9, 0.0, 2022-05-06 12:38:31.983
51.0, -286.80731775192544, -251.37176567176357, -227.47380495490506, -218.93000350613147, 0.12800000607967377, 0.12800000607967377, 1.0240000486373901, 0.0, 0.0, 0.0, 0.0, 0.0, 1.6518371119842184E9, 0.0, 2022-05-06 12:38:31.984
51.0, -279.2564597413875, -187.29979963088408, -211.36231594579294, -205.18587116897106, 0.12800000607967377, 0.12800000607967377, 1.0240000486373901, 0.0, 0.0, 0.0, 0.0, 0.0, 1.6518371119842184E9, 0.0, 2022-05-06 12:38:31.984
52.0, -200.5166060742922, -43.35479023633525, -116.21926107304171, -144.89868388324976, 0.12800000607967377, 0.12800000607967377, 1.0240000486373901, 0.0, 0.0, 0.0, 0.0, 0.0, 1.6518371119972231E9, 0.0, 2022-05-06 12:38:31.997
52.0, -222.48851831397042, -125.4493341636844, -143.6065484485589, -170.57683697901666, 0.12800000607967377, 0.12800000607967377, 1.0240000486373901, 0.0, 0.0, 0.0, 0.0, 0.0, 1.6518371119972231E9, 0.0, 2022-05-06 12:38:31.997
53.0, -277.1920349658467, -243.57033436419442, -216.06711009005085, -198.88413974363357, 0.12800000607967377, 0.12800000607967377, 1.0240000486373901, 0.0, 0.0, 0.0, 0.0, 0.0, 1.6518371120133288E9, 0.0, 2022-05-06 12:38:32.013
53.0, -281.6275563132949, -182.5538665871136, -216.21296618832275, -199.07113474141806, 0.12800000607967377, 0.12800000607967377, 1.0240000486373901, 0.0, 0.0, 0.0, 0.0, 0.0, 1.6518371120133288E9, 0.0, 2022-05-06 12:38:32.013
54.0, -211.1603613481857, -45.34441701276228, -112.11285092169419, -135.31706019677222, 0.12800000607967377, 0.12800000607967377, 1.0240000486373901, 0.0, 0.0, 0.0, 0.0, 0.0, 1.6518371120142071E9, 0.0, 2022-05-06 12:38:32.014
54.0, -212.98917242651805, -120.61364352097735, -138.58386280806735, -162.1845014784485, 0.12800000607967377, 0.12800000607967377, 1.0240000486373901, 0.0, 0.0, 0.0, 0.0, 0.0, 1.6518371120142071E9, 0.0, 2022-05-06 12:38:32.014
55.0, -289.3766290214844, -261.30867985403165, -240.8776063960977, -232.5581989446655, 0.12800000607967377, 0.12800000607967377, 1.0240000486373901, 0.0, 0.0, 0.0, 0.0, 0.0, 1.6518371120272553E9, 0.0, 2022-05-06 12:38:32.027
55.0, -282.1436625071801, -177.71069614449516, -205.06432442041114, -191.4641782315448, 0.12800000607967377, 0.12800000607967377, 1.0240000486373901, 0.0, 0.0, 0.0, 0.0, 0.0, 1.6518371120272553E9, 0.0, 2022-05-06 12:38:32.027
56.0, -221.92753332061693, -53.43756051687524, -135.22169274790213, -147.07904555741698, 0.12800000607967377, 0.12800000607967377, 1.0240000486373901, 0.0, 0.0, 0.0, 0.0, 0.0, 1.6518371120432763E9, 0.0, 2022-05-06 12:38:32.043
56.0, -238.3494340260513, -138.92419370403513, -170.11869923444465, -198.15111935231835, 0.12800000607967377, 0.12800000607967377, 1.0240000486373901, 0.0, 0.0, 0.0, 0.0, 0.0, 1.6518371120432763E9, 0.0, 2022-05-06 12:38:32.043
57.0, -304.78127693897113, -264.15848362026736, -241.48721008887514, -232.853651041165, 0.12800000607967377, 0.12800000607967377, 1.0240000486373901, 0.0, 0.0, 0.0, 0.0, 0.0, 1.651837112044198E9, 0.0, 2022-05-06 12:38:32.044
57.0, -303.59198875306174, -202.53241215040907, -232.44413199601695, -225.16441673226655, 0.12800000607967377, 0.12800000607967377, 1.0240000486373901, 0.0, 0.0, 0.0, 0.0, 0.0, 1.651837112044198E9, 0.0, 2022-05-06 12:38:32.044
58.0, -226.62484766496345, -59.110988749656826, -136.4521198333241, -165.1165830437094, 0.12800000607967377, 0.12800000607967377, 1.0240000486373901, 0.0, 0.0, 0.0, 0.0, 0.0, 1.6518371120572505E9, 0.0, 2022-05-06 12:38:32.057
58.0, -222.52217741357163, -132.14749498432502, -148.827448786702, -168.75176580064, 0.12800000607967377, 0.12800000607967377, 1.0240000486373901, 0.0, 0.0, 0.0, 0.0, 0.0, 1.6518371120572505E9, 0.0, 2022-05-06 12:38:32.057
59.0, -286.28373175812885, -250.51906848186627, -231.17630591103807, -215.8782451422885, 0.12800000607967377, 0.12800000607967377, 1.0240000486373901, 0.0, 0.0, 0.0, 0.0, 0.0, 1.6518371120732825E9, 0.0, 2022-05-06 12:38:32.073
59.0, -297.55579022457823, -186.74629443744197, -218.10535556590185, -206.40133865457028, 0.12800000607967377, 0.12800000607967377, 1.0240000486373901, 0.0, 0.0, 0.0, 0.0, 0.0, 1.6518371120732825E9, 0.0, 2022-05-06 12:38:32.073
60.0, -218.53544406080619, -53.42260091705248, -129.3724892172031, -158.98314711637795, 0.12800000607967377, 0.12800000607967377, 1.0240000486373901, 0.0, 0.0, 0.0, 0.0, 0.0, 1.6518371120742455E9, 0.0, 2022-05-06 12:38:32.074
60.0, -238.37935322569683, -139.6759135951288, -157.7209308813326, -182.89606743305922, 0.12800000607967377, 0.12800000607967377, 1.0240000486373901, 0.0, 0.0, 0.0, 0.0, 0.0, 1.6518371120742455E9, 0.0, 2022-05-06 12:38:32.074
61.0, -306.0079641244374, -272.23292762460187, -248.85481300158426, -236.32427820004523, 0.12800000607967377, 0.12800000607967377, 1.0240000486373901, 0.0, 0.0, 0.0, 0.0, 0.0, 1.6518371120872135E9, 0.0, 2022-05-06 12:38:32.087
61.0, -296.17950704088435, -194.56268534483388, -223.58804890094325, -219.15065760351717, 0.12800000607967377, 0.12800000607967377, 1.0240000486373901, 0.0, 0.0, 0.0, 0.0, 0.0, 1.6518371120872135E9, 0.0, 2022-05-06 12:38:32.087
62.0, -217.2002997766249, -55.68150049028918, -129.64924181392416, -151.24903400801122, 0.12800000607967377, 0.12800000607967377, 1.0240000486373901, 0.0, 0.0, 0.0, 0.0, 0.0, 1.6518371121032436E9, 0.0, 2022-05-06 12:38:32.103
62.0, -231.25110391015187, -132.1549747842364, -153.56216213060543, -178.87941488064826, 0.12800000607967377, 0.12800000607967377, 1.0240000486373901, 0.0, 0.0, 0.0, 0.0, 0.0, 1.6518371121032436E9, 0.0, 2022-05-06 12:38:32.103
63.0, -293.43442047340795, -258.52245438704267, -234.18692537536845, -213.27527477312833, 0.12800000607967377, 0.12800000607967377, 1.0240000486373901, 0.0, 0.0, 0.0, 0.0, 0.0, 1.6518371121042223E9, 0.0, 2022-05-06 12:38:32.104
63.0, -289.12979562440887, -186.49198124045506, -222.53713701339439, -208.3909654309973, 0.12800000607967377, 0.12800000607967377, 1.0240000486373901, 0.0, 0.0, 0.0, 0.0, 0.0, 1.6518371121042223E9, 0.0, 2022-05-06 12:38:32.104
64.0, -223.63666760036722, -55.03449779795483, -132.68604057794437, -162.98110016901046, 0.12800000607967377, 0.12800000607967377, 1.0240000486373901, 0.0, 0.0, 0.0, 0.0, 0.0, 1.6518371121172593E9, 0.0, 2022-05-06 12:38:32.117
64.0, -239.49384341249242, -139.92648689216003, -155.28625601017848, -168.84526329953223, 0.12800000607967377, 0.12800000607967377, 1.0240000486373901, 0.0, 0.0, 0.0, 0.0, 0.0, 1.6518371121172593E9, 0.0, 2022-05-06 12:38:32.117
65.0, -293.1539279767312, -255.03686762833968, -228.7565906397067, -215.03676765225828, 0.12800000607967377, 0.12800000607967377, 1.0240000486373901, 0.0, 0.0, 0.0, 0.0, 0.0, 1.6518371121332176E9, 0.0, 2022-05-06 12:38:32.133
65.0, -279.7912654350512, -180.4408231121488, -218.3821081626229, -209.55033441726118, 0.12800000607967377, 0.12800000607967377, 1.0240000486373901, 0.0, 0.0, 0.0, 0.0, 0.0, 1.6518371121332176E9, 0.0, 2022-05-06 12:38:32.133
66.0, -210.25904545886442, -51.20484024332836, -126.94155424600467, -152.5205999929458, 0.12800000607967377, 0.12800000607967377, 1.0240000486373901, 0.0, 0.0, 0.0, 0.0, 0.0, 1.6518371121341767E9, 0.0, 2022-05-06 12:38:32.134
66.0, -237.26860293885693, -136.10056923748925, -155.04316251305863, -169.03599819727242, 0.12800000607967377, 0.12800000607967377, 1.0240000486373901, 0.0, 0.0, 0.0, 0.0, 0.0, 1.6518371121341767E9, 0.0, 2022-05-06 12:38:32.134
67.0, -297.4660326256417, -256.4056710121222, -231.3146822093986, -216.79826053138822, 0.12800000607967377, 0.12800000607967377, 1.0240000486373901, 0.0, 0.0, 0.0, 0.0, 0.0, 1.6518371121472716E9, 0.0, 2022-05-06 12:38:32.147
67.0, -281.69113461254165, -180.97936870576814, -211.18280074791983, -202.9120119959116, 0.12800000607967377, 0.12800000607967377, 1.0240000486373901, 0.0, 0.0, 0.0, 0.0, 0.0, 1.6518371121472716E9, 0.0, 2022-05-06 12:38:32.147
68.0, -222.11452831840143, -54.338876406196505, -135.92853383952752, -163.90859535802156, 0.12800000607967377, 0.12800000607967377, 1.0240000486373901, 0.0, 0.0, 0.0, 0.0, 0.0, 1.6518371121632512E9, 0.0, 2022-05-06 12:38:32.163
68.0, -240.19320470420644, -136.86350882845, -158.5736280712299, -177.604108995758, 0.12800000607967377, 0.12800000607967377, 1.0240000486373901, 0.0, 0.0, 0.0, 0.0, 0.0, 1.6518371121632512E9, 0.0, 2022-05-06 12:38:32.163
69.0, -298.0905959182419, -265.97233509877697, -239.54620201187208, -218.74300850834697, 0.12800000607967377, 0.12800000607967377, 1.0240000486373901, 0.0, 0.0, 0.0, 0.0, 0.0, 1.6518371121642613E9, 0.0, 2022-05-06 12:38:32.164
69.0, -282.61115000164136, -186.3984837415628, -215.87263529235497, -201.56938791181892, 0.12800000607967377, 0.12800000607967377, 1.0240000486373901, 0.0, 0.0, 0.0, 0.0, 0.0, 1.6518371121642613E9, 0.0, 2022-05-06 12:38:32.164
70.0, -228.44243904342875, -55.902154587674886, -131.91188128711656, -159.91812210530043, 0.12800000607967377, 0.12800000607967377, 1.0240000486373901, 0.0, 0.0, 0.0, 0.0, 0.0, 1.651837112177225E9, 0.0, 2022-05-06 12:38:32.177
70.0, -238.6112270229496, -139.26078470004722, -151.44163885572925, -168.71810670103878, 0.12800000607967377, 0.12800000607967377, 1.0240000486373901, 0.0, 0.0, 0.0, 0.0, 0.0, 1.651837112177225E9, 0.0, 2022-05-06 12:38:32.177
71.0, -298.25141161633655, -254.44970333529636, -239.534982312005, -231.72046135459095, 0.12800000607967377, 0.12800000607967377, 1.0240000486373901, 0.0, 0.0, 0.0, 0.0, 0.0, 1.6518371121932352E9, 0.0, 2022-05-06 12:38:32.193
71.0, -290.4238010090776, -181.40945720067248, -222.56331631308421, -210.6573448041454, 0.12800000607967377, 0.12800000607967377, 1.0240000486373901, 0.0, 0.0, 0.0, 0.0, 0.0, 1.6518371121932352E9, 0.0, 2022-05-06 12:38:32.193
72.0, -225.8282489744015, -60.08710263809189, -137.55165042029694, -154.49526716955006, 0.12800000607967377, 0.12800000607967377, 1.0240000486373901, 0.0, 0.0, 0.0, 0.0, 0.0, 1.6518371121942265E9, 0.0, 2022-05-06 12:38:32.194
72.0, -238.5439088237472, -141.4149670745246, -159.39640606148168, -177.15158110111952, 0.12800000607967377, 0.12800000607967377, 1.0240000486373901, 0.0, 0.0, 0.0, 0.0, 0.0, 1.6518371121942265E9, 0.0, 2022-05-06 12:38:32.194
73.0, -302.14838737016544, -260.19044976728037, -235.832481355872, -217.87161181867123, 0.12800000607967377, 0.12800000607967377, 1.0240000486373901, 0.0, 0.0, 0.0, 0.0, 0.0, 1.6518371122072463E9, 0.0, 2022-05-06 12:38:32.207
73.0, -291.76268519321457, -185.68790274998173, -226.06386267160997, -217.3667253246531, 0.12800000607967377, 0.12800000607967377, 1.0240000486373901, 0.0, 0.0, 0.0, 0.0, 0.0, 1.6518371122072463E9, 0.0, 2022-05-06 12:38:32.207
74.0, -227.9076333497651, -62.17022691341117, -137.88076161639765, -162.4836934749037, 0.12800000607967377, 0.12800000607967377, 1.0240000486373901, 0.0, 0.0, 0.0, 0.0, 0.0, 1.6518371122232187E9, 0.0, 2022-05-06 12:38:32.223
74.0, -226.2695571691729, -139.32810289924964, -157.8331278800033, -174.9712194269523, 0.12800000607967377, 0.12800000607967377, 1.0240000486373901, 0.0, 0.0, 0.0, 0.0, 0.0, 1.6518371122232187E9, 0.0, 2022-05-06 12:38:32.223
75.0, -299.9119271966629, -260.86737165926024, -234.73669066885486, -219.0272409049794, 0.12800000607967377, 0.12800000607967377, 1.0240000486373901, 0.0, 0.0, 0.0, 0.0, 0.0, 1.651837112224174E9, 0.0, 2022-05-06 12:38:32.224
75.0, -283.7443396882154, -177.83785274298862, -216.51963798468933, -202.4258250016719, 0.12800000607967377, 0.12800000607967377, 1.0240000486373901, 0.0, 0.0, 0.0, 0.0, 0.0, 1.651837112224174E9, 0.0, 2022-05-06 12:38:32.224
76.0, -211.95322013879195, -52.005178833846, -127.56611753860489, -157.7377604311332, 0.12800000607967377, 0.12800000607967377, 1.0240000486373901, 0.0, 0.0, 0.0, 0.0, 0.0, 1.6518371122372687E9, 0.0, 2022-05-06 12:38:32.237
76.0, -232.28705619787797, -134.87388205202296, -158.85412056790665, -173.99884543847293, 0.12800000607967377, 0.12800000607967377, 1.0240000486373901, 0.0, 0.0, 0.0, 0.0, 0.0, 1.6518371122372687E9, 0.0, 2022-05-06 12:38:32.237
77.0, -301.84919537371024, -261.6976294494234, -242.92333167186007, -222.15753716789186, 0.12800000607967377, 0.12800000607967377, 1.0240000486373901, 0.0, 0.0, 0.0, 0.0, 0.0, 1.6518371122532253E9, 0.0, 2022-05-06 12:38:32.253
77.0, -298.06067671859637, -186.3274256424047, -220.63352793594822, -207.85989963728935, 0.12800000607967377, 0.12800000607967377, 1.0240000486373901, 0.0, 0.0, 0.0, 0.0, 0.0, 1.6518371122532253E9, 0.0, 2022-05-06 12:38:32.253
78.0, -218.29983036359772, -49.892135358881205, -131.91188128711656, -158.61289702076465, 0.12800000607967377, 0.12800000607967377, 1.0240000486373901, 0.0, 0.0, 0.0, 0.0, 0.0, 1.6518371122542052E9, 0.0, 2022-05-06 12:38:32.254
78.0, -231.0528892125003, -134.1558212605305, -150.09527487168089, -168.75924560055137, 0.12800000607967377, 0.12800000607967377, 1.0240000486373901, 0.0, 0.0, 0.0, 0.0, 0.0, 1.6518371122542052E9, 0.0, 2022-05-06 12:38:32.254
79.0, -303.0048244600184, -270.8828237405978, -244.841900349129, -226.0732124214992, 0.12800000607967377, 0.12800000607967377, 1.0240000486373901, 0.0, 0.0, 0.0, 0.0, 0.0, 1.6518371122672172E9, 0.0, 2022-05-06 12:38:32.267
79.0, -287.17382794758305, -184.19942256761715, -226.606148165185, -212.01866838801652, 0.12800000607967377, 0.12800000607967377, 1.0240000486373901, 0.0, 0.0, 0.0, 0.0, 0.0, 1.6518371122672172E9, 0.0, 2022-05-06 12:38:32.267
80.0, -221.05613663094118, -55.00083869835362, -130.70389360142872, -154.592504568398, 0.12800000607967377, 0.12800000607967377, 1.0240000486373901, 0.0, 0.0, 0.0, 0.0, 0.0, 1.6518371122832384E9, 0.0, 2022-05-06 12:38:32.283
80.0, -236.33736784989014, -145.68967272387818, -160.32764115044847, -174.81040372885764, 0.12800000607967377, 0.12800000607967377, 1.0240000486373901, 0.0, 0.0, 0.0, 0.0, 0.0, 1.6518371122832384E9, 0.0, 2022-05-06 12:38:32.283
81.0, -293.39702147385105, -260.74769486067817, -240.9860634948127, -228.30219279509038, 0.12800000607967377, 0.12800000607967377, 1.0240000486373901, 0.0, 0.0, 0.0, 0.0, 0.0, 1.6518371122842152E9, 0.0, 2022-05-06 12:38:32.284
81.0, -287.5253785434179, -178.42501703603193, -214.17098081251606, -195.15545948781073, 0.12800000607967377, 0.12800000607967377, 1.0240000486373901, 0.0, 0.0, 0.0, 0.0, 0.0, 1.6518371122842152E9, 0.0, 2022-05-06 12:38:32.284
82.0, -214.83668300462887, -37.2587533085607, -117.0382991633378, -143.63833759818226, 0.12800000607967377, 0.12800000607967377, 1.0240000486373901, 0.0, 0.0, 0.0, 0.0, 0.0, 1.651837112297232E9, 0.0, 2022-05-06 12:38:32.297
82.0, -232.51145019521937, -137.7087262184359, -158.15101937623695, -176.6018158076331, 0.12800000607967377, 0.12800000607967377, 1.0240000486373901, 0.0, 0.0, 0.0, 0.0, 0.0, 1.651837112297232E9, 0.0, 2022-05-06 12:38:32.297
83.0, -304.493304642383, -267.7674870775081, -244.0976602579467, -234.30847212392837, 0.12800000607967377, 0.12800000607967377, 1.0240000486373901, 0.0, 0.0, 0.0, 0.0, 0.0, 1.6518371123132277E9, 0.0, 2022-05-06 12:38:32.313
83.0, -281.32462441688403, -178.0248477407731, -214.87782190414146, -200.55961492378265, 0.12800000607967377, 0.12800000607967377, 1.0240000486373901, 0.0, 0.0, 0.0, 0.0, 0.0, 1.6518371123132277E9, 0.0, 2022-05-06 12:38:32.313
84.0, -206.98289309768006, -40.17961517395452, -118.89328954135999, -148.21223524399102, 0.12800000607967377, 0.12800000607967377, 1.0240000486373901, 0.0, 0.0, 0.0, 0.0, 0.0, 1.6518371123141916E9, 0.0, 2022-05-06 12:38:32.314
84.0, -228.7565906397067, -130.27754500648007, -157.28710248647258, -172.76841835305095, 0.12800000607967377, 0.12800000607967377, 1.0240000486373901, 0.0, 0.0, 0.0, 0.0, 0.0, 1.6518371123141916E9, 0.0, 2022-05-06 12:38:32.314
85.0, -304.6129814409651, -269.5439395564608, -251.6223389687948, -234.19253522530198, 0.12800000607967377, 0.12800000607967377, 1.0240000486373901, 0.0, 0.0, 0.0, 0.0, 0.0, 1.6518371123272412E9, 0.0, 2022-05-06 12:38:32.327
85.0, -290.77535160491243, -183.97128867032006, -222.98592500807717, -220.85605198331177, 0.12800000607967377, 0.12800000607967377, 1.0240000486373901, 0.0, 0.0, 0.0, 0.0, 0.0, 1.6518371123272412E9, 0.0, 2022-05-06 12:38:32.327
86.0, -217.46209277352318, -52.304370830301195, -132.0091186859645, -165.01934564486146, 0.12800000607967377, 0.12800000607967377, 1.0240000486373901, 0.0, 0.0, 0.0, 0.0, 0.0, 1.651837112343283E9, 0.0, 2022-05-06 12:38:32.343
86.0, -241.4685105890967, -147.48856460256502, -164.19843760458753, -178.98413207940757, 0.12800000607967377, 0.12800000607967377, 1.0240000486373901, 0.0, 0.0, 0.0, 0.0, 0.0, 1.651837112343283E9, 0.0, 2022-05-06 12:38:32.343
87.0, -305.44323923112825, -264.68206961406395, -243.15520546911284, -227.09046520944685, 0.12800000607967377, 0.12800000607967377, 1.0240000486373901, 0.0, 0.0, 0.0, 0.0, 0.0, 1.65183711234422E9, 0.0, 2022-05-06 12:38:32.344
87.0, -283.8191376873292, -172.6917504039593, -210.64799505425617, -199.1347130406648, 0.12800000607967377, 0.12800000607967377, 1.0240000486373901, 0.0, 0.0, 0.0, 0.0, 0.0, 1.65183711234422E9, 0.0, 2022-05-06 12:38:32.344
88.0, -223.9395994967781, -56.67257397854701, -128.80028452398255, -154.24469387251884, 0.12800000607967377, 0.12800000607967377, 1.0240000486373901, 0.0, 0.0, 0.0, 0.0, 0.0, 1.6518371123732321E9, 0.0, 2022-05-06 12:38:32.373
88.0, -241.99957638280466, -153.7940359278582, -163.74964960990474, -182.03963034320623, 0.12800000607967377, 0.12800000607967377, 1.0240000486373901, 0.0, 0.0, 0.0, 0.0, 0.0, 1.6518371123732321E9, 0.0, 2022-05-06 12:38:32.373
89.0, -299.7885104981251, -266.89983028778806, -239.44148481311277, -223.04389345739037, 0.12800000607967377, 0.12800000607967377, 1.0240000486373901, 0.0, 0.0, 0.0, 0.0, 0.0, 1.651837112374169E9, 0.0, 2022-05-06 12:38:32.374
89.0, -289.4439472206868, -170.97513632429764, -214.70204660622403, -210.1711578099057, 0.12800000607967377, 0.12800000607967377, 1.0240000486373901, 0.0, 0.0, 0.0, 0.0, 0.0, 1.651837112374169E9, 0.0, 2022-05-06 12:38:32.374
90.0, -217.21525937644765, -49.043178068939596, -127.05749114463106, -160.49780659843236, 0.12800000607967377, 0.12800000607967377, 1.0240000486373901, 0.0, 0.0, 0.0, 0.0, 0.0, 1.6518371123751853E9, 0.0, 2022-05-06 12:38:32.375
90.0, -235.52580955950543, -150.20747187035158, -165.2867484916933, -178.55778348445892, 0.12800000607967377, 0.12800000607967377, 1.0240000486373901, 0.0, 0.0, 0.0, 0.0, 0.0, 1.6518371123751853E9, 0.0, 2022-05-06 12:38:32.375
91.0, -300.50657128961757, -265.0411000098102, -243.03552867053077, -221.3983374768868, 0.12800000607967377, 0.12800000607967377, 1.0240000486373901, 0.0, 0.0, 0.0, 0.0, 0.0, 1.6518371124032362E9, 0.0, 2022-05-06 12:38:32.403
91.0, -280.2176140299998, -162.11905322922394, -209.09967647260055, -199.78171573299915, 0.12800000607967377, 0.12800000607967377, 1.0240000486373901, 0.0, 0.0, 0.0, 0.0, 0.0, 1.6518371124032362E9, 0.0, 2022-05-06 12:38:32.403
92.0, -209.36894926941022, -41.39134275959805, -120.04143882775679, -148.1411771448329, 0.12800000607967377, 0.12800000607967377, 1.0240000486373901, 0.0, 0.0, 0.0, 0.0, 0.0, 1.6518371124041772E9, 0.0, 2022-05-06 12:38:32.404
92.0, -238.07642132928595, -154.66543261753395, -158.25573657499626, -167.77191201224923, 0.12800000607967377, 0.12800000607967377, 1.0240000486373901, 0.0, 0.0, 0.0, 0.0, 0.0, 1.6518371124041772E9, 0.0, 2022-05-06 12:38:32.404
93.0, -303.33019575616345, -273.87474370514974, -244.7970215496607, -219.3264329014346, 0.12800000607967377, 0.12800000607967377, 1.0240000486373901, 0.0, 0.0, 0.0, 0.0, 0.0, 1.65183711240517E9, 0.0, 2022-05-06 12:38:32.405
93.0, -278.60945704905316, -165.0212155948393, -214.26073841145262, -220.5082412874326, 0.12800000607967377, 0.12800000607967377, 1.0240000486373901, 0.0, 0.0, 0.0, 0.0, 0.0, 1.65183711240517E9, 0.0, 2022-05-06 12:38:32.405
94.0, -208.05624438496307, -51.19362054346129, -127.5960367382504, -164.20404745452106, 0.12800000607967377, 0.12800000607967377, 1.0240000486373901, 0.0, 0.0, 0.0, 0.0, 0.0, 1.6518371124172413E9, 0.0, 2022-05-06 12:38:32.417
94.0, -232.95649828994647, -148.82370888674632, -164.85665999678895, -182.753951234743, 0.12800000607967377, 0.12800000607967377, 1.0240000486373901, 0.0, 0.0, 0.0, 0.0, 0.0, 1.6518371124172413E9, 0.0, 2022-05-06 12:38:32.417
95.0, -322.08205413399264, -281.2348668179475, -260.7364751608111, -237.0797379910946, 0.12800000607967377, 0.12800000607967377, 1.0240000486373901, 0.0, 0.0, 0.0, 0.0, 0.0, 1.651837112433244E9, 0.0, 2022-05-06 12:38:32.433
95.0, -279.21158094191924, -159.91625215532258, -204.77261222386733, -196.19515167549253, 0.12800000607967377, 0.12800000607967377, 1.0240000486373901, 0.0, 0.0, 0.0, 0.0, 0.0, 1.651837112433244E9, 0.0, 2022-05-06 12:38:32.433
96.0, -204.95212742174044, -38.30218539619818, -115.36656388314441, -139.9133972423151, 0.12800000607967377, 0.12800000607967377, 1.0240000486373901, 0.0, 0.0, 0.0, 0.0, 0.0, 1.6518371124341707E9, 0.0, 2022-05-06 12:38:32.434
96.0, -241.4685105890967, -159.8676334558986, -167.39979196665809, -183.1578604299575, 0.12800000607967377, 0.12800000607967377, 1.0240000486373901, 0.0, 0.0, 0.0, 0.0, 0.0, 1.6518371124341707E9, 0.0, 2022-05-06 12:38:32.434
97.0, -303.73410495137796, -273.268879912328, -249.1727044978179, -229.64855677913874, 0.12800000607967377, 0.12800000607967377, 1.0240000486373901, 0.0, 0.0, 0.0, 0.0, 0.0, 1.6518371124472635E9, 0.0, 2022-05-06 12:38:32.447
97.0, -279.4808537387289, -164.5799074000679, -207.17362799542025, -196.1315733762458, 0.12800000607967377, 0.12800000607967377, 1.0240000486373901, 0.0, 0.0, 0.0, 0.0, 0.0, 1.6518371124472635E9, 0.0, 2022-05-06 12:38:32.447
98.0, -204.2228469303809, -38.95666788844392, -112.46440151752904, -140.1826700391248, 0.12800000607967377, 0.12800000607967377, 1.0240000486373901, 0.0, 0.0, 0.0, 0.0, 0.0, 1.6518371124632206E9, 0.0, 2022-05-06 12:38:32.463
98.0, -233.97375107789412, -156.52042299555615, -167.96451685996726, -179.84056916926056, 0.12800000607967377, 0.12800000607967377, 1.0240000486373901, 0.0, 0.0, 0.0, 0.0, 0.0, 1.6518371124632206E9, 0.0, 2022-05-06 12:38:32.463
99.0, -311.92448585433885, -273.6989684072323, -256.78714080760255, -232.0682720504701, 0.12800000607967377, 0.12800000607967377, 1.0240000486373901, 0.0, 0.0, 0.0, 0.0, 0.0, 1.6518371124642615E9, 0.0, 2022-05-06 12:38:32.464
99.0, -289.50752551993355, -169.9466638364829, -215.16579420072958, -211.81297389045358, 0.12800000607967377, 0.12800000607967377, 1.0240000486373901, 0.0, 0.0, 0.0, 0.0, 0.0, 1.6518371124642615E9, 0.0, 2022-05-06 12:38:32.464
100.0, -211.03694464964792, -42.689088044222444, -124.19272777857259, -146.08797206915915, 0.12800000607967377, 0.12800000607967377, 1.0240000486373901, 0.0, 0.0, 0.0, 0.0, 0.0, 1.651837112478226E9, 0.0, 2022-05-06 12:38:32.478
100.0, -248.2115502092056, -160.97090394282714, -170.7320428271778, -181.89751414489, 0.12800000607967377, 0.12800000607967377, 1.0240000486373901, 0.0, 0.0, 0.0, 0.0, 0.0, 1.651837112478226E9, 0.0, 2022-05-06 12:38:32.478
0.0, -308.48377789510414, -271.46624813368544, -253.6157056451775, -240.15954560460523, 0.12800000607967377, 0.12800000607967377, 1.0240000486373901, 0.0, 0.0, 0.0, 0.0, 0.0, 1.651837112479179E9, 0.0, 2022-05-06 12:38:32.479
1.0, -276.38795647537336, -162.74735642177984, -200.51286617433652, -190.83400508901104, 0.12800000607967377, 0.12800000607967377, 1.0240000486373901, 0.0, 0.0, 0.0, 0.0, 0.0, 1.6518371124922793E9, 0.0, 2022-05-06 12:38:32.492
1.0, -202.91014204593375, -39.64480948029086, -106.00185439409688, -129.46224681613967, 0.12800000607967377, 0.12800000607967377, 1.0240000486373901, 0.0, 0.0, 0.0, 0.0, 0.0, 1.6518371124922793E9, 0.0, 2022-05-06 12:38:32.492
2.0, -247.68422431545332, -171.15839142212644, -183.6646168739535, -194.7048015431501, 0.12800000607967377, 0.12800000607967377, 1.0240000486373901, 0.0, 0.0, 0.0, 0.0, 0.0, 1.6518371125082161E9, 0.0, 2022-05-06 12:38:32.508
2.0, -319.0938740693964, -281.87812961032614, -260.9496494582854, -256.1700573149137, 0.12800000607967377, 0.12800000607967377, 1.0240000486373901, 0.0, 0.0, 0.0, 0.0, 0.0, 1.6518371125082161E9, 0.0, 2022-05-06 12:38:32.508
3.0, -280.35599032836035, -164.23209670418873, -212.06915703741834, -207.86550948722288, 0.12800000607967377, 0.12800000607967377, 1.0240000486373901, 0.0, 0.0, 0.0, 0.0, 0.0, 1.6518371125091703E9, 0.0, 2022-05-06 12:38:32.509
3.0, -213.06023052567616, -51.058984145056456, -128.5235319272615, -157.21230448735878, 0.12800000607967377, 0.12800000607967377, 1.0240000486373901, 0.0, 0.0, 0.0, 0.0, 0.0, 1.6518371125091703E9, 0.0, 2022-05-06 12:38:32.509
4.0, -248.48456290597096, -166.5096957772039, -175.75846836762503, -187.771027025301, 0.12800000607967377, 0.12800000607967377, 1.0240000486373901, 0.0, 0.0, 0.0, 0.0, 0.0, 1.6518371125222769E9, 0.0, 2022-05-06 12:38:32.522
4.0, -301.3779679792933, -274.3609306993894, -249.30360099626705, -222.89616740914062, 0.12800000607967377, 0.12800000607967377, 1.0240000486373901, 0.0, 0.0, 0.0, 0.0, 0.0, 1.6518371125222769E9, 0.0, 2022-05-06 12:38:32.522
5.0, -276.0401457794942, -156.95051149046049, -205.44205431593582, -208.34795658150688, 0.12800000607967377, 0.12800000607967377, 1.0240000486373901, 0.0, 0.0, 0.0, 0.0, 0.0, 1.65183711253822E9, 0.0, 2022-05-06 12:38:32.538
5.0, -208.53121167933568, -40.92385526513681, -122.45367429917678, -153.70053842896596, 0.12800000607967377, 0.12800000607967377, 1.0240000486373901, 0.0, 0.0, 0.0, 0.0, 0.0, 1.65183711253822E9, 0.0, 2022-05-06 12:38:32.538
6.0, -240.68313159840181, -160.75398974539712, -165.03617519466206, -181.5515733989887, 0.12800000607967377, 0.12800000607967377, 1.0240000486373901, 0.0, 0.0, 0.0, 0.0, 0.0, 1.651837112539186E9, 0.0, 2022-05-06 12:38:32.539
6.0, -301.6883796756156, -268.20879527227953, -249.37465909542516, -228.2367445458658, 0.12800000607967377, 0.12800000607967377, 1.0240000486373901, 0.0, 0.0, 0.0, 0.0, 0.0, 1.651837112539186E9, 0.0, 2022-05-06 12:38:32.539
7.0, -280.90575562184677, -170.66846452793106, -209.6344821662642, -206.40320860454813, 0.12800000607967377, 0.12800000607967377, 1.0240000486373901, 0.0, 0.0, 0.0, 0.0, 0.0, 1.651837112552227E9, 0.0, 2022-05-06 12:38:32.552
7.0, -225.3869407796301, -57.22607917198911, -124.94070776971057, -151.6809924528934, 0.12800000607967377, 0.12800000607967377, 1.0240000486373901, 0.0, 0.0, 0.0, 0.0, 0.0, 1.651837112552227E9, 0.0, 2022-05-06 12:38:32.552
8.0, -225.76093077519909, -145.6485338243656, -156.16139259980991, -165.81033448548988, 0.12800000607967377, 0.12800000607967377, 1.0240000486373901, 0.0, 0.0, 0.0, 0.0, 0.0, 1.6518371125672445E9, 0.0, 2022-05-06 12:38:32.567
8.0, -289.69452051771805, -255.90078451810405, -238.81318162055686, -211.4558134446852, 0.12800000607967377, 0.12800000607967377, 1.0240000486373901, 0.0, 0.0, 0.0, 0.0, 0.0, 1.6518371125672445E9, 0.0, 2022-05-06 12:38:32.567
9.0, -282.1922812066041, -169.2510424447246, -219.39562105061486, -212.4169677332975, 0.12800000607967377, 0.12800000607967377, 1.0240000486373901, 0.0, 0.0, 0.0, 0.0, 0.0, 1.6518371125832407E9, 0.0, 2022-05-06 12:38:32.583
9.0, -216.81509008118883, -60.84630232909694, -137.21879932424054, -165.07357419421896, 0.12800000607967377, 0.12800000607967377, 1.0240000486373901, 0.0, 0.0, 0.0, 0.0, 0.0, 1.6518371125832407E9, 0.0, 2022-05-06 12:38:32.583
10.0, -246.23688303260133, -152.1671794471331, -165.3540666908957, -187.4045168296434, 0.12800000607967377, 0.12800000607967377, 1.0240000486373901, 0.0, 0.0, 0.0, 0.0, 0.0, 1.6518371125842242E9, 0.0, 2022-05-06 12:38:32.584
10.0, -309.03728308854625, -269.5925582558848, -252.1721042622812, -236.11671375250444, 0.12800000607967377, 0.12800000607967377, 1.0240000486373901, 0.0, 0.0, 0.0, 0.0, 0.0, 1.6518371125842242E9, 0.0, 2022-05-06 12:38:32.584
11.0, -280.5542050260119, -172.23548260936514, -213.01535172620788, -210.61059605469927, 0.12800000607967377, 0.12800000607967377, 1.0240000486373901, 0.0, 0.0, 0.0, 0.0, 0.0, 1.651837112614234E9, 0.0, 2022-05-06 12:38:32.614
11.0, -209.73545946506783, -50.677514349576086, -122.71172739611939, -149.47819137899205, 0.12800000607967377, 0.12800000607967377, 1.0240000486373901, 0.0, 0.0, 0.0, 0.0, 0.0, 1.651837112614234E9, 0.0, 2022-05-06 12:38:32.614
12.0, -234.11960717616603, -148.58435528958216, -162.65759882284328, -177.16841065092012, 0.12800000607967377, 0.12800000607967377, 1.0240000486373901, 0.0, 0.0, 0.0, 0.0, 0.0, 1.6518371126151757E9, 0.0, 2022-05-06 12:38:32.615
12.0, -301.3031699801795, -261.847225447651, -240.04734860593453, -226.82306236261502, 0.12800000607967377, 0.12800000607967377, 1.0240000486373901, 0.0, 0.0, 0.0, 0.0, 0.0, 1.6518371126151757E9, 0.0, 2022-05-06 12:38:32.615
13.0, -285.715266964864, -179.19169652694836, -219.47415894968435, -212.25989193515852, 0.12800000607967377, 0.12800000607967377, 1.0240000486373901, 0.0, 0.0, 0.0, 0.0, 0.0, 1.651837112616192E9, 0.0, 2022-05-06 12:38:32.616
13.0, -213.16868762439117, -54.22667940752581, -129.95591361029074, -163.86184660857543, 0.12800000607967377, 0.12800000607967377, 1.0240000486373901, 0.0, 0.0, 0.0, 0.0, 0.0, 1.651837112616192E9, 0.0, 2022-05-06 12:38:32.616
14.0, -229.13806043518707, -144.57518253708258, -166.28904167981818, -176.18481696257368, 0.12800000607967377, 0.12800000607967377, 1.0240000486373901, 0.0, 0.0, 0.0, 0.0, 0.0, 1.6518371126171813E9, 0.0, 2022-05-06 12:38:32.617
14.0, -296.871388532687, -259.96979566989467, -240.51109620044008, -234.45619817217812, 0.12800000607967377, 0.12800000607967377, 1.0240000486373901, 0.0, 0.0, 0.0, 0.0, 0.0, 1.6518371126171813E9, 0.0, 2022-05-06 12:38:32.617
15.0, -277.1546359662898, -167.2090570689179, -208.70324707729742, -198.93462839303538, 0.12800000607967377, 0.12800000607967377, 1.0240000486373901, 0.0, 0.0, 0.0, 0.0, 0.0, 1.6518371126272156E9, 0.0, 2022-05-06 12:38:32.627
15.0, -209.05105777317658, -52.04631773335859, -124.21142727835104, -153.11337413592264, 0.12800000607967377, 0.12800000607967377, 1.0240000486373901, 0.0, 0.0, 0.0, 0.0, 0.0, 1.6518371126272156E9, 0.0, 2022-05-06 12:38:32.627
16.0, -237.53039593575522, -155.8696804032661, -168.82095394982025, -182.7707807845436, 0.12800000607967377, 0.12800000607967377, 1.0240000486373901, 0.0, 0.0, 0.0, 0.0, 0.0, 1.6518371126422124E9, 0.0, 2022-05-06 12:38:32.642
16.0, -302.59343546489254, -261.4769753520377, -252.9874024526216, -241.30769489100203, 0.12800000607967377, 0.12800000607967377, 1.0240000486373901, 0.0, 0.0, 0.0, 0.0, 0.0, 1.6518371126422124E9, 0.0, 2022-05-06 12:38:32.642
17.0, -281.16380871878937, -174.97308937693015, -211.4146745451726, -208.34795658150688, 0.12800000607967377, 0.12800000607967377, 1.0240000486373901, 0.0, 0.0, 0.0, 0.0, 0.0, 1.651837112658224E9, 0.0, 2022-05-06 12:38:32.658
17.0, -212.34964953409508, -52.49136582808569, -123.61304328544065, -153.06475543649867, 0.12800000607967377, 0.12800000607967377, 1.0240000486373901, 0.0, 0.0, 0.0, 0.0, 0.0, 1.651837112658224E9, 0.0, 2022-05-06 12:38:32.658
18.0, -232.37681379681453, -156.70367809338495, -164.48267000121996, -174.85341257834807, 0.12800000607967377, 0.12800000607967377, 1.0240000486373901, 0.0, 0.0, 0.0, 0.0, 0.0, 1.6518371126591773E9, 0.0, 2022-05-06 12:38:32.659
18.0, -294.59004955971614, -262.30723314220086, -246.5846937284805, -225.70483227586374, 0.12800000607967377, 0.12800000607967377, 1.0240000486373901, 0.0, 0.0, 0.0, 0.0, 0.0, 1.6518371126591773E9, 0.0, 2022-05-06 12:38:32.659
19.0, -276.20470137754455, -165.01747569488361, -202.73436674801633, -201.3319042646326, 0.12800000607967377, 0.12800000607967377, 1.0240000486373901, 0.0, 0.0, 0.0, 0.0, 0.0, 1.6518371126722422E9, 0.0, 2022-05-06 12:38:32.672
19.0, -207.35314319329336, -49.61538276216015, -122.76034609554335, -148.3113425928168, 0.12800000607967377, 0.12800000607967377, 1.0240000486373901, 0.0, 0.0, 0.0, 0.0, 0.0, 1.6518371126722422E9, 0.0, 2022-05-06 12:38:32.672
20.0, -237.19754483969882, -151.67725255293772, -161.12049994105473, -171.2818081206642, 0.12800000607967377, 0.12800000607967377, 1.0240000486373901, 0.0, 0.0, 0.0, 0.0, 0.0, 1.6518371126882305E9, 0.0, 2022-05-06 12:38:32.688
20.0, -293.69995337026194, -256.12517851544544, -231.22866451041773, -215.44254679745063, 0.12800000607967377, 0.12800000607967377, 1.0240000486373901, 0.0, 0.0, 0.0, 0.0, 0.0, 1.6518371126882305E9, 0.0, 2022-05-06 12:38:32.688
21.0, -270.5462327445857, -166.098306782078, -203.51600583875552, -196.45133482245728, 0.12800000607967377, 0.12800000607967377, 1.0240000486373901, 0.0, 0.0, 0.0, 0.0, 0.0, 1.651837112689158E9, 0.0, 2022-05-06 12:38:32.689
21.0, -222.98218510812148, -53.19820691971108, -126.07389745628461, -149.69136567646638, 0.12800000607967377, 0.12800000607967377, 1.0240000486373901, 0.0, 0.0, 0.0, 0.0, 0.0, 1.651837112689158E9, 0.0, 2022-05-06 12:38:32.689
22.0, -238.0988607290201, -152.2419774462469, -166.7677488741465, -186.46954184072092, 0.12800000607967377, 0.12800000607967377, 1.0240000486373901, 0.0, 0.0, 0.0, 0.0, 0.0, 1.6518371127022564E9, 0.0, 2022-05-06 12:38:32.702
22.0, -299.29484370397404, -269.56637895619497, -251.71209656773135, -224.7885567867197, 0.12800000607967377, 0.12800000607967377, 1.0240000486373901, 0.0, 0.0, 0.0, 0.0, 0.0, 1.6518371127022564E9, 0.0, 2022-05-06 12:38:32.702
23.0, -295.3829083503224, -185.39245065348223, -223.1953594055958, -223.26641750475392, 0.12800000607967377, 0.12800000607967377, 1.0240000486373901, 0.0, 0.0, 0.0, 0.0, 0.0, 1.6518371127182453E9, 0.0, 2022-05-06 12:38:32.718
23.0, -221.96119242021814, -70.31572901690379, -138.46044610952958, -168.86209284933284, 0.12800000607967377, 0.12800000607967377, 1.0240000486373901, 0.0, 0.0, 0.0, 0.0, 0.0, 1.6518371127182453E9, 0.0, 2022-05-06 12:38:32.718
24.0, -241.2067175921984, -159.58340105926618, -170.84797972580418, -178.6232317336835, 0.12800000607967377, 0.12800000607967377, 1.0240000486373901, 0.0, 0.0, 0.0, 0.0, 0.0, 1.6518371127192175E9, 0.0, 2022-05-06 12:38:32.719
24.0, -297.6380680236034, -263.7358749252744, -245.78809503791854, -222.7203921112232, 0.12800000607967377, 0.12800000607967377, 1.0240000486373901, 0.0, 0.0, 0.0, 0.0, 0.0, 1.6518371127192175E9, 0.0, 2022-05-06 12:38:32.719
25.0, -271.1034778379835, -149.683885876555, -193.69128865515813, -194.60008434439078, 0.12800000607967377, 0.12800000607967377, 1.0240000486373901, 0.0, 0.0, 0.0, 0.0, 0.0, 1.6518371127482212E9, 0.0, 2022-05-06 12:38:32.748
25.0, -201.4815002628602, -38.111450498458, -106.87699098372832, -133.83418986434117, 0.12800000607967377, 0.12800000607967377, 1.0240000486373901, 0.0, 0.0, 0.0, 0.0, 0.0, 1.6518371127482212E9, 0.0, 2022-05-06 12:38:32.748
26.0, -241.22167719202116, -169.80828753812239, -178.22306243842468, -189.65593660296872, 0.12800000607967377, 0.12800000607967377, 1.0240000486373901, 0.0, 0.0, 0.0, 0.0, 0.0, 1.6518371127491724E9, 0.0, 2022-05-06 12:38:32.749
26.0, -291.4597532968037, -264.0350669217296, -247.13071912201121, -226.52761026611552, 0.12800000607967377, 0.12800000607967377, 1.0240000486373901, 0.0, 0.0, 0.0, 0.0, 0.0, 1.6518371127491724E9, 0.0, 2022-05-06 12:38:32.749
27.0, -268.79969946527854, -147.41002670349553, -193.16770266136155, -188.3694110182114, 0.12800000607967377, 0.12800000607967377, 1.0240000486373901, 0.0, 0.0, 0.0, 0.0, 0.0, 1.6518371127501783E9, 0.0, 2022-05-06 12:38:32.750
27.0, -202.03500545630231, -35.796452425885946, -109.18824915634468, -147.39132720371708, 0.12800000607967377, 0.12800000607967377, 1.0240000486373901, 0.0, 0.0, 0.0, 0.0, 0.0, 1.6518371127501783E9, 0.0, 2022-05-06 12:38:32.750
28.0, -232.4665713957511, -162.70247762231156, -167.38857226679102, -180.75123480847105, 0.12800000607967377, 0.12800000607967377, 1.0240000486373901, 0.0, 0.0, 0.0, 0.0, 0.0, 1.6518371127622256E9, 0.0, 2022-05-06 12:38:32.762
28.0, -309.4187528840266, -275.90924928104505, -253.41749094752595, -239.3517272141762, 0.12800000607967377, 0.12800000607967377, 1.0240000486373901, 0.0, 0.0, 0.0, 0.0, 0.0, 1.6518371127622256E9, 0.0, 2022-05-06 12:38:32.762
29.0, -274.05799880297855, -154.65795281762257, -204.076990832109, -196.43637522263452, 0.12800000607967377, 0.12800000607967377, 1.0240000486373901, 0.0, 0.0, 0.0, 0.0, 0.0, 1.6518371127782724E9, 0.0, 2022-05-06 12:38:32.778
29.0, -209.61578266648576, -44.05415152804926, -118.48564044618979, -143.48313175002113, 0.12800000607967377, 0.12800000607967377, 1.0240000486373901, 0.0, 0.0, 0.0, 0.0, 0.0, 1.6518371127782724E9, 0.0, 2022-05-06 12:38:32.778
30.0, -233.80919547984377, -158.81672156834975, -159.22811056347564, -163.34200051473454, 0.12800000607967377, 0.12800000607967377, 1.0240000486373901, 0.0, 0.0, 0.0, 0.0, 0.0, 1.6518371127791727E9, 0.0, 2022-05-06 12:38:32.779
30.0, -293.1501880767755, -255.16402422683313, -241.4273716895841, -223.28885690448806, 0.12800000607967377, 0.12800000607967377, 1.0240000486373901, 0.0, 0.0, 0.0, 0.0, 0.0, 1.6518371127791727E9, 0.0, 2022-05-06 12:38:32.779
31.0, -262.3969907411374, -140.88390128081664, -192.23272767243907, -193.63519015582278, 0.12800000607967377, 0.12800000607967377, 1.0240000486373901, 0.0, 0.0, 0.0, 0.0, 0.0, 1.6518371127922225E9, 0.0, 2022-05-06 12:38:32.792
31.0, -210.0496110613458, -50.8570295474492, -121.45886091096327, -151.0863483599387, 0.12800000607967377, 0.12800000607967377, 1.0240000486373901, 0.0, 0.0, 0.0, 0.0, 0.0, 1.6518371127922225E9, 0.0, 2022-05-06 12:38:32.792
32.0, -241.85746018448845, -168.49558265367523, -173.85111939022318, -190.65074999118224, 0.12800000607967377, 0.12800000607967377, 1.0240000486373901, 0.0, 0.0, 0.0, 0.0, 0.0, 1.65183711280822E9, 0.0, 2022-05-06 12:38:32.808
32.0, -303.7864635507576, -265.97981489868835, -251.97014966467395, -230.92199271405116, 0.12800000607967377, 0.12800000607967377, 1.0240000486373901, 0.0, 0.0, 0.0, 0.0, 0.0, 1.65183711280822E9, 0.0, 2022-05-06 12:38:32.808
33.0, -269.50654055690393, -146.3890340155922, -195.94270842848346, -192.0719119743444, 0.12800000607967377, 0.12800000607967377, 1.0240000486373901, 0.0, 0.0, 0.0, 0.0, 0.0, 1.6518371128091867E9, 0.0, 2022-05-06 12:38:32.809
33.0, -201.7058942602016, -43.489426634740084, -114.16979589732364, -141.48228527372703, 0.12800000607967377, 0.12800000607967377, 1.0240000486373901, 0.0, 0.0, 0.0, 0.0, 0.0, 1.6518371128091867E9, 0.0, 2022-05-06 12:38:32.809
34.0, -237.0890877409838, -167.16043836949393, -170.31317403214052, -176.05766036408022, 0.12800000607967377, 0.12800000607967377, 1.0240000486373901, 0.0, 0.0, 0.0, 0.0, 0.0, 1.651837112822238E9, 0.0, 2022-05-06 12:38:32.822
34.0, -300.7534046866931, -269.3756440584548, -247.3999919188209, -227.70193885220215, 0.12800000607967377, 0.12800000607967377, 1.0240000486373901, 0.0, 0.0, 0.0, 0.0, 0.0, 1.651837112822238E9, 0.0, 2022-05-06 12:38:32.822
35.0, -266.41738319350407, -145.89536722144112, -196.2942590243183, -191.72784117842093, 0.12800000607967377, 0.12800000607967377, 1.0240000486373901, 0.0, 0.0, 0.0, 0.0, 0.0, 1.6518371128382685E9, 0.0, 2022-05-06 12:38:32.838
35.0, -200.482946974691, -42.49087334657088, -106.59649848705158, -143.33353575179353, 0.12800000607967377, 0.12800000607967377, 1.0240000486373901, 0.0, 0.0, 0.0, 0.0, 0.0, 1.6518371128382685E9, 0.0, 2022-05-06 12:38:32.838
36.0, -234.22806427488104, -168.97054994804785, -167.9084183606319, -181.85450529539958, 0.12800000607967377, 0.12800000607967377, 1.0240000486373901, 0.0, 0.0, 0.0, 0.0, 0.0, 1.65183711283924E9, 0.0, 2022-05-06 12:38:32.839
36.0, -298.0419772188179, -259.12083837995306, -234.16822587559, -217.74632517015561, 0.12800000607967377, 0.12800000607967377, 1.0240000486373901, 0.0, 0.0, 0.0, 0.0, 0.0, 1.65183711283924E9, 0.0, 2022-05-06 12:38:32.839
37.0, -251.4316040710546, -131.91936108702794, -177.38532484835014, -162.58654072368518, 0.12800000607967377, 0.12800000607967377, 1.0240000486373901, 0.0, 0.0, 0.0, 0.0, 0.0, 1.6518371128682332E9, 0.0, 2022-05-06 12:38:32.868
37.0, -196.43263532267883, -39.839284277986735, -114.00150039931759, -136.4521198333241, 0.12800000607967377, 0.12800000607967377, 1.0240000486373901, 0.0, 0.0, 0.0, 0.0, 0.0, 1.6518371128682332E9, 0.0, 2022-05-06 12:38:32.868
38.0, -223.32251600408927, -163.0241090185009, -159.32534796232358, -162.1340128290467, 0.12800000607967377, 0.12800000607967377, 1.0240000486373901, 0.0, 0.0, 0.0, 0.0, 0.0, 1.6518371128692055E9, 0.0, 2022-05-06 12:38:32.869
38.0, -291.564470495563, -266.30518619483337, -256.7273024083115, -253.05472065182403, 0.12800000607967377, 0.12800000607967377, 1.0240000486373901, 0.0, 0.0, 0.0, 0.0, 0.0, 1.6518371128692055E9, 0.0, 2022-05-06 12:38:32.869
39.0, -257.78943399572745, -138.16873391298577, -187.45313552906737, -198.2651863009669, 0.12800000607967377, 0.12800000607967377, 1.0240000486373901, 0.0, 0.0, 0.0, 0.0, 0.0, 1.6518371128702056E9, 0.0, 2022-05-06 12:38:32.870
39.0, -216.9721658793278, -33.855444348882884, -102.14975743973628, -134.17452076030895, 0.12800000607967377, 0.12800000607967377, 1.0240000486373901, 0.0, 0.0, 0.0, 0.0, 0.0, 1.6518371128702056E9, 0.0, 2022-05-06 12:38:32.870
40.0, -253.26041514938697, -172.6543514044024, -184.56967266323045, -206.20873380685225, 0.12800000607967377, 0.12800000607967377, 1.0240000486373901, 0.0, 0.0, 0.0, 0.0, 0.0, 1.6518371128822317E9, 0.0, 2022-05-06 12:38:32.882
40.0, -311.71131155686453, -268.444408969488, -257.9614693936892, -241.73778338590637, 0.12800000607967377, 0.12800000607967377, 1.0240000486373901, 0.0, 0.0, 0.0, 0.0, 0.0, 1.6518371128822317E9, 0.0, 2022-05-06 12:38:32.882
41.0, -274.5217463974841, -145.7569909230806, -203.09339714376256, -197.65558260818943, 0.12800000607967377, 0.12800000607967377, 1.0240000486373901, 0.0, 0.0, 0.0, 0.0, 0.0, 1.6518371128982244E9, 0.0, 2022-05-06 12:38:32.898
41.0, -207.06517089670524, -51.04028464527801, -121.34666391229257, -158.52126947185025, 0.12800000607967377, 0.12800000607967377, 1.0240000486373901, 0.0, 0.0, 0.0, 0.0, 0.0, 1.6518371128982244E9, 0.0, 2022-05-06 12:38:32.898
42.0, -254.72645593201742, -179.71154262078926, -183.16721017984673, -200.28847217699513, 0.12800000607967377, 0.12800000607967377, 1.0240000486373901, 0.0, 0.0, 0.0, 0.0, 0.0, 1.6518371129292493E9, 0.0, 2022-05-06 12:38:32.929
42.0, -308.6034546936862, -272.30398572376, -252.14592496259138, -234.9498649663292, 0.12800000607967377, 0.12800000607967377, 1.0240000486373901, 0.0, 0.0, 0.0, 0.0, 0.0, 1.6518371129292493E9, 0.0, 2022-05-06 12:38:32.929
43.0, -278.1157902549021, -152.73938414035365, -202.31175805302337, -196.60841062059626, 0.12800000607967377, 0.12800000607967377, 1.0240000486373901, 0.0, 0.0, 0.0, 0.0, 0.0, 1.6518371129302216E9, 0.0, 2022-05-06 12:38:32.930
43.0, -215.8988145920448, -54.58944970322773, -125.34835686488077, -160.32764115044847, 0.12800000607967377, 0.12800000607967377, 1.0240000486373901, 0.0, 0.0, 0.0, 0.0, 0.0, 1.6518371129302216E9, 0.0, 2022-05-06 12:38:32.930
44.0, -250.7285028793849, -182.81565958401188, -183.90397047111765, -193.31729865958914, 0.12800000607967377, 0.12800000607967377, 1.0240000486373901, 0.0, 0.0, 0.0, 0.0, 0.0, 1.6518371129312167E9, 0.0, 2022-05-06 12:38:32.931
44.0, -309.800222679507, -273.79620580608025, -254.56938013387844, -230.19271222269163, 0.12800000607967377, 0.12800000607967377, 1.0240000486373901, 0.0, 0.0, 0.0, 0.0, 0.0, 1.6518371129312167E9, 0.0, 2022-05-06 12:38:32.931
45.0, -269.7084951545112, -146.96123870881274, -198.75137329520658, -194.24853374855593, 0.12800000607967377, 0.12800000607967377, 1.0240000486373901, 0.0, 0.0, 0.0, 0.0, 0.0, 1.65183711293226E9, 0.0, 2022-05-06 12:38:32.932
45.0, -213.64739481871948, -47.098430091980845, -111.73512102616951, -141.7889570700936, 0.12800000607967377, 0.12800000607967377, 1.0240000486373901, 0.0, 0.0, 0.0, 0.0, 0.0, 1.65183711293226E9, 0.0, 2022-05-06 12:38:32.932
46.0, -258.952542881947, -179.5507269226946, -191.365070882719, -199.87708318186924, 0.12800000607967377, 0.12800000607967377, 1.0240000486373901, 0.0, 0.0, 0.0, 0.0, 0.0, 1.6518371129422655E9, 0.0, 2022-05-06 12:38:32.942
46.0, -310.3612076728605, -274.2636933005415, -261.12916465615854, -238.84310082020238, 0.12800000607967377, 0.12800000607967377, 1.0240000486373901, 0.0, 0.0, 0.0, 0.0, 0.0, 1.6518371129422655E9, 0.0, 2022-05-06 12:38:32.942
47.0, -282.6448091012426, -162.9829701189883, -204.8960289224051, -196.3690570234321, 0.12800000607967377, 0.12800000607967377, 1.0240000486373901, 0.0, 0.0, 0.0, 0.0, 0.0, 1.65183711295825E9, 0.0, 2022-05-06 12:38:32.958
47.0, -212.09907623706385, -55.513204992283136, -127.97750653373078, -151.80814905138686, 0.12800000607967377, 0.12800000607967377, 1.0240000486373901, 0.0, 0.0, 0.0, 0.0, 0.0, 1.65183711295825E9, 0.0, 2022-05-06 12:38:32.958
48.0, -247.23917622072622, -167.59052686439827, -174.90951107768342, -179.74146182043478, 0.12800000607967377, 0.12800000607967377, 1.0240000486373901, 0.0, 0.0, 0.0, 0.0, 0.0, 1.651837112959277E9, 0.0, 2022-05-06 12:38:32.959
48.0, -306.70358551619574, -261.0618464569561, -243.12154636951163, -229.0557826361619, 0.12800000607967377, 0.12800000607967377, 1.0240000486373901, 0.0, 0.0, 0.0, 0.0, 0.0, 1.651837112959277E9, 0.0, 2022-05-06 12:38:32.959
49.0, -281.6799149126746, -163.63371271127835, -209.7840781644918, -209.6718811658211, 0.12800000607967377, 0.12800000607967377, 1.0240000486373901, 0.0, 0.0, 0.0, 0.0, 0.0, 1.651837112972239E9, 0.0, 2022-05-06 12:38:32.972
49.0, -218.3821081626229, -58.26203145971522, -124.24134647799656, -160.79138874495402, 0.12800000607967377, 0.12800000607967377, 1.0240000486373901, 0.0, 0.0, 0.0, 0.0, 0.0, 1.651837112972239E9, 0.0, 2022-05-06 12:38:32.972
50.0, -237.42193883704022, -158.4315118729137, -163.203624216374, -170.283254832495, 0.12800000607967377, 0.12800000607967377, 1.0240000486373901, 0.0, 0.0, 0.0, 0.0, 0.0, 1.651837112988286E9, 0.0, 2022-05-06 12:38:32.988
50.0, -290.865109203849, -250.96785647654906, -233.73065758077428, -213.38560182182118, 0.12800000607967377, 0.12800000607967377, 1.0240000486373901, 0.0, 0.0, 0.0, 0.0, 0.0, 1.651837112988286E9, 0.0, 2022-05-06 12:38:32.988
51.0, -287.84327003965154, -159.15331256436184, -203.10087694367394, -196.76174651877955, 0.12800000607967377, 0.12800000607967377, 1.0240000486373901, 0.0, 0.0, 0.0, 0.0, 0.0, 1.651837112989156E9, 0.0, 2022-05-06 12:38:32.989
51.0, -220.54751023696736, -58.003978362772614, -128.97605982189998, -159.5796611593105, 0.12800000607967377, 0.12800000607967377, 1.0240000486373901, 0.0, 0.0, 0.0, 0.0, 0.0, 1.651837112989156E9, 0.0, 2022-05-06 12:38:32.989
52.0, -251.04639437561855, -171.5062021180056, -181.87694469513372, -203.44120783964172, 0.12800000607967377, 0.12800000607967377, 1.0240000486373901, 0.0, 0.0, 0.0, 0.0, 0.0, 1.6518371130022564E9, 0.0, 2022-05-06 12:38:33.002
52.0, -311.681392357219, -271.9636548277922, -257.31072680139914, -239.8753132079728, 0.12800000607967377, 0.12800000607967377, 1.0240000486373901, 0.0, 0.0, 0.0, 0.0, 0.0, 1.6518371130022564E9, 0.0, 2022-05-06 12:38:33.002
53.0, -283.8490568869747, -157.6835318817757, -209.88879536325112, -196.54857222130522, 0.12800000607967377, 0.12800000607967377, 1.0240000486373901, 0.0, 0.0, 0.0, 0.0, 0.0, 1.6518371130182254E9, 0.0, 2022-05-06 12:38:33.018
53.0, -220.40165413869545, -53.68439391395077, -126.3768293526955, -158.2781759747304, 0.12800000607967377, 0.12800000607967377, 1.0240000486373901, 0.0, 0.0, 0.0, 0.0, 0.0, 1.6518371130182254E9, 0.0, 2022-05-06 12:38:33.018
54.0, -253.585786445532, -165.14463229337707, -171.87271231366321, -184.59585196292028, 0.12800000607967377, 0.12800000607967377, 1.0240000486373901, 0.0, 0.0, 0.0, 0.0, 0.0, 1.6518371130191655E9, 0.0, 2022-05-06 12:38:33.019
54.0, -302.84774866187945, -258.3728583888151, -239.62100001098588, -215.12839520117268, 0.12800000607967377, 0.12800000607967377, 1.0240000486373901, 0.0, 0.0, 0.0, 0.0, 0.0, 1.6518371130191655E9, 0.0, 2022-05-06 12:38:33.019
55.0, -279.54443203797564, -154.08200822444633, -197.01231981581077, -198.61673689680174, 0.12800000607967377, 0.12800000607967377, 1.0240000486373901, 0.0, 0.0, 0.0, 0.0, 0.0, 1.6518371130322337E9, 0.0, 2022-05-06 12:38:33.032
55.0, -220.91028053266928, -57.3420160706155, -130.6777143017389, -170.1411386341788, 0.12800000607967377, 0.12800000607967377, 1.0240000486373901, 0.0, 0.0, 0.0, 0.0, 0.0, 1.6518371130322337E9, 0.0, 2022-05-06 12:38:33.032
56.0, -253.6979834442027, -171.5810001171194, -178.2529816380702, -195.34806433552876, 0.12800000607967377, 0.12800000607967377, 1.0240000486373901, 0.0, 0.0, 0.0, 0.0, 0.0, 1.6518371130482829E9, 0.0, 2022-05-06 12:38:33.048
56.0, -309.32525538513437, -262.0603997451253, -243.5441550645046, -235.2378372629173, 0.12800000607967377, 0.12800000607967377, 1.0240000486373901, 0.0, 0.0, 0.0, 0.0, 0.0, 1.6518371130482829E9, 0.0, 2022-05-06 12:38:33.048
57.0, -278.0409922557883, -153.4611848318018, -194.38691004691646, -192.02703317487612, 0.12800000607967377, 0.12800000607967377, 1.0240000486373901, 0.0, 0.0, 0.0, 0.0, 0.0, 1.6518371130492432E9, 0.0, 2022-05-06 12:38:33.049
57.0, -205.415875016246, -43.511866034474224, -120.075097927358, -142.32002286380157, 0.12800000607967377, 0.12800000607967377, 1.0240000486373901, 0.0, 0.0, 0.0, 0.0, 0.0, 1.6518371130492432E9, 0.0, 2022-05-06 12:38:33.049
58.0, -252.18706386210397, -169.10892624640837, -183.75063457293436, -203.1195764434524, 0.12800000607967377, 0.12800000607967377, 1.0240000486373901, 0.0, 0.0, 0.0, 0.0, 0.0, 1.6518371130622663E9, 0.0, 2022-05-06 12:38:33.062
58.0, -315.99723690608516, -271.16331623727456, -260.1044320682995, -246.33786033140495, 0.12800000607967377, 0.12800000607967377, 1.0240000486373901, 0.0, 0.0, 0.0, 0.0, 0.0, 1.6518371130622663E9, 0.0, 2022-05-06 12:38:33.062
59.0, -284.5259787789546, -159.01119636604562, -202.73062684806064, -193.90072305267677, 0.12800000607967377, 0.12800000607967377, 1.0240000486373901, 0.0, 0.0, 0.0, 0.0, 0.0, 1.6518371130782795E9, 0.0, 2022-05-06 12:38:33.078
59.0, -219.69107314711437, -60.60694873193279, -131.20130029553548, -153.48736413149163, 0.12800000607967377, 0.12800000607967377, 1.0240000486373901, 0.0, 0.0, 0.0, 0.0, 0.0, 1.6518371130782795E9, 0.0, 2022-05-06 12:38:33.078
60.0, -250.81452057836577, -169.18746414547786, -180.75871460838243, -189.86911090044305, 0.12800000607967377, 0.12800000607967377, 1.0240000486373901, 0.0, 0.0, 0.0, 0.0, 0.0, 1.65183711307918E9, 0.0, 2022-05-06 12:38:33.079
60.0, -303.951019148808, -259.0236009811051, -244.3183143553324, -225.73849137546495, 0.12800000607967377, 0.12800000607967377, 1.0240000486373901, 0.0, 0.0, 0.0, 0.0, 0.0, 1.65183711307918E9, 0.0, 2022-05-06 12:38:33.079
61.0, -268.7398610659875, -151.18732565874234, -188.81819901289418, -189.35300470655784, 0.12800000607967377, 0.12800000607967377, 1.0240000486373901, 0.0, 0.0, 0.0, 0.0, 0.0, 1.651837113092244E9, 0.0, 2022-05-06 12:38:33.092
61.0, -204.4846399272792, -48.1156828799285, -111.32373203104362, -140.11348188994452, 0.12800000607967377, 0.12800000607967377, 1.0240000486373901, 0.0, 0.0, 0.0, 0.0, 0.0, 1.651837113092244E9, 0.0, 2022-05-06 12:38:33.092
62.0, -254.4721427350305, -166.25538258021697, -173.24151569744572, -185.16431675618514, 0.12800000607967377, 0.12800000607967377, 1.0240000486373901, 0.0, 0.0, 0.0, 0.0, 0.0, 1.651837113108219E9, 0.0, 2022-05-06 12:38:33.108
62.0, -315.78406260861084, -266.5221003922634, -253.70546324411407, -236.44208504864946, 0.12800000607967377, 0.12800000607967377, 1.0240000486373901, 0.0, 0.0, 0.0, 0.0, 0.0, 1.651837113108219E9, 0.0, 2022-05-06 12:38:33.108
63.0, -284.05475138453767, -156.85701399156824, -201.556298261974, -207.18484769528732, 0.12800000607967377, 0.12800000607967377, 1.0240000486373901, 0.0, 0.0, 0.0, 0.0, 0.0, 1.651837113109176E9, 0.0, 2022-05-06 12:38:33.109
63.0, -217.92958026798442, -56.294844083022326, -125.38949576439336, -153.21809133468196, 0.12800000607967377, 0.12800000607967377, 1.0240000486373901, 0.0, 0.0, 0.0, 0.0, 0.0, 1.651837113109176E9, 0.0, 2022-05-06 12:38:33.109
64.0, -246.2518426324241, -168.41704475460574, -173.6977834920399, -193.7436472545378, 0.12800000607967377, 0.12800000607967377, 1.0240000486373901, 0.0, 0.0, 0.0, 0.0, 0.0, 1.6518371131222117E9, 0.0, 2022-05-06 12:38:33.122
64.0, -302.189526269678, -265.8489184002392, -252.26934166112915, -234.2392839747481, 0.12800000607967377, 0.12800000607967377, 1.0240000486373901, 0.0, 0.0, 0.0, 0.0, 0.0, 1.6518371131222117E9, 0.0, 2022-05-06 12:38:33.122
