%OpenBCI Raw EEG Data
%Number of channels = 4
%Sample Rate = 200 Hz
%Board = OpenBCI_GUI$BoardGanglionBLE
Sample Index, EXG Channel 0, EXG Channel 1, EXG Channel 2, EXG Channel 3, Accel Channel 0, Accel Channel 1, Accel Channel 2, Other, Other, Other, Other, Other, Timestamp, Other, Timestamp (Formatted)
70.0, -31.86394762247801, -104.26467086467892, -66.23362821526825, -57.56828001793474, 0.0, 0.0, 1.0240000486373901, 0.0, 0.0, 0.0, 0.0, 0.0, 1.6518370362923765E9, 0.0, 2022-05-06 12:37:16.292
70.0, 189.22023825813085, 26.1606001900509, 91.3021776182577, 117.52261620759964, 0.0, 0.0, 1.0240000486373901, 0.0, 0.0, 0.0, 0.0, 0.0, 1.6518370362923765E9, 0.0, 2022-05-06 12:37:16.292
0.0, -311.12975711375475, -239.13294306676835, -248.69960715342313, -229.609287829604, 0.0, 0.0, 1.0240000486373901, 0.0, 0.0, 0.0, 0.0, 0.0, 1.651837036336378E9, 0.0, 2022-05-06 12:37:16.336
1.0, -245.90216198656708, -85.27345888968557, -142.16107711568475, -174.40462458366528, 0.0, 0.12800000607967377, 1.0240000486373901, 0.0, 0.0, 0.0, 0.0, 0.0, 1.6518370363373432E9, 0.0, 2022-05-06 12:37:16.337
1.0, -209.22122322116047, -82.32641772460192, -117.39545960910618, -153.88379352679476, 0.0, 0.12800000607967377, 1.0240000486373901, 0.0, 0.0, 0.0, 0.0, 0.0, 1.6518370363373432E9, 0.0, 2022-05-06 12:37:16.337
2.0, -277.85586720798165, -233.9681412279606, -217.56867992226034, -212.03175803786144, 0.12800000607967377, 0.12800000607967377, 1.0240000486373901, 0.0, 0.0, 0.0, 0.0, 0.0, 1.6518370363523448E9, 0.0, 2022-05-06 12:37:16.352
2.0, -308.859637840651, -227.64771030284464, -244.20798730663955, -230.25255062198266, 0.12800000607967377, 0.12800000607967377, 1.0240000486373901, 0.0, 0.0, 0.0, 0.0, 0.0, 1.6518370363523448E9, 0.0, 2022-05-06 12:37:16.352
3.0, -234.2187145249918, -76.20046159718186, -142.9614157062024, -160.3874795497395, 0.12800000607967377, 0.12800000607967377, 1.0240000486373901, 0.0, 0.0, 0.0, 0.0, 0.0, 1.6518370363543377E9, 0.0, 2022-05-06 12:37:16.354
3.0, -212.92372417729348, -76.13314339797944, -110.28964969329536, -144.6761598358862, 0.12800000607967377, 0.12800000607967377, 1.0240000486373901, 0.0, 0.0, 0.0, 0.0, 0.0, 1.6518370363543377E9, 0.0, 2022-05-06 12:37:16.354
4.0, -291.805694042705, -235.41922241076827, -228.37699079420418, -220.52133093727753, 0.12800000607967377, 0.12800000607967377, 1.0240000486373901, 0.0, 0.0, 0.0, 0.0, 0.0, 1.6518370363654697E9, 0.0, 2022-05-06 12:37:16.365
4.0, -313.8823234811425, -234.65628281980753, -242.779345523566, -218.98423205548897, 0.12800000607967377, 0.12800000607967377, 1.0240000486373901, 0.0, 0.0, 0.0, 0.0, 0.0, 1.6518370363654697E9, 0.0, 2022-05-06 12:37:16.365
5.0, -240.32597115263343, -76.2565600965172, -143.0698728049174, -160.75398974539712, 0.12800000607967377, 0.12800000607967377, 1.0240000486373901, 0.0, 0.0, 0.0, 0.0, 0.0, 1.6518370363814392E9, 0.0, 2022-05-06 12:37:16.381
5.0, -214.57675995770842, -87.43512106407434, -129.80818756204098, -161.84978043241426, 0.12800000607967377, 0.12800000607967377, 1.0240000486373901, 0.0, 0.0, 0.0, 0.0, 0.0, 1.6518370363814392E9, 0.0, 2022-05-06 12:37:16.381
6.0, -295.45209649950266, -240.34467065241188, -231.45866835769266, -232.40299309650436, 0.12800000607967377, 0.12800000607967377, 1.0240000486373901, 0.0, 0.0, 0.0, 0.0, 0.0, 1.6518370363823457E9, 0.0, 2022-05-06 12:37:16.382
6.0, -312.8164519937709, -233.32113853562623, -247.42430126853287, -238.51024972414598, 0.12800000607967377, 0.12800000607967377, 1.0240000486373901, 0.0, 0.0, 0.0, 0.0, 0.0, 1.6518370363823457E9, 0.0, 2022-05-06 12:37:16.382
7.0, -249.25685224682093, -86.14111567940563, -148.4403691412881, -167.60548646422103, 0.12800000607967377, 0.12800000607967377, 1.0240000486373901, 0.0, 0.0, 0.0, 0.0, 0.0, 1.6518370364123943E9, 0.0, 2022-05-06 12:37:16.412
7.0, -216.656144333072, -81.90006912965328, -119.82265468034893, -144.16753344191238, 0.12800000607967377, 0.12800000607967377, 1.0240000486373901, 0.0, 0.0, 0.0, 0.0, 0.0, 1.6518370364123943E9, 0.0, 2022-05-06 12:37:16.412
8.0, -284.7372831264511, -237.8202381823212, -223.93772954680026, -212.12899543670937, 0.12800000607967377, 0.12800000607967377, 1.0240000486373901, 0.0, 0.0, 0.0, 0.0, 0.0, 1.6518370364133935E9, 0.0, 2022-05-06 12:37:16.413
8.0, -304.20720229577273, -225.61320472694933, -237.8164982823655, -218.8682951568626, 0.12800000607967377, 0.12800000607967377, 1.0240000486373901, 0.0, 0.0, 0.0, 0.0, 0.0, 1.6518370364133935E9, 0.0, 2022-05-06 12:37:16.413
9.0, -243.5235856147483, -81.33908413629979, -148.38801054190844, -167.74386276258156, 0.12800000607967377, 0.12800000607967377, 1.0240000486373901, 0.0, 0.0, 0.0, 0.0, 0.0, 1.6518370364143407E9, 0.0, 2022-05-06 12:37:16.414
9.0, -220.74011508468539, -97.07658314984292, -130.08120025880635, -165.44008438987657, 0.12800000607967377, 0.12800000607967377, 1.0240000486373901, 0.0, 0.0, 0.0, 0.0, 0.0, 1.6518370364143407E9, 0.0, 2022-05-06 12:37:16.414
10.0, -294.0720734158531, -241.40306233987212, -236.5524120973423, -231.82330860337242, 0.12800000607967377, 0.12800000607967377, 1.0240000486373901, 0.0, 0.0, 0.0, 0.0, 0.0, 1.6518370364253788E9, 0.0, 2022-05-06 12:37:16.425
10.0, -307.7040087543428, -229.24464758392423, -239.20774106588215, -224.59034208906814, 0.12800000607967377, 0.12800000607967377, 1.0240000486373901, 0.0, 0.0, 0.0, 0.0, 0.0, 1.6518370364253788E9, 0.0, 2022-05-06 12:37:16.425
11.0, -239.0731046674773, -76.24534039665014, -141.2522814264521, -163.67111171083525, 0.12800000607967377, 0.06400000303983688, 1.0240000486373901, 0.0, 0.0, 0.0, 0.0, 0.0, 1.6518370364413865E9, 0.0, 2022-05-06 12:37:16.441
11.0, -227.1802228083834, -105.08370895497501, -136.46146958321333, -151.51643685484305, 0.12800000607967377, 0.06400000303983688, 1.0240000486373901, 0.0, 0.0, 0.0, 0.0, 0.0, 1.6518370364413865E9, 0.0, 2022-05-06 12:37:16.441
12.0, -289.8385066660121, -252.1178757129237, -229.4428622815758, -205.42335481615737, 0.06400000303983688, 0.06400000303983688, 1.0240000486373901, 0.0, 0.0, 0.0, 0.0, 0.0, 1.6518370364423354E9, 0.0, 2022-05-06 12:37:16.442
12.0, -293.63450512103736, -200.03976882994175, -229.97392807528377, -218.24373186426237, 0.06400000303983688, 0.06400000303983688, 1.0240000486373901, 0.0, 0.0, 0.0, 0.0, 0.0, 1.6518370364423354E9, 0.0, 2022-05-06 12:37:16.442
13.0, -218.4325968120247, -41.688664806075394, -115.18891863524914, -141.639361071866, 0.06400000303983688, 0.06400000303983688, 1.0240000486373901, 0.0, 0.0, 0.0, 0.0, 0.0, 1.6518370364553833E9, 0.0, 2022-05-06 12:37:16.455
13.0, -226.57061911560595, -114.33996134530753, -138.3575988607481, -166.18806438101456, 0.06400000303983688, 0.06400000303983688, 1.0240000486373901, 0.0, 0.0, 0.0, 0.0, 0.0, 1.6518370364553833E9, 0.0, 2022-05-06 12:37:16.455
14.0, -295.45583639945835, -264.96443206071854, -238.3326044762507, -226.20971876988187, 0.06400000303983688, 0.06400000303983688, 1.0240000486373901, 0.0, 0.0, 0.0, 0.0, 0.0, 1.6518370364714022E9, 0.0, 2022-05-06 12:37:16.471
14.0, -299.0386605570093, -207.19793734513223, -225.1457172324881, -216.21670608827844, 0.06400000303983688, 0.06400000303983688, 1.0240000486373901, 0.0, 0.0, 0.0, 0.0, 0.0, 1.6518370364714022E9, 0.0, 2022-05-06 12:37:16.471
15.0, -223.4403228526935, -48.02779523096979, -127.33237379137427, -144.642500736285, 0.06400000303983688, 0.06400000303983688, 1.0240000486373901, 0.0, 0.0, 0.0, 0.0, 0.0, 1.6518370364723692E9, 0.0, 2022-05-06 12:37:16.472
15.0, -225.72540172562003, -119.23923028726131, -139.64412444550544, -170.48520943010226, 0.06400000303983688, 0.06400000303983688, 1.0240000486373901, 0.0, 0.0, 0.0, 0.0, 0.0, 1.6518370364723692E9, 0.0, 2022-05-06 12:37:16.472
16.0, -302.6327044144273, -273.19221196323633, -244.84377029910684, -219.59009584831074, 0.06400000303983688, 0.06400000303983688, 1.0240000486373901, 0.0, 0.0, 0.0, 0.0, 0.0, 1.651837036485386E9, 0.0, 2022-05-06 12:37:16.485
16.0, -303.070272709243, -205.60100006405264, -230.32173877116293, -217.18908007675782, 0.06400000303983688, 0.06400000303983688, 1.0240000486373901, 0.0, 0.0, 0.0, 0.0, 0.0, 1.651837036485386E9, 0.0, 2022-05-06 12:37:16.485
17.0, -216.8767984304577, -40.74994991719723, -119.59452078305185, -142.36490166326985, 0.06400000303983688, 0.06400000303983688, 1.0240000486373901, 0.0, 0.0, 0.0, 0.0, 0.0, 1.6518370365014524E9, 0.0, 2022-05-06 12:37:16.501
17.0, -218.9935818053782, -115.02062313724309, -132.15310483425856, -158.28565577464178, 0.06400000303983688, 0.06400000303983688, 1.0240000486373901, 0.0, 0.0, 0.0, 0.0, 0.0, 1.6518370365014524E9, 0.0, 2022-05-06 12:37:16.501
18.0, -294.3189068129286, -263.42733317893, -244.38750250451267, -222.99340480798855, 0.06400000303983688, 0.06400000303983688, 1.0240000486373901, 0.0, 0.0, 0.0, 0.0, 0.0, 1.6518370365023875E9, 0.0, 2022-05-06 12:37:16.502
18.0, -308.2649937476963, -209.1763444216922, -235.9989069039002, -231.66997270518914, 0.06400000303983688, 0.06400000303983688, 1.0240000486373901, 0.0, 0.0, 0.0, 0.0, 0.0, 1.6518370365023875E9, 0.0, 2022-05-06 12:37:16.502
19.0, -218.9973217053339, -41.90183910354972, -118.83906099200249, -144.58266233699396, 0.06400000303983688, 0.06400000303983688, 1.0240000486373901, 0.0, 0.0, 0.0, 0.0, 0.0, 1.651837036515452E9, 0.0, 2022-05-06 12:37:16.515
19.0, -209.08284692279994, -107.49968432635069, -114.32126184552908, -136.597975931596, 0.06400000303983688, 0.06400000303983688, 1.0240000486373901, 0.0, 0.0, 0.0, 0.0, 0.0, 1.651837036515452E9, 0.0, 2022-05-06 12:37:16.515
20.0, -300.57201953884214, -274.78540934436023, -246.45940707996488, -232.23095769854262, 0.06400000303983688, 0.06400000303983688, 0.5120000243186951, 0.0, 0.0, 0.0, 0.0, 0.0, 1.6518370365314376E9, 0.0, 2022-05-06 12:37:16.531
20.0, -301.3760980293155, -203.37201969046146, -234.38701002299786, -227.9749515489675, 0.06400000303983688, 0.06400000303983688, 0.5120000243186951, 0.0, 0.0, 0.0, 0.0, 0.0, 1.6518370365314376E9, 0.0, 2022-05-06 12:37:16.531
21.0, -230.6994686666876, -54.41180445533246, -135.02160810027272, -165.08853379404172, 0.06400000303983688, 0.09600000455975533, 0.5120000243186951, 0.0, 0.0, 0.0, 0.0, 0.0, 1.6518370365323863E9, 0.0, 2022-05-06 12:37:16.532
21.0, -233.17154253739864, -131.22186974529177, -154.5139666693285, -174.82723327865824, 0.06400000303983688, 0.09600000455975533, 0.5120000243186951, 0.0, 0.0, 0.0, 0.0, 0.0, 1.6518370365323863E9, 0.0, 2022-05-06 12:37:16.532
22.0, -306.7391145657748, -277.6576525103301, -249.16335474792868, -230.48442441923544, 0.09600000455975533, 0.09600000455975533, 0.5120000243186951, 0.0, 0.0, 0.0, 0.0, 0.0, 1.6518370365453901E9, 0.0, 2022-05-06 12:37:16.545
22.0, -289.6851707678288, -193.2742898100987, -226.36118471808732, -212.05793733755127, 0.09600000455975533, 0.09600000455975533, 0.5120000243186951, 0.0, 0.0, 0.0, 0.0, 0.0, 1.6518370365453901E9, 0.0, 2022-05-06 12:37:16.545
23.0, -209.90562491305172, -29.706025348044932, -108.0157905202359, -137.40205442206934, 0.09600000455975533, 0.09600000455975533, 0.5120000243186951, 0.0, 0.0, 0.0, 0.0, 0.0, 1.651837036561385E9, 0.0, 2022-05-06 12:37:16.561
23.0, -229.05765258613974, -129.22850306890905, -149.2893264312297, -165.92253148416057, 0.09600000455975533, 0.09600000455975533, 0.5120000243186951, 0.0, 0.0, 0.0, 0.0, 0.0, 1.651837036561385E9, 0.0, 2022-05-06 12:37:16.561
24.0, -307.19538236036897, -285.01029582321644, -251.14176182448864, -230.4619850195013, 0.09600000455975533, 0.09600000455975533, 0.5120000243186951, 0.0, 0.0, 0.0, 0.0, 0.0, 1.65183703656234E9, 0.0, 2022-05-06 12:37:16.562
24.0, -299.3266328535974, -203.36827979050577, -229.82807197701186, -219.1188684538938, 0.09600000455975533, 0.09600000455975533, 0.5120000243186951, 0.0, 0.0, 0.0, 0.0, 0.0, 1.65183703656234E9, 0.0, 2022-05-06 12:37:16.562
25.0, -219.15439750347286, -43.96626387909055, -122.81083474494517, -155.35731410933658, 0.09600000455975533, 0.09600000455975533, 0.5120000243186951, 0.0, 0.0, 0.0, 0.0, 0.0, 1.6518370365754168E9, 0.0, 2022-05-06 12:37:16.575
25.0, -223.67219664994627, -123.77198903355747, -143.9150901949033, -161.22895703976974, 0.09600000455975533, 0.09600000455975533, 0.5120000243186951, 0.0, 0.0, 0.0, 0.0, 0.0, 1.6518370365754168E9, 0.0, 2022-05-06 12:37:16.575
26.0, -301.4022773290053, -278.92547859530896, -248.3742358572781, -227.76925705140457, 0.09600000455975533, 0.09600000455975533, 0.5120000243186951, 0.0, 0.0, 0.0, 0.0, 0.0, 1.651837036591462E9, 0.0, 2022-05-06 12:37:16.591
26.0, -288.67539777979255, -189.51943025458604, -223.82927244808525, -208.57609047880396, 0.09600000455975533, 0.09600000455975533, 0.5120000243186951, 0.0, 0.0, 0.0, 0.0, 0.0, 1.651837036591462E9, 0.0, 2022-05-06 12:37:16.591
27.0, -211.37540559563786, -31.40767982788384, -109.41077320370823, -141.7852171701379, 0.09600000455975533, 0.09600000455975533, 0.5120000243186951, 0.0, 0.0, 0.0, 0.0, 0.0, 1.6518370365923436E9, 0.0, 2022-05-06 12:37:16.592
27.0, -223.01771415770054, -125.31282781530172, -132.96092322468758, -151.2808231576346, 0.09600000455975533, 0.09600000455975533, 0.5120000243186951, 0.0, 0.0, 0.0, 0.0, 0.0, 1.6518370365923436E9, 0.0, 2022-05-06 12:37:16.592
28.0, -292.19838353805244, -258.6402612356469, -231.93363565206528, -207.18110779533163, 0.09600000455975533, 0.09600000455975533, 0.5120000243186951, 0.0, 0.0, 0.0, 0.0, 0.0, 1.651837036605396E9, 0.0, 2022-05-06 12:37:16.605
28.0, -280.1633854806423, -181.72547874692827, -215.56035364605486, -201.87044985825196, 0.09600000455975533, 0.09600000455975533, 0.5120000243186951, 0.0, 0.0, 0.0, 0.0, 0.0, 1.651837036605396E9, 0.0, 2022-05-06 12:37:16.605
29.0, -206.139545657672, -28.464378562755883, -119.31028838641942, -152.88150033866987, 0.09600000455975533, 0.09600000455975533, 0.5120000243186951, 0.0, 0.0, 0.0, 0.0, 0.0, 1.6518370366213956E9, 0.0, 2022-05-06 12:37:16.621
29.0, -224.218222043477, -135.38063849601895, -153.05540568660945, -181.02424750523642, 0.09600000455975533, 0.09600000455975533, 0.5120000243186951, 0.0, 0.0, 0.0, 0.0, 0.0, 1.6518370366213956E9, 0.0, 2022-05-06 12:37:16.621
30.0, -316.5189529499039, -282.10813345760107, -252.10665601305664, -240.9486644952558, 0.09600000455975533, 0.09600000455975533, 0.7680000364780426, 0.0, 0.0, 0.0, 0.0, 0.0, 1.6518370366224E9, 0.0, 2022-05-06 12:37:16.622
30.0, -299.82403954770416, -190.62644064147025, -219.442369800061, -200.19871457805857, 0.09600000455975533, 0.09600000455975533, 0.7680000364780426, 0.0, 0.0, 0.0, 0.0, 0.0, 1.6518370366224E9, 0.0, 2022-05-06 12:37:16.622
31.0, -222.35201196558774, -43.48381678480655, -133.34239302016795, -170.66472462797537, 0.09600000455975533, 0.11200000531971455, 0.7680000364780426, 0.0, 0.0, 0.0, 0.0, 0.0, 1.6518370366354077E9, 0.0, 2022-05-06 12:37:16.635
31.0, -225.26165413111448, -126.90228529646993, -144.15070389211178, -178.59331253403798, 0.09600000455975533, 0.11200000531971455, 0.7680000364780426, 0.0, 0.0, 0.0, 0.0, 0.0, 1.6518370366354077E9, 0.0, 2022-05-06 12:37:16.635
32.0, -307.64791025500745, -279.8454939844087, -252.18145401217043, -234.35896077333018, 0.11200000531971455, 0.11200000531971455, 0.7680000364780426, 0.0, 0.0, 0.0, 0.0, 0.0, 1.6518370366514497E9, 0.0, 2022-05-06 12:37:16.651
32.0, -305.8415385764092, -203.36827979050577, -235.80069220624864, -231.647533305455, 0.11200000531971455, 0.11200000531971455, 0.7680000364780426, 0.0, 0.0, 0.0, 0.0, 0.0, 1.6518370366514497E9, 0.0, 2022-05-06 12:37:16.651
33.0, -212.30664068460464, -37.279322758316994, -122.59766044747084, -153.49110403144732, 0.11200000531971455, 0.11200000531971455, 0.7680000364780426, 0.0, 0.0, 0.0, 0.0, 0.0, 1.6518370366523695E9, 0.0, 2022-05-06 12:37:16.652
33.0, -224.56603273935616, -132.90108482539654, -145.4409693768248, -165.9449708838947, 0.11200000531971455, 0.11200000531971455, 0.7680000364780426, 0.0, 0.0, 0.0, 0.0, 0.0, 1.6518370366523695E9, 0.0, 2022-05-06 12:37:16.652
34.0, -303.444262704812, -274.95744474232197, -245.31125779356807, -226.36305466806516, 0.11200000531971455, 0.11200000531971455, 0.7680000364780426, 0.0, 0.0, 0.0, 0.0, 0.0, 1.651837036665394E9, 0.0, 2022-05-06 12:37:16.665
34.0, -280.4962365766987, -179.4964983733371, -207.12313934601843, -188.0290801222436, 0.11200000531971455, 0.11200000531971455, 0.7680000364780426, 0.0, 0.0, 0.0, 0.0, 0.0, 1.651837036665394E9, 0.0, 2022-05-06 12:37:16.665
35.0, -210.5114887058735, -30.270750241354108, -114.0519890487194, -153.73793742852286, 0.11200000531971455, 0.11200000531971455, 0.7680000364780426, 0.0, 0.0, 0.0, 0.0, 0.0, 1.6518370366814554E9, 0.0, 2022-05-06 12:37:16.681
35.0, -223.6946360496804, -125.54844151251018, -142.75946110859513, -161.6889647343196, 0.11200000531971455, 0.11200000531971455, 0.7680000364780426, 0.0, 0.0, 0.0, 0.0, 0.0, 1.6518370366814554E9, 0.0, 2022-05-06 12:37:16.681
36.0, -296.52918768674135, -271.03428968880326, -240.80467834696174, -224.89327398547903, 0.11200000531971455, 0.11200000531971455, 0.7680000364780426, 0.0, 0.0, 0.0, 0.0, 0.0, 1.6518370366823304E9, 0.0, 2022-05-06 12:37:16.682
36.0, -284.1688183331862, -182.1219081422314, -220.9570292821154, -207.454120492097, 0.11200000531971455, 0.11200000531971455, 0.7680000364780426, 0.0, 0.0, 0.0, 0.0, 0.0, 1.6518370366823304E9, 0.0, 2022-05-06 12:37:16.682
37.0, -211.89151178952307, -31.34036162868142, -111.50885707885027, -138.54272390855476, 0.11200000531971455, 0.11200000531971455, 0.7680000364780426, 0.0, 0.0, 0.0, 0.0, 0.0, 1.651837036695415E9, 0.0, 2022-05-06 12:37:16.695
37.0, -224.37903774157166, -129.325740467757, -147.49791435245425, -162.1377527290024, 0.11200000531971455, 0.11200000531971455, 0.7680000364780426, 0.0, 0.0, 0.0, 0.0, 0.0, 1.651837036695415E9, 0.0, 2022-05-06 12:37:16.695
38.0, -304.27078059501946, -271.58779488224536, -242.73446672409773, -226.88290076190606, 0.11200000531971455, 0.11200000531971455, 0.7680000364780426, 0.0, 0.0, 0.0, 0.0, 0.0, 1.6518370367114332E9, 0.0, 2022-05-06 12:37:16.711
38.0, -289.8497263658792, -184.70243911165744, -218.64203120954335, -215.5697033959441, 0.11200000531971455, 0.11200000531971455, 0.7680000364780426, 0.0, 0.0, 0.0, 0.0, 0.0, 1.6518370367114332E9, 0.0, 2022-05-06 12:37:16.711
39.0, -213.5482874698937, -40.58165441919118, -125.82893400918692, -161.78620213316754, 0.11200000531971455, 0.11200000531971455, 0.7680000364780426, 0.0, 0.0, 0.0, 0.0, 0.0, 1.651837036712376E9, 0.0, 2022-05-06 12:37:16.712
39.0, -242.52877222653478, -151.75392050202936, -163.47850686311722, -185.3625314538367, 0.11200000531971455, 0.11200000531971455, 0.7680000364780426, 0.0, 0.0, 0.0, 0.0, 0.0, 1.651837036712376E9, 0.0, 2022-05-06 12:37:16.712
40.0, -313.5494723850861, -284.22865673247725, -251.62420891877264, -227.54486305406317, 0.11200000531971455, 0.11200000531971455, 0.8960000425577164, 0.0, 0.0, 0.0, 0.0, 0.0, 1.6518370367253876E9, 0.0, 2022-05-06 12:37:16.725
40.0, -292.4826159346849, -181.9049939448014, -221.86956487130374, -217.22273917635903, 0.11200000531971455, 0.11200000531971455, 0.8960000425577164, 0.0, 0.0, 0.0, 0.0, 0.0, 1.6518370367253876E9, 0.0, 2022-05-06 12:37:16.725
41.0, -217.9202305180952, -39.657899130135775, -127.19025759305805, -158.93265846697614, 0.11200000531971455, 0.11200000531971455, 0.8960000425577164, 0.0, 0.0, 0.0, 0.0, 0.0, 1.6518370367413993E9, 0.0, 2022-05-06 12:37:16.741
41.0, -232.97332783974707, -146.4731817645952, -153.04418598674238, -164.15729870507494, 0.11200000531971455, 0.11200000531971455, 0.8960000425577164, 0.0, 0.0, 0.0, 0.0, 0.0, 1.6518370367413993E9, 0.0, 2022-05-06 12:37:16.741
42.0, -306.5820387676358, -293.7691415194422, -263.9770984724164, -236.56176184723154, 0.11200000531971455, 0.11200000531971455, 0.8960000425577164, 0.0, 0.0, 0.0, 0.0, 0.0, 1.6518370367423391E9, 0.0, 2022-05-06 12:37:16.742
42.0, -292.75188873149455, -196.13905317615718, -226.5893186153844, -215.7828776934184, 0.11200000531971455, 0.11200000531971455, 0.8960000425577164, 0.0, 0.0, 0.0, 0.0, 0.0, 1.6518370367423391E9, 0.0, 2022-05-06 12:37:16.742
43.0, -205.55238136462867, -33.973251197487116, -113.3152287574485, -140.73430528258905, 0.11200000531971455, 0.11200000531971455, 0.8960000425577164, 0.0, 0.0, 0.0, 0.0, 0.0, 1.651837036755404E9, 0.0, 2022-05-06 12:37:16.755
43.0, -226.73143481370062, -143.52240069955587, -156.79904554225504, -172.30654070852324, 0.11200000531971455, 0.11200000531971455, 0.8960000425577164, 0.0, 0.0, 0.0, 0.0, 0.0, 1.651837036755404E9, 0.0, 2022-05-06 12:37:16.755
44.0, -293.93369711749256, -269.6542666051537, -242.61105002555996, -221.5311039253138, 0.11200000531971455, 0.11200000531971455, 0.8960000425577164, 0.0, 0.0, 0.0, 0.0, 0.0, 1.6518370367714283E9, 0.0, 2022-05-06 12:37:16.771
44.0, -281.3526736665517, -174.9674795269966, -213.9895956646651, -205.17278151912615, 0.11200000531971455, 0.11200000531971455, 0.8960000425577164, 0.0, 0.0, 0.0, 0.0, 0.0, 1.6518370367714283E9, 0.0, 2022-05-06 12:37:16.771
45.0, -214.23268916178495, -37.04370906110853, -121.03812216594815, -151.2060251585208, 0.11200000531971455, 0.11200000531971455, 0.8960000425577164, 0.0, 0.0, 0.0, 0.0, 0.0, 1.6518370367724128E9, 0.0, 2022-05-06 12:37:16.772
45.0, -227.43453600537032, -143.14841070398688, -151.78383970167488, -168.08793355850503, 0.11200000531971455, 0.11200000531971455, 0.8960000425577164, 0.0, 0.0, 0.0, 0.0, 0.0, 1.6518370367724128E9, 0.0, 2022-05-06 12:37:16.772
46.0, -305.83779867645353, -279.9389914833009, -246.35468988120556, -215.83149639284238, 0.11200000531971455, 0.11200000531971455, 0.8960000425577164, 0.0, 0.0, 0.0, 0.0, 0.0, 1.6518370367854075E9, 0.0, 2022-05-06 12:37:16.785
46.0, -282.4596840534359, -172.03913786169142, -216.97029592934996, -210.3450631578453, 0.11200000531971455, 0.11200000531971455, 0.8960000425577164, 0.0, 0.0, 0.0, 0.0, 0.0, 1.6518370367854075E9, 0.0, 2022-05-06 12:37:16.785
47.0, -205.2868484677747, -27.095575178973377, -104.23849156498909, -129.3051710180007, 0.11200000531971455, 0.11200000531971455, 0.8960000425577164, 0.0, 0.0, 0.0, 0.0, 0.0, 1.6518370368014197E9, 0.0, 2022-05-06 12:37:16.801
47.0, -216.4728892352432, -126.48715640138835, -146.1440705684945, -166.70791047485545, 0.11200000531971455, 0.11200000531971455, 0.8960000425577164, 0.0, 0.0, 0.0, 0.0, 0.0, 1.6518370368014197E9, 0.0, 2022-05-06 12:37:16.801
48.0, -296.26739468984306, -274.1346667520702, -253.07155020162463, -234.2729430743493, 0.11200000531971455, 0.11200000531971455, 0.8960000425577164, 0.0, 0.0, 0.0, 0.0, 0.0, 1.6518370368023558E9, 0.0, 2022-05-06 12:37:16.802
48.0, -293.361492424272, -182.8250093339011, -231.7055017547682, -215.01619820250198, 0.11200000531971455, 0.11200000531971455, 0.8960000425577164, 0.0, 0.0, 0.0, 0.0, 0.0, 1.6518370368023558E9, 0.0, 2022-05-06 12:37:16.802
49.0, -217.31810662522912, -35.83946127537638, -120.51827607210726, -139.62729489570484, 0.11200000531971455, 0.11200000531971455, 0.8960000425577164, 0.0, 0.0, 0.0, 0.0, 0.0, 1.6518370368154004E9, 0.0, 2022-05-06 12:37:16.815
49.0, -239.9706806568429, -152.50938029307872, -165.50927253905684, -186.697675738018, 0.11200000531971455, 0.11200000531971455, 0.8960000425577164, 0.0, 0.0, 0.0, 0.0, 0.0, 1.6518370368154004E9, 0.0, 2022-05-06 12:37:16.815
50.0, -308.7399610420689, -286.67829120345414, -255.382808374241, -243.51797576481476, 0.11200000531971455, 0.11200000531971455, 0.9600000455975533, 0.0, 0.0, 0.0, 0.0, 0.0, 1.6518370368314416E9, 0.0, 2022-05-06 12:37:16.831
50.0, -273.087494764477, -167.4914195155725, -201.9433779073879, -198.02583270380273, 0.11200000531971455, 0.11200000531971455, 0.9600000455975533, 0.0, 0.0, 0.0, 0.0, 0.0, 1.6518370368314416E9, 0.0, 2022-05-06 12:37:16.831
51.0, -205.174651469104, -27.667779872193933, -115.10290093626827, -148.98826448479667, 0.11200000531971455, 0.11200000531971455, 0.9600000455975533, 0.0, 0.0, 0.0, 0.0, 0.0, 1.6518370368323576E9, 0.0, 2022-05-06 12:37:16.832
51.0, -241.5638780379668, -147.53157345205545, -159.57405130937696, -174.70755648007616, 0.11200000531971455, 0.11200000531971455, 0.9600000455975533, 0.0, 0.0, 0.0, 0.0, 0.0, 1.6518370368323576E9, 0.0, 2022-05-06 12:37:16.832
52.0, -294.93225040566176, -270.55184259451926, -233.1902420371771, -209.58960336679593, 0.12800000607967377, 0.11200000531971455, 0.9600000455975533, 0.0, 0.0, 0.0, 0.0, 0.0, 1.6518370368453908E9, 0.0, 2022-05-06 12:37:16.845
52.0, -274.84898764360696, -175.65188121888787, -219.34139250125736, -199.55171188572422, 0.12800000607967377, 0.11200000531971455, 0.9600000455975533, 0.0, 0.0, 0.0, 0.0, 0.0, 1.6518370368453908E9, 0.0, 2022-05-06 12:37:16.845
53.0, -199.4264252372086, -27.36858787573874, -113.6817389531061, -139.3767215986736, 0.12800000607967377, 0.11200000531971455, 0.9600000455975533, 0.0, 0.0, 0.0, 0.0, 0.0, 1.651837036861404E9, 0.0, 2022-05-06 12:37:16.861
53.0, -227.3634779062122, -142.85295860748738, -157.69288163166493, -168.5816003526561, 0.12800000607967377, 0.11200000531971455, 0.9600000455975533, 0.0, 0.0, 0.0, 0.0, 0.0, 1.651837036861404E9, 0.0, 2022-05-06 12:37:16.861
54.0, -295.1753439027816, -276.3973062252626, -252.4507268089801, -226.72956486372277, 0.12800000607967377, 0.11200000531971455, 0.9600000455975533, 0.0, 0.0, 0.0, 0.0, 0.0, 1.6518370368624766E9, 0.0, 2022-05-06 12:37:16.862
54.0, -282.1043935576454, -166.31709092948586, -208.19649063330144, -199.75366648333147, 0.12800000607967377, 0.11200000531971455, 0.9600000455975533, 0.0, 0.0, 0.0, 0.0, 0.0, 1.6518370368624766E9, 0.0, 2022-05-06 12:37:16.862
55.0, -195.41725248470902, -21.36978834681213, -102.71261238306761, -136.29130413522944, 0.12800000607967377, 0.11200000531971455, 0.9600000455975533, 0.0, 0.0, 0.0, 0.0, 0.0, 1.6518370368924048E9, 0.0, 2022-05-06 12:37:16.892
55.0, -230.11604427359998, -149.76429372560233, -162.23312017787248, -181.05790660483763, 0.12800000607967377, 0.11200000531971455, 0.9600000455975533, 0.0, 0.0, 0.0, 0.0, 0.0, 1.6518370368924048E9, 0.0, 2022-05-06 12:37:16.892
56.0, -318.97980712074786, -287.16073829773813, -261.3554286034778, -241.90607888391241, 0.12800000607967377, 0.11200000531971455, 0.9600000455975533, 0.0, 0.0, 0.0, 0.0, 0.0, 1.651837036893341E9, 0.0, 2022-05-06 12:37:16.893
56.0, -274.0860480526462, -161.0026930924505, -197.54899545945227, -181.11026520421728, 0.12800000607967377, 0.11200000531971455, 0.9600000455975533, 0.0, 0.0, 0.0, 0.0, 0.0, 1.651837036893341E9, 0.0, 2022-05-06 12:37:16.893
57.0, -200.241723427549, -29.212358553893864, -111.63227377738804, -150.40194666804746, 0.12800000607967377, 0.11200000531971455, 0.9600000455975533, 0.0, 0.0, 0.0, 0.0, 0.0, 1.6518370368943644E9, 0.0, 2022-05-06 12:37:16.894
57.0, -241.57135783787817, -149.8839705241844, -165.53545183874667, -177.2918273494579, 0.12800000607967377, 0.11200000531971455, 0.9600000455975533, 0.0, 0.0, 0.0, 0.0, 0.0, 1.6518370368943644E9, 0.0, 2022-05-06 12:37:16.894
58.0, -318.6806151242927, -291.6860172441229, -265.5366367539391, -243.394559066277, 0.12800000607967377, 0.11200000531971455, 0.9600000455975533, 0.0, 0.0, 0.0, 0.0, 0.0, 1.6518370369054084E9, 0.0, 2022-05-06 12:37:16.905
58.0, -282.08569405786693, -171.26123867090791, -214.74131555575877, -204.32008432922885, 0.12800000607967377, 0.11200000531971455, 0.9600000455975533, 0.0, 0.0, 0.0, 0.0, 0.0, 1.6518370369054084E9, 0.0, 2022-05-06 12:37:16.905
59.0, -219.30773340165615, -37.182085359469056, -130.00640225969255, -167.64288546377793, 0.12800000607967377, 0.11200000531971455, 0.9600000455975533, 0.0, 0.0, 0.0, 0.0, 0.0, 1.6518370369214065E9, 0.0, 2022-05-06 12:37:16.921
59.0, -240.90939554572105, -156.06602515093982, -165.02308554481715, -186.17408974422142, 0.12800000607967377, 0.11200000531971455, 0.9600000455975533, 0.0, 0.0, 0.0, 0.0, 0.0, 1.6518370369214065E9, 0.0, 2022-05-06 12:37:16.921
60.0, -311.91139620449394, -289.2139433734119, -265.6525736525655, -238.33821432618424, 0.12800000607967377, 0.11200000531971455, 0.9920000471174717, 0.0, 0.0, 0.0, 0.0, 0.0, 1.6518370369223433E9, 0.0, 2022-05-06 12:37:16.922
60.0, -285.97519001178443, -166.88181582279503, -200.6493725227192, -196.63832982024178, 0.12800000607967377, 0.11200000531971455, 0.9920000471174717, 0.0, 0.0, 0.0, 0.0, 0.0, 1.6518370369223433E9, 0.0, 2022-05-06 12:37:16.922
61.0, -209.67001121584326, -26.755244283005595, -109.26117720548064, -137.29733722331002, 0.12800000607967377, 0.11200000531971455, 0.9920000471174717, 0.0, 0.0, 0.0, 0.0, 0.0, 1.6518370369353983E9, 0.0, 2022-05-06 12:37:16.935
61.0, -237.76039978303015, -156.49985354579985, -165.06048454437405, -187.0006076344289, 0.12800000607967377, 0.11200000531971455, 0.9920000471174717, 0.0, 0.0, 0.0, 0.0, 0.0, 1.6518370369353983E9, 0.0, 2022-05-06 12:37:16.935
62.0, -307.5469329562038, -279.310688290745, -249.69816044159234, -236.3897264492698, 0.12800000607967377, 0.11200000531971455, 0.9920000471174717, 0.0, 0.0, 0.0, 0.0, 0.0, 1.6518370369514678E9, 0.0, 2022-05-06 12:37:16.951
62.0, -293.60832582134753, -166.05155803263187, -210.41799120698124, -206.24987270636484, 0.12800000607967377, 0.11200000531971455, 0.9920000471174717, 0.0, 0.0, 0.0, 0.0, 0.0, 1.6518370369514678E9, 0.0, 2022-05-06 12:37:16.951
63.0, -207.81876073777676, -31.067348931916058, -111.40787978004664, -147.25295090535656, 0.12800000607967377, 0.11200000531971455, 0.9920000471174717, 0.0, 0.0, 0.0, 0.0, 0.0, 1.6518370369523356E9, 0.0, 2022-05-06 12:37:16.952
63.0, -239.9295417573303, -154.76453996635973, -156.36521714739501, -175.97538256505504, 0.12800000607967377, 0.11200000531971455, 0.9920000471174717, 0.0, 0.0, 0.0, 0.0, 0.0, 1.6518370369523356E9, 0.0, 2022-05-06 12:37:16.952
64.0, -314.75746007077396, -285.0925736222416, -255.88395496830344, -228.43121934356168, 0.12800000607967377, 0.11200000531971455, 0.9920000471174717, 0.0, 0.0, 0.0, 0.0, 0.0, 1.6518370369654868E9, 0.0, 2022-05-06 12:37:16.965
64.0, -286.5885336045176, -162.02742568030953, -209.55033441726118, -197.262893112842, 0.12800000607967377, 0.11200000531971455, 0.9920000471174717, 0.0, 0.0, 0.0, 0.0, 0.0, 1.6518370369654868E9, 0.0, 2022-05-06 12:37:16.965
65.0, -206.5097957532853, -30.285709841176867, -108.76377051137388, -138.32206981116906, 0.12800000607967377, 0.11200000531971455, 0.9920000471174717, 0.0, 0.0, 0.0, 0.0, 0.0, 1.6518370369814146E9, 0.0, 2022-05-06 12:37:16.981
65.0, -235.0414925152436, -143.56727949902415, -146.86587125994265, -165.84399358509108, 0.12800000607967377, 0.11200000531971455, 0.9920000471174717, 0.0, 0.0, 0.0, 0.0, 0.0, 1.6518370369814146E9, 0.0, 2022-05-06 12:37:16.981
66.0, -307.87230425234884, -276.5319426236674, -246.98299307376146, -229.0557826361619, 0.12800000607967377, 0.11200000531971455, 0.9920000471174717, 0.0, 0.0, 0.0, 0.0, 0.0, 1.6518370369823332E9, 0.0, 2022-05-06 12:37:16.982
66.0, -287.9124581888318, -171.32855687011033, -216.70102313254029, -207.84680998744443, 0.12800000607967377, 0.11200000531971455, 0.9920000471174717, 0.0, 0.0, 0.0, 0.0, 0.0, 1.6518370369823332E9, 0.0, 2022-05-06 12:37:16.982
67.0, -203.73852988611907, -37.83656785171479, -117.56749500706792, -148.03085009614006, 0.12800000607967377, 0.11200000531971455, 0.9920000471174717, 0.0, 0.0, 0.0, 0.0, 0.0, 1.6518370369954114E9, 0.0, 2022-05-06 12:37:16.995
67.0, -258.70009963493794, -173.69965344201773, -174.74308552965522, -184.1470639682375, 0.12800000607967377, 0.11200000531971455, 0.9920000471174717, 0.0, 0.0, 0.0, 0.0, 0.0, 1.6518370369954114E9, 0.0, 2022-05-06 12:37:16.995
68.0, -321.32472439296544, -289.4271176708862, -261.7817771984264, -241.82754098484293, 0.12800000607967377, 0.11200000531971455, 0.9920000471174717, 0.0, 0.0, 0.0, 0.0, 0.0, 1.6518370370114317E9, 0.0, 2022-05-06 12:37:17.011
68.0, -294.2067098142579, -169.0023390976712, -218.19698311481625, -210.5582374553196, 0.12800000607967377, 0.11200000531971455, 0.9920000471174717, 0.0, 0.0, 0.0, 0.0, 0.0, 1.6518370370114317E9, 0.0, 2022-05-06 12:37:17.011
69.0, -214.4757826589048, -26.57198918517679, -111.30690248124301, -148.84988818643615, 0.12800000607967377, 0.11200000531971455, 0.9920000471174717, 0.0, 0.0, 0.0, 0.0, 0.0, 1.6518370370123744E9, 0.0, 2022-05-06 12:37:17.012
69.0, -231.297852659598, -147.27352035511285, -150.13828372117132, -160.90358574362472, 0.12800000607967377, 0.11200000531971455, 0.9920000471174717, 0.0, 0.0, 0.0, 0.0, 0.0, 1.6518370370123744E9, 0.0, 2022-05-06 12:37:17.012
70.0, -310.4528352217749, -280.90014577191323, -256.32900306303054, -235.86614045547321, 0.12800000607967377, 0.11200000531971455, 1.008000047877431, 0.0, 0.0, 0.0, 0.0, 0.0, 1.651837037025392E9, 0.0, 2022-05-06 12:37:17.025
70.0, -271.3783604847267, -160.0415388038382, -205.75433596223593, -195.91278922883794, 0.12800000607967377, 0.11200000531971455, 1.008000047877431, 0.0, 0.0, 0.0, 0.0, 0.0, 1.651837037025392E9, 0.0, 2022-05-06 12:37:17.025
71.0, -227.08298540953547, -42.60494029521942, -122.19749115221202, -162.88573272014037, 0.12800000607967377, 0.12800000607967377, 1.008000047877431, 0.0, 0.0, 0.0, 0.0, 0.0, 1.6518370370414047E9, 0.0, 2022-05-06 12:37:17.041
71.0, -256.4449399616569, -168.08606360852718, -171.73620596528053, -185.033420257736, 0.12800000607967377, 0.12800000607967377, 1.008000047877431, 0.0, 0.0, 0.0, 0.0, 0.0, 1.6518370370414047E9, 0.0, 2022-05-06 12:37:17.041
72.0, -321.4930198909715, -292.7780680311844, -261.2020927052945, -239.41156561346725, 0.12800000607967377, 0.12800000607967377, 1.008000047877431, 0.0, 0.0, 0.0, 0.0, 0.0, 1.6518370370423348E9, 0.0, 2022-05-06 12:37:17.042
72.0, -286.62967250403017, -160.4117888994515, -203.07656759396195, -202.16590195475146, 0.12800000607967377, 0.12800000607967377, 1.008000047877431, 0.0, 0.0, 0.0, 0.0, 0.0, 1.6518370370423348E9, 0.0, 2022-05-06 12:37:17.042
73.0, -220.34368568938226, -33.03827620856464, -117.96766430232674, -150.95545186148956, 0.12800000607967377, 0.12800000607967377, 1.008000047877431, 0.0, 0.0, 0.0, 0.0, 0.0, 1.651837037055405E9, 0.0, 2022-05-06 12:37:17.055
73.0, -243.3328507170081, -159.87324330583215, -162.17702167853713, -177.6171986456029, 0.12800000607967377, 0.12800000607967377, 1.008000047877431, 0.0, 0.0, 0.0, 0.0, 0.0, 1.651837037055405E9, 0.0, 2022-05-06 12:37:17.055
74.0, -317.8129583345726, -289.12418577447534, -258.6776602352038, -236.10923395259306, 0.12800000607967377, 0.12800000607967377, 1.008000047877431, 0.0, 0.0, 0.0, 0.0, 0.0, 1.6518370370714097E9, 0.0, 2022-05-06 12:37:17.071
74.0, -268.66319311689585, -143.45882240030915, -187.10345488321036, -178.36891853669658, 0.12800000607967377, 0.12800000607967377, 1.008000047877431, 0.0, 0.0, 0.0, 0.0, 0.0, 1.6518370370714097E9, 0.0, 2022-05-06 12:37:17.071
75.0, -196.71499776933342, -18.400307781994343, -91.14884172007442, -111.59300482785329, 0.12800000607967377, 0.12800000607967377, 1.008000047877431, 0.0, 0.0, 0.0, 0.0, 0.0, 1.6518370370723724E9, 0.0, 2022-05-06 12:37:17.072
75.0, -240.4119888516143, -152.662716191262, -156.08472465071827, -168.47688315389678, 0.12800000607967377, 0.12800000607967377, 1.008000047877431, 0.0, 0.0, 0.0, 0.0, 0.0, 1.6518370370723724E9, 0.0, 2022-05-06 12:37:17.072
76.0, -309.28224653564394, -274.6133739463985, -247.28592497017235, -236.43834514869377, 0.12800000607967377, 0.12800000607967377, 1.008000047877431, 0.0, 0.0, 0.0, 0.0, 0.0, 1.6518370370854352E9, 0.0, 2022-05-06 12:37:17.085
76.0, -286.1360057098791, -155.94260845240206, -210.87051910161972, -209.54846446728334, 0.12800000607967377, 0.12800000607967377, 1.008000047877431, 0.0, 0.0, 0.0, 0.0, 0.0, 1.6518370370854352E9, 0.0, 2022-05-06 12:37:17.085
77.0, -218.1446245154366, -49.59855321235955, -122.37326645012945, -156.7597765927203, 0.12800000607967377, 0.12800000607967377, 1.008000047877431, 0.0, 0.0, 0.0, 0.0, 0.0, 1.651837037101448E9, 0.0, 2022-05-06 12:37:17.101
77.0, -257.3425159510225, -164.58551725000143, -170.76383197680116, -190.46749489335343, 0.12800000607967377, 0.12800000607967377, 1.008000047877431, 0.0, 0.0, 0.0, 0.0, 0.0, 1.651837037101448E9, 0.0, 2022-05-06 12:37:17.101
78.0, -306.72041506599635, -272.1637394754216, -238.68415507208556, -215.69685999443755, 0.12800000607967377, 0.12800000607967377, 1.008000047877431, 0.0, 0.0, 0.0, 0.0, 0.0, 1.651837037102342E9, 0.0, 2022-05-06 12:37:17.102
78.0, -286.0948668103665, -167.88784891087562, -208.4657634301111, -200.8868561699055, 0.12800000607967377, 0.12800000607967377, 1.008000047877431, 0.0, 0.0, 0.0, 0.0, 0.0, 1.651837037102342E9, 0.0, 2022-05-06 12:37:17.102
79.0, -216.53646753448993, -38.004863349720836, -108.96946500893682, -141.51220447337255, 0.12800000607967377, 0.12800000607967377, 1.008000047877431, 0.0, 0.0, 0.0, 0.0, 0.0, 1.6518370371323912E9, 0.0, 2022-05-06 12:37:17.132
79.0, -239.14042286667973, -149.23322793189436, -161.88156958203763, -171.00505552394316, 0.12800000607967377, 0.12800000607967377, 1.008000047877431, 0.0, 0.0, 0.0, 0.0, 0.0, 1.6518370371323912E9, 0.0, 2022-05-06 12:37:17.132
80.0, -298.6983296610415, -268.0498495241627, -244.09205040801316, -232.9490184900351, 0.12800000607967377, 0.12800000607967377, 1.008000047877431, 0.0, 0.0, 0.0, 0.0, 0.0, 1.6518370371333284E9, 0.0, 2022-05-06 12:37:17.133
80.0, -293.57092682179064, -172.31215055845678, -208.58918012864888, -207.3381835934706, 0.12800000607967377, 0.12800000607967377, 1.008000047877431, 0.0, 0.0, 0.0, 0.0, 0.0, 1.6518370371333284E9, 0.0, 2022-05-06 12:37:17.133
81.0, -224.52115393988788, -45.4659637613222, -123.95524413138628, -145.40918022720143, 0.12800000607967377, 0.12800000607967377, 1.008000047877431, 0.0, 0.0, 0.0, 0.0, 0.0, 1.6518370371343272E9, 0.0, 2022-05-06 12:37:17.134
81.0, -243.54602501448244, -155.68829525541514, -167.23336641862988, -191.14067688537762, 0.12800000607967377, 0.12800000607967377, 1.008000047877431, 0.0, 0.0, 0.0, 0.0, 0.0, 1.6518370371343272E9, 0.0, 2022-05-06 12:37:17.134
82.0, -320.1129968073219, -276.3823466254398, -250.6368753304705, -230.5031239190139, 0.12800000607967377, 0.12800000607967377, 1.008000047877431, 0.0, 0.0, 0.0, 0.0, 0.0, 1.6518370371454384E9, 0.0, 2022-05-06 12:37:17.145
82.0, -277.66887221019715, -153.893143276684, -193.02745641302317, -176.48774885898456, 0.12800000607967377, 0.12800000607967377, 1.008000047877431, 0.0, 0.0, 0.0, 0.0, 0.0, 1.6518370371454384E9, 0.0, 2022-05-06 12:37:17.145
83.0, -221.92566337063909, -48.080153830349445, -126.82748729735613, -163.3532202146016, 0.12800000607967377, 0.12800000607967377, 1.008000047877431, 0.0, 0.0, 0.0, 0.0, 0.0, 1.6518370371613889E9, 0.0, 2022-05-06 12:37:17.161
83.0, -246.264932282269, -161.43278158735484, -167.38670231681317, -188.23103471985087, 0.12800000607967377, 0.12800000607967377, 1.008000047877431, 0.0, 0.0, 0.0, 0.0, 0.0, 1.6518370371613889E9, 0.0, 2022-05-06 12:37:17.161
84.0, -324.77291215211153, -294.15061131492257, -267.96383182518184, -245.70955713884905, 0.12800000607967377, 0.12800000607967377, 1.008000047877431, 0.0, 0.0, 0.0, 0.0, 0.0, 1.6518370371623397E9, 0.0, 2022-05-06 12:37:17.162
84.0, -281.7565828617662, -153.06662538647652, -203.63755258731544, -201.35808356432244, 0.12800000607967377, 0.12800000607967377, 1.008000047877431, 0.0, 0.0, 0.0, 0.0, 0.0, 1.6518370371623397E9, 0.0, 2022-05-06 12:37:17.162
85.0, -205.8029546616599, -31.882647122256458, -108.74881091155112, -141.58326257253066, 0.12800000607967377, 0.12800000607967377, 1.008000047877431, 0.0, 0.0, 0.0, 0.0, 0.0, 1.6518370371753795E9, 0.0, 2022-05-06 12:37:17.175
85.0, -239.6303497608751, -160.2584530012682, -162.16954187862575, -181.2935203020461, 0.12800000607967377, 0.12800000607967377, 1.008000047877431, 0.0, 0.0, 0.0, 0.0, 0.0, 1.6518370371753795E9, 0.0, 2022-05-06 12:37:17.175
86.0, -324.83649045135826, -284.04166173469275, -258.1316348416731, -234.7179911690764, 0.12800000607967377, 0.12800000607967377, 1.008000047877431, 0.0, 0.0, 0.0, 0.0, 0.0, 1.6518370371914053E9, 0.0, 2022-05-06 12:37:17.191
86.0, -282.18667135667056, -151.12935720942914, -203.31218129117042, -190.45627519348636, 0.12800000607967377, 0.12800000607967377, 1.008000047877431, 0.0, 0.0, 0.0, 0.0, 0.0, 1.6518370371914053E9, 0.0, 2022-05-06 12:37:17.191
87.0, -205.33546716719866, -24.286910312250257, -102.09552889037877, -133.5985761671327, 0.12800000607967377, 0.12800000607967377, 1.008000047877431, 0.0, 0.0, 0.0, 0.0, 0.0, 1.6518370371923723E9, 0.0, 2022-05-06 12:37:17.192
87.0, -244.3388838050887, -167.99256610963494, -169.342669993639, -184.20690236752853, 0.12800000607967377, 0.12800000607967377, 1.008000047877431, 0.0, 0.0, 0.0, 0.0, 0.0, 1.6518370371923723E9, 0.0, 2022-05-06 12:37:17.192
88.0, -313.9197224806994, -282.92717154789716, -252.3759288098663, -231.87566720275208, 0.12800000607967377, 0.12800000607967377, 1.008000047877431, 0.0, 0.0, 0.0, 0.0, 0.0, 1.6518370372053845E9, 0.0, 2022-05-06 12:37:17.205
88.0, -268.73425121605396, -140.33600593730807, -193.14339331164956, -186.08807204524055, 0.12800000607967377, 0.12800000607967377, 1.008000047877431, 0.0, 0.0, 0.0, 0.0, 0.0, 1.6518370372053845E9, 0.0, 2022-05-06 12:37:17.205
89.0, -211.29312779661268, -34.51553669106215, -110.16997289471328, -151.44537875568494, 0.12800000607967377, 0.12800000607967377, 1.008000047877431, 0.0, 0.0, 0.0, 0.0, 0.0, 1.651837037221404E9, 0.0, 2022-05-06 12:37:17.221
89.0, -263.47221197839826, -179.90788736846298, -180.20333946496248, -186.38352414174005, 0.12800000607967377, 0.12800000607967377, 1.008000047877431, 0.0, 0.0, 0.0, 0.0, 0.0, 1.651837037221404E9, 0.0, 2022-05-06 12:37:17.221
90.0, -316.9303419450298, -282.8374139489606, -259.02921083103865, -232.47031129570678, 0.12800000607967377, 0.12800000607967377, 1.008000047877431, 0.0, 0.0, 0.0, 0.0, 0.0, 1.651837037222336E9, 0.0, 2022-05-06 12:37:17.222
90.0, -271.8308883793652, -139.33745264913887, -194.9123659906909, -195.17228903761134, 0.12800000607967377, 0.12800000607967377, 1.008000047877431, 0.0, 0.0, 0.0, 0.0, 0.0, 1.651837037222336E9, 0.0, 2022-05-06 12:37:17.222
91.0, -216.9927353290841, -35.4243323802948, -115.95559812616557, -151.50895705493167, 0.12800000607967377, 0.12800000607967377, 1.008000047877431, 0.0, 0.0, 0.0, 0.0, 0.0, 1.651837037235391E9, 0.0, 2022-05-06 12:37:17.235
91.0, -260.0053247194737, -180.0126045672223, -175.05349722597748, -198.8486106940545, 0.12800000607967377, 0.12800000607967377, 1.008000047877431, 0.0, 0.0, 0.0, 0.0, 0.0, 1.651837037235391E9, 0.0, 2022-05-06 12:37:17.235
92.0, -326.06691753678024, -287.9573369883001, -264.39596726745367, -239.19091151608154, 0.12800000607967377, 0.12800000607967377, 1.008000047877431, 0.0, 0.0, 0.0, 0.0, 0.0, 1.6518370372514184E9, 0.0, 2022-05-06 12:37:17.251
92.0, -263.88360097352415, -130.61600595247, -180.31553646363318, -173.68282389221713, 0.12800000607967377, 0.12800000607967377, 1.008000047877431, 0.0, 0.0, 0.0, 0.0, 0.0, 1.6518370372514184E9, 0.0, 2022-05-06 12:37:17.251
93.0, -206.2816618559882, -19.32780297100544, -91.35827611759305, -119.64500943245366, 0.12800000607967377, 0.12800000607967377, 1.008000047877431, 0.0, 0.0, 0.0, 0.0, 0.0, 1.6518370372523398E9, 0.0, 2022-05-06 12:37:17.252
93.0, -239.73506695963442, -165.62894933763891, -166.01415903307498, -175.78090776735917, 0.12800000607967377, 0.12800000607967377, 1.008000047877431, 0.0, 0.0, 0.0, 0.0, 0.0, 1.6518370372523398E9, 0.0, 2022-05-06 12:37:17.252
94.0, -313.960861380212, -283.34230044297874, -263.3450553799048, -242.4633239773102, 0.12800000607967377, 0.12800000607967377, 1.008000047877431, 0.0, 0.0, 0.0, 0.0, 0.0, 1.6518370372653892E9, 0.0, 2022-05-06 12:37:17.265
94.0, -282.4297648537904, -141.20740262698382, -198.82430134434253, -198.73641369538382, 0.12800000607967377, 0.12800000607967377, 1.008000047877431, 0.0, 0.0, 0.0, 0.0, 0.0, 1.6518370372653892E9, 0.0, 2022-05-06 12:37:17.265
95.0, -216.20361643843353, -40.884586315602064, -121.9095188556239, -165.6495187873952, 0.12800000607967377, 0.12800000607967377, 1.008000047877431, 0.0, 0.0, 0.0, 0.0, 0.0, 1.6518370372814345E9, 0.0, 2022-05-06 12:37:17.281
95.0, -262.727971887216, -189.5717888539657, -186.50881079025567, -202.99241984495893, 0.12800000607967377, 0.12800000607967377, 1.008000047877431, 0.0, 0.0, 0.0, 0.0, 0.0, 1.6518370372814345E9, 0.0, 2022-05-06 12:37:17.281
96.0, -322.6785681769252, -285.33566711936146, -264.5717425653711, -245.05507464660332, 0.12800000607967377, 0.12800000607967377, 1.008000047877431, 0.0, 0.0, 0.0, 0.0, 0.0, 1.6518370372823792E9, 0.0, 2022-05-06 12:37:17.282
96.0, -274.1309268521145, -140.63145803380758, -196.47564417216927, -194.23731404868886, 0.12800000607967377, 0.12800000607967377, 1.008000047877431, 0.0, 0.0, 0.0, 0.0, 0.0, 1.6518370372823792E9, 0.0, 2022-05-06 12:37:17.282
97.0, -207.57192734070122, -29.709765248000622, -101.80381669383496, -136.81489012902603, 0.12800000607967377, 0.12800000607967377, 1.008000047877431, 0.0, 0.0, 0.0, 0.0, 0.0, 1.6518370372954047E9, 0.0, 2022-05-06 12:37:17.295
97.0, -243.94245440978557, -171.09668307285756, -168.56851070281118, -184.12462456850335, 0.12800000607967377, 0.12800000607967377, 1.008000047877431, 0.0, 0.0, 0.0, 0.0, 0.0, 1.6518370372954047E9, 0.0, 2022-05-06 12:37:17.295
98.0, -313.16052278969437, -288.2939279843122, -263.73400497529656, -237.86324703181162, 0.12800000607967377, 0.12800000607967377, 1.008000047877431, 0.0, 0.0, 0.0, 0.0, 0.0, 1.6518370373113785E9, 0.0, 2022-05-06 12:37:17.311
98.0, -281.9510576594621, -147.9205230474472, -202.4669639011845, -197.42370881093666, 0.12800000607967377, 0.12800000607967377, 1.008000047877431, 0.0, 0.0, 0.0, 0.0, 0.0, 1.6518370373113785E9, 0.0, 2022-05-06 12:37:17.311
99.0, -204.68098467495292, -26.758984182961285, -103.91312026884407, -144.54526333743706, 0.12800000607967377, 0.12800000607967377, 1.008000047877431, 0.0, 0.0, 0.0, 0.0, 0.0, 1.6518370373124084E9, 0.0, 2022-05-06 12:37:17.312
99.0, -257.3462558509782, -184.7959366105497, -179.0140512790531, -186.79491313686594, 0.12800000607967377, 0.12800000607967377, 1.008000047877431, 0.0, 0.0, 0.0, 0.0, 0.0, 1.6518370373124084E9, 0.0, 2022-05-06 12:37:17.312
100.0, -309.2261480363086, -278.9441780950874, -255.10605577751994, -223.30381650431082, 0.12800000607967377, 0.12800000607967377, 1.0240000486373901, 0.0, 0.0, 0.0, 0.0, 0.0, 1.6518370373264153E9, 0.0, 2022-05-06 12:37:17.326
100.0, -278.88433969579637, -141.72724872082472, -201.42353181354702, -204.05829133233055, 0.12800000607967377, 0.12800000607967377, 1.0240000486373901, 0.0, 0.0, 0.0, 0.0, 0.0, 1.6518370373264153E9, 0.0, 2022-05-06 12:37:17.326
0.0, -202.29492850322276, -35.08026158437133, -114.82240843959153, -150.7030086144805, 0.12800000607967377, 0.12800000607967377, 1.0240000486373901, 0.0, 0.0, 0.0, 0.0, 0.0, 1.6518370373273642E9, 0.0, 2022-05-06 12:37:17.327
1.0, -243.27301231771708, -182.73899163492024, -174.40649453364313, -188.33014206867665, 0.12800000607967377, 0.12800000607967377, 1.0240000486373901, 0.0, 0.0, 0.0, 0.0, 0.0, 1.6518370373404045E9, 0.0, 2022-05-06 12:37:17.340
1.0, -320.1503958068788, -283.40961864218116, -265.77973025105894, -232.67413584329188, 0.12800000607967377, 0.12800000607967377, 1.0240000486373901, 0.0, 0.0, 0.0, 0.0, 0.0, 1.6518370373404045E9, 0.0, 2022-05-06 12:37:17.340
2.0, -272.7247244687751, -131.1695111459121, -189.22397815808654, -189.83732175081968, 0.12800000607967377, 0.12800000607967377, 1.0240000486373901, 0.0, 0.0, 0.0, 0.0, 0.0, 1.651837037356456E9, 0.0, 2022-05-06 12:37:17.356
2.0, -204.3967522783205, -23.38933432288468, -96.75869165360928, -130.04754115920514, 0.12800000607967377, 0.12800000607967377, 1.0240000486373901, 0.0, 0.0, 0.0, 0.0, 0.0, 1.651837037356456E9, 0.0, 2022-05-06 12:37:17.356
3.0, -254.11498228926212, -182.6043552365154, -179.72463227063417, -182.9035472329706, 0.12800000607967377, 0.12800000607967377, 1.0240000486373901, 0.0, 0.0, 0.0, 0.0, 0.0, 1.65183703735736E9, 0.0, 2022-05-06 12:37:17.357
3.0, -328.13882211223245, -288.12563248630613, -266.89048053789884, -251.61298921890557, 0.12800000607967377, 0.12800000607967377, 1.0240000486373901, 0.0, 0.0, 0.0, 0.0, 0.0, 1.65183703735736E9, 0.0, 2022-05-06 12:37:17.357
4.0, -268.41261981986463, -131.88383203744888, -186.30311629269272, -195.2452170867473, 0.12800000607967377, 0.12800000607967377, 1.0240000486373901, 0.0, 0.0, 0.0, 0.0, 0.0, 1.6518370373703964E9, 0.0, 2022-05-06 12:37:17.370
4.0, -207.3961520427838, -31.594674825668335, -112.54854926653206, -143.69069619756192, 0.12800000607967377, 0.12800000607967377, 1.0240000486373901, 0.0, 0.0, 0.0, 0.0, 0.0, 1.6518370373703964E9, 0.0, 2022-05-06 12:37:17.370
5.0, -255.76053826976568, -186.88280078582466, -186.10490159504116, -197.92672535497695, 0.12800000607967377, 0.12800000607967377, 1.0240000486373901, 0.0, 0.0, 0.0, 0.0, 0.0, 1.651837037386406E9, 0.0, 2022-05-06 12:37:17.386
5.0, -320.86845659837127, -287.1345589980483, -261.59478220064193, -235.87923010531813, 0.12800000607967377, 0.12800000607967377, 1.0240000486373901, 0.0, 0.0, 0.0, 0.0, 0.0, 1.651837037386406E9, 0.0, 2022-05-06 12:37:17.386
6.0, -269.26531700976193, -131.40512484312057, -194.56455529481173, -191.92044602613896, 0.12800000607967377, 0.12800000607967377, 1.0240000486373901, 0.0, 0.0, 0.0, 0.0, 0.0, 1.6518370373873754E9, 0.0, 2022-05-06 12:37:17.387
6.0, -205.7281566625461, -31.77419002354145, -113.58076165430248, -151.60806440375745, 0.12800000607967377, 0.12800000607967377, 1.0240000486373901, 0.0, 0.0, 0.0, 0.0, 0.0, 1.6518370373873754E9, 0.0, 2022-05-06 12:37:17.387
7.0, -250.91736782714725, -190.15895314700902, -178.87567498069257, -177.5667099962011, 0.12800000607967377, 0.12800000607967377, 1.0240000486373901, 0.0, 0.0, 0.0, 0.0, 0.0, 1.651837037400382E9, 0.0, 2022-05-06 12:37:17.400
7.0, -316.1150437546894, -278.6823850981891, -258.54302383679897, -217.07875302806497, 0.12800000607967377, 0.12800000607967377, 1.0240000486373901, 0.0, 0.0, 0.0, 0.0, 0.0, 1.651837037400382E9, 0.0, 2022-05-06 12:37:17.400
8.0, -264.2688106689602, -124.90517872013152, -195.45091158431023, -200.60449372325093, 0.12800000607967377, 0.12800000607967377, 1.0240000486373901, 0.0, 0.0, 0.0, 0.0, 0.0, 1.6518370374163935E9, 0.0, 2022-05-06 12:37:17.416
8.0, -209.90936481300741, -42.60120039526373, -115.50307023152709, -166.3806692287326, 0.12800000607967377, 0.12800000607967377, 1.0240000486373901, 0.0, 0.0, 0.0, 0.0, 0.0, 1.6518370374163935E9, 0.0, 2022-05-06 12:37:17.416
9.0, -258.4158672383055, -196.92817206680775, -190.51050374284387, -203.58893388789147, 0.12800000607967377, 0.12800000607967377, 1.0240000486373901, 0.0, 0.0, 0.0, 0.0, 0.0, 1.651837037417343E9, 0.0, 2022-05-06 12:37:17.417
9.0, -320.01949930842966, -285.22347012069076, -262.9074870850891, -243.4487876156345, 0.12800000607967377, 0.12800000607967377, 1.0240000486373901, 0.0, 0.0, 0.0, 0.0, 0.0, 1.651837037417343E9, 0.0, 2022-05-06 12:37:17.417
10.0, -262.5035778898746, -122.83327414467931, -176.89352800417691, -179.33194277528673, 0.12800000607967377, 0.12800000607967377, 1.0240000486373901, 0.0, 0.0, 0.0, 0.0, 0.0, 1.6518370374303985E9, 0.0, 2022-05-06 12:37:17.430
10.0, -195.36115398537368, -27.682739472016692, -106.21689864154905, -139.16915715113282, 0.12800000607967377, 0.12800000607967377, 1.0240000486373901, 0.0, 0.0, 0.0, 0.0, 0.0, 1.6518370374303985E9, 0.0, 2022-05-06 12:37:17.430
11.0, -243.9723736094311, -184.73235831130296, -170.68529407773167, -168.40021520480514, 0.12800000607967377, 0.12800000607967377, 1.0240000486373901, 0.0, 0.0, 0.0, 0.0, 0.0, 1.6518370374464216E9, 0.0, 2022-05-06 12:37:17.446
11.0, -316.8817232456058, -278.3570138020441, -263.40489377919585, -241.51525933854282, 0.12800000607967377, 0.12800000607967377, 1.0240000486373901, 0.0, 0.0, 0.0, 0.0, 0.0, 1.6518370374464216E9, 0.0, 2022-05-06 12:37:17.446
12.0, -262.88504768535495, -123.4316581375897, -189.87846065033227, -201.18417821638286, 0.12800000607967377, 0.12800000607967377, 1.0240000486373901, 0.0, 0.0, 0.0, 0.0, 0.0, 1.6518370374473915E9, 0.0, 2022-05-06 12:37:17.447
12.0, -207.695344039239, -41.292235410772264, -118.00506330188364, -149.50250072870404, 0.12800000607967377, 0.12800000607967377, 1.0240000486373901, 0.0, 0.0, 0.0, 0.0, 0.0, 1.6518370374473915E9, 0.0, 2022-05-06 12:37:17.447
13.0, -265.3159826565534, -199.3217080384493, -194.62065379414707, -197.9117657551542, 0.12800000607967377, 0.12800000607967377, 1.0240000486373901, 0.0, 0.0, 0.0, 0.0, 0.0, 1.6518370374603817E9, 0.0, 2022-05-06 12:37:17.460
13.0, -312.188148801215, -278.719784097746, -260.375574815087, -238.3700034758076, 0.12800000607967377, 0.12800000607967377, 1.0240000486373901, 0.0, 0.0, 0.0, 0.0, 0.0, 1.6518370374603817E9, 0.0, 2022-05-06 12:37:17.460
14.0, -258.6851400351152, -118.47629069630057, -183.40469382703304, -189.69520555250347, 0.12800000607967377, 0.12800000607967377, 1.0240000486373901, 0.0, 0.0, 0.0, 0.0, 0.0, 1.6518370374763908E9, 0.0, 2022-05-06 12:37:17.476
14.0, -217.56494002230465, -38.5359291434288, -110.30086939316243, -148.93777583539486, 0.12800000607967377, 0.12800000607967377, 1.0240000486373901, 0.0, 0.0, 0.0, 0.0, 0.0, 1.6518370374763908E9, 0.0, 2022-05-06 12:37:17.476
15.0, -249.92629433888942, -190.82465533912182, -183.99933791998774, -188.55453606601804, 0.12800000607967377, 0.12800000607967377, 1.0240000486373901, 0.0, 0.0, 0.0, 0.0, 0.0, 1.6518370374773383E9, 0.0, 2022-05-06 12:37:17.477
15.0, -313.7813461823389, -277.8446475081146, -260.83932240959257, -233.1528430376202, 0.12800000607967377, 0.12800000607967377, 1.0240000486373901, 0.0, 0.0, 0.0, 0.0, 0.0, 1.6518370374773383E9, 0.0, 2022-05-06 12:37:17.477
16.0, -259.32092302758247, -112.48871086724102, -177.35727559868246, -180.25195816438645, 0.12800000607967377, 0.12800000607967377, 1.0240000486373901, 0.0, 0.0, 0.0, 0.0, 0.0, 1.6518370374903796E9, 0.0, 2022-05-06 12:37:17.490
16.0, -208.81357412599027, -41.73728350549936, -114.02580974902958, -145.12681778054684, 0.12800000607967377, 0.12800000607967377, 1.0240000486373901, 0.0, 0.0, 0.0, 0.0, 0.0, 1.6518370374903796E9, 0.0, 2022-05-06 12:37:17.490
17.0, -251.2726583229378, -187.19321248214692, -179.4890185734257, -186.4938511904329, 0.12800000607967377, 0.12800000607967377, 1.0240000486373901, 0.0, 0.0, 0.0, 0.0, 0.0, 1.6518370375223987E9, 0.0, 2022-05-06 12:37:17.522
17.0, -312.7491337945685, -274.8676871433854, -255.91013426799327, -234.67872221954167, 0.12800000607967377, 0.12800000607967377, 1.0240000486373901, 0.0, 0.0, 0.0, 0.0, 0.0, 1.6518370375223987E9, 0.0, 2022-05-06 12:37:17.522
18.0, -261.6770599996671, -123.50645613670349, -187.18573268223554, -188.22542486991733, 0.12800000607967377, 0.12800000607967377, 1.0240000486373901, 0.0, 0.0, 0.0, 0.0, 0.0, 1.6518370375233388E9, 0.0, 2022-05-06 12:37:17.523
18.0, -215.09286615159363, -50.70182369928807, -120.00216987822205, -150.91244301199913, 0.12800000607967377, 0.12800000607967377, 1.0240000486373901, 0.0, 0.0, 0.0, 0.0, 0.0, 1.6518370375233388E9, 0.0, 2022-05-06 12:37:17.523
19.0, -265.59273525327444, -208.31242753192782, -197.0553286653012, -202.05183500610292, 0.12800000607967377, 0.12800000607967377, 1.0240000486373901, 0.0, 0.0, 0.0, 0.0, 0.0, 1.6518370375243857E9, 0.0, 2022-05-06 12:37:17.524
19.0, -320.0419387081638, -294.2216694140807, -276.4010461252183, -256.59079605992883, 0.12800000607967377, 0.12800000607967377, 1.0240000486373901, 0.0, 0.0, 0.0, 0.0, 0.0, 1.6518370375243857E9, 0.0, 2022-05-06 12:37:17.524
20.0, -266.1985990460962, -128.22994978073984, -189.33617515675724, -196.0605152770877, 0.12800000607967377, 0.12800000607967377, 1.0240000486373901, 0.0, 0.0, 0.0, 0.0, 0.0, 1.6518370375253432E9, 0.0, 2022-05-06 12:37:17.525
20.0, -194.5720350947231, -41.43061170913279, -107.07333573140204, -133.20027682185173, 0.12800000607967377, 0.12800000607967377, 1.0240000486373901, 0.0, 0.0, 0.0, 0.0, 0.0, 1.6518370375253432E9, 0.0, 2022-05-06 12:37:17.525
21.0, -240.741100047715, -186.3105960926041, -174.95999972708523, -174.73186582978815, 0.12800000607967377, 0.12800000607967377, 1.0240000486373901, 0.0, 0.0, 0.0, 0.0, 0.0, 1.6518370375354128E9, 0.0, 2022-05-06 12:37:17.535
21.0, -297.1350514795631, -264.25759096909314, -243.7816387116909, -220.54190038703382, 0.12800000607967377, 0.12800000607967377, 1.0240000486373901, 0.0, 0.0, 0.0, 0.0, 0.0, 1.6518370375354128E9, 0.0, 2022-05-06 12:37:17.535
22.0, -247.90674836281687, -104.48532496206462, -170.75635217688978, -169.49974579177797, 0.12800000607967377, 0.12800000607967377, 1.0240000486373901, 0.0, 0.0, 0.0, 0.0, 0.0, 1.6518370375504088E9, 0.0, 2022-05-06 12:37:17.550
22.0, -196.11661377642304, -33.576821802183986, -107.60440152511, -143.90387049503624, 0.12800000607967377, 0.12800000607967377, 1.0240000486373901, 0.0, 0.0, 0.0, 0.0, 0.0, 1.6518370375504088E9, 0.0, 2022-05-06 12:37:17.550
23.0, -256.77405115775764, -196.67385886982083, -193.99609050154686, -201.74142330978066, 0.12800000607967377, 0.12800000607967377, 1.0240000486373901, 0.0, 0.0, 0.0, 0.0, 0.0, 1.6518370375663872E9, 0.0, 2022-05-06 12:37:17.566
23.0, -309.19622883666307, -275.0247629415244, -259.3732816269621, -244.46230050362647, 0.12800000607967377, 0.12800000607967377, 1.0240000486373901, 0.0, 0.0, 0.0, 0.0, 0.0, 1.6518370375663872E9, 0.0, 2022-05-06 12:37:17.566
24.0, -256.1494878651574, -116.70357811730355, -182.59687543660402, -186.7145052878186, 0.12800000607967377, 0.12800000607967377, 1.0240000486373901, 0.0, 0.0, 0.0, 0.0, 0.0, 1.6518370375673404E9, 0.0, 2022-05-06 12:37:17.567
24.0, -192.0214233249426, -37.41395915672183, -107.81757582258433, -133.46206981875002, 0.12800000607967377, 0.12800000607967377, 1.0240000486373901, 0.0, 0.0, 0.0, 0.0, 0.0, 1.6518370375673404E9, 0.0, 2022-05-06 12:37:17.567
25.0, -259.6350746238604, -203.56275458820164, -195.62668688222766, -198.34559415001422, 0.12800000607967377, 0.12800000607967377, 1.0240000486373901, 0.0, 0.0, 0.0, 0.0, 0.0, 1.6518370375803924E9, 0.0, 2022-05-06 12:37:17.580
25.0, -306.05471287388355, -264.33612886816263, -242.779345523566, -213.18177727423608, 0.12800000607967377, 0.12800000607967377, 1.0240000486373901, 0.0, 0.0, 0.0, 0.0, 0.0, 1.6518370375803924E9, 0.0, 2022-05-06 12:37:17.580
26.0, -243.09723701979965, -90.18394753150642, -167.01645222119987, -182.02467074338347, 0.12800000607967377, 0.12800000607967377, 1.0240000486373901, 0.0, 0.0, 0.0, 0.0, 0.0, 1.6518370375963871E9, 0.0, 2022-05-06 12:37:17.596
26.0, -190.92189273796976, -29.242277753539383, -105.82420914620161, -156.5896111447364, 0.12800000607967377, 0.12800000607967377, 1.0240000486373901, 0.0, 0.0, 0.0, 0.0, 0.0, 1.6518370375963871E9, 0.0, 2022-05-06 12:37:17.596
27.0, -237.57714468520135, -193.36778730899096, -179.21600587666035, -190.37212744448334, 0.12800000607967377, 0.12800000607967377, 1.0240000486373901, 0.0, 0.0, 0.0, 0.0, 0.0, 1.651837037597352E9, 0.0, 2022-05-06 12:37:17.597
27.0, -328.77086520474404, -292.2096032379195, -269.4597918074578, -240.99541324470192, 0.12800000607967377, 0.12800000607967377, 1.0240000486373901, 0.0, 0.0, 0.0, 0.0, 0.0, 1.651837037597352E9, 0.0, 2022-05-06 12:37:17.597
28.0, -264.4184066671878, -118.49499019607902, -182.41362033877522, -183.52437062561512, 0.12800000607967377, 0.12800000607967377, 1.0240000486373901, 0.0, 0.0, 0.0, 0.0, 0.0, 1.651837037610398E9, 0.0, 2022-05-06 12:37:17.610
28.0, -194.37008049711585, -39.3512273337692, -110.97031148523092, -150.73292781412601, 0.12800000607967377, 0.12800000607967377, 1.0240000486373901, 0.0, 0.0, 0.0, 0.0, 0.0, 1.651837037610398E9, 0.0, 2022-05-06 12:37:17.610
29.0, -270.566802194342, -214.64407815691084, -198.30071535054594, -206.7977680498734, 0.12800000607967377, 0.12800000607967377, 1.0240000486373901, 0.0, 0.0, 0.0, 0.0, 0.0, 1.6518370376263936E9, 0.0, 2022-05-06 12:37:17.626
29.0, -303.7284951014444, -268.0161904245615, -252.58910310734063, -220.93458988238126, 0.12800000607967377, 0.12800000607967377, 1.0240000486373901, 0.0, 0.0, 0.0, 0.0, 0.0, 1.6518370376263936E9, 0.0, 2022-05-06 12:37:17.626
30.0, -259.24612502846867, -114.92712563835084, -181.21311245299876, -184.62390121258795, 0.12800000607967377, 0.12800000607967377, 1.0240000486373901, 0.0, 0.0, 0.0, 0.0, 0.0, 1.6518370376273437E9, 0.0, 2022-05-06 12:37:17.627
30.0, -194.78146949224174, -32.32021541707218, -100.8277028053999, -135.79202749114484, 0.12800000607967377, 0.12800000607967377, 1.0240000486373901, 0.0, 0.0, 0.0, 0.0, 0.0, 1.6518370376273437E9, 0.0, 2022-05-06 12:37:17.627
31.0, -259.2274255286902, -204.5463482765481, -190.97425133734941, -191.45295853167772, 0.12800000607967377, 0.12800000607967377, 1.0240000486373901, 0.0, 0.0, 0.0, 0.0, 0.0, 1.6518370376403885E9, 0.0, 2022-05-06 12:37:17.640
31.0, -301.5443935273215, -264.25385106913745, -253.4904189966619, -222.1762366676703, 0.12800000607967377, 0.12800000607967377, 1.0240000486373901, 0.0, 0.0, 0.0, 0.0, 0.0, 1.6518370376403885E9, 0.0, 2022-05-06 12:37:17.640
32.0, -251.36989572178572, -107.77643692307174, -183.54307012539357, -182.48841833788902, 0.12800000607967377, 0.12800000607967377, 1.0240000486373901, 0.0, 0.0, 0.0, 0.0, 0.0, 1.6518370376564083E9, 0.0, 2022-05-06 12:37:17.656
32.0, -201.7227238100022, -40.63401301857084, -108.80864931084216, -152.2214079964906, 0.12800000607967377, 0.12800000607967377, 1.0240000486373901, 0.0, 0.0, 0.0, 0.0, 0.0, 1.6518370376564083E9, 0.0, 2022-05-06 12:37:17.656
33.0, -257.9670792436227, -202.23883000388741, -198.69340484589338, -199.43764493707567, 0.12800000607967377, 0.12800000607967377, 1.0240000486373901, 0.0, 0.0, 0.0, 0.0, 0.0, 1.6518370376573288E9, 0.0, 2022-05-06 12:37:17.657
33.0, -305.3329121824354, -270.29378949757665, -264.4969445662573, -242.72324702423066, 0.12800000607967377, 0.12800000607967377, 1.0240000486373901, 0.0, 0.0, 0.0, 0.0, 0.0, 1.6518370376573288E9, 0.0, 2022-05-06 12:37:17.657
34.0, -253.58391649555415, -107.9409925211221, -175.50602512061596, -182.06206974294037, 0.12800000607967377, 0.12800000607967377, 1.0240000486373901, 0.0, 0.0, 0.0, 0.0, 0.0, 1.6518370376704464E9, 0.0, 2022-05-06 12:37:17.670
34.0, -199.79293543286622, -42.028995702043176, -103.31473627593368, -138.14816446322948, 0.12800000607967377, 0.12800000607967377, 1.0240000486373901, 0.0, 0.0, 0.0, 0.0, 0.0, 1.6518370376704464E9, 0.0, 2022-05-06 12:37:17.670
35.0, -259.6874332232401, -206.92866454832256, -200.350180526264, -203.77218898572028, 0.12800000607967377, 0.12800000607967377, 1.0240000486373901, 0.0, 0.0, 0.0, 0.0, 0.0, 1.6518370376864305E9, 0.0, 2022-05-06 12:37:17.686
35.0, -311.8216386055574, -269.8263020031154, -267.88903382606804, -248.32935705780983, 0.12800000607967377, 0.12800000607967377, 1.0240000486373901, 0.0, 0.0, 0.0, 0.0, 0.0, 1.6518370376864305E9, 0.0, 2022-05-06 12:37:17.686
36.0, -259.50791802536696, -115.32729493360966, -175.16569422464818, -187.0884952833876, 0.12800000607967377, 0.12800000607967377, 1.0240000486373901, 0.0, 0.0, 0.0, 0.0, 0.0, 1.651837037687342E9, 0.0, 2022-05-06 12:37:17.687
36.0, -205.73563646245748, -46.40467865020037, -119.01109638996422, -149.23696783185005, 0.12800000607967377, 0.12800000607967377, 1.0240000486373901, 0.0, 0.0, 0.0, 0.0, 0.0, 1.651837037687342E9, 0.0, 2022-05-06 12:37:17.687
37.0, -261.81543629802763, -200.37261992599815, -190.59652144182473, -201.7264637099579, 0.12800000607967377, 0.12800000607967377, 1.0240000486373901, 0.0, 0.0, 0.0, 0.0, 0.0, 1.6518370377004175E9, 0.0, 2022-05-06 12:37:17.700
37.0, -309.2149283364415, -266.1238010469824, -251.55315081961453, -232.262746848166, 0.12800000607967377, 0.12800000607967377, 1.0240000486373901, 0.0, 0.0, 0.0, 0.0, 0.0, 1.6518370377004175E9, 0.0, 2022-05-06 12:37:17.700
38.0, -244.90734859835356, -96.50437845662236, -160.19861460197717, -163.10451686754823, 0.12800000607967377, 0.12800000607967377, 1.0240000486373901, 0.0, 0.0, 0.0, 0.0, 0.0, 1.6518370377163851E9, 0.0, 2022-05-06 12:37:17.716
38.0, -198.7270639454946, -41.55776830762625, -110.65241998899728, -144.04224679339677, 0.12800000607967377, 0.12800000607967377, 1.0240000486373901, 0.0, 0.0, 0.0, 0.0, 0.0, 1.6518370377163851E9, 0.0, 2022-05-06 12:37:17.716
39.0, -262.06226969510317, -216.19613663852215, -201.28889541514218, -210.216036609374, 0.12800000607967377, 0.12800000607967377, 1.0240000486373901, 0.0, 0.0, 0.0, 0.0, 0.0, 1.6518370377173405E9, 0.0, 2022-05-06 12:37:17.717
39.0, -325.9397609382868, -282.85611344873905, -264.66524006426334, -242.3754363283515, 0.12800000607967377, 0.12800000607967377, 1.0240000486373901, 0.0, 0.0, 0.0, 0.0, 0.0, 1.6518370377173405E9, 0.0, 2022-05-06 12:37:17.717
40.0, -258.24757174029946, -111.08624838385731, -177.86964189261198, -178.72981888242066, 0.12800000607967377, 0.12800000607967377, 1.0240000486373901, 0.0, 0.0, 0.0, 0.0, 0.0, 1.6518370377304115E9, 0.0, 2022-05-06 12:37:17.730
40.0, -205.71693696267903, -49.39659861475229, -115.61900713015348, -138.97094245348126, 0.12800000607967377, 0.12800000607967377, 1.0240000486373901, 0.0, 0.0, 0.0, 0.0, 0.0, 1.6518370377304115E9, 0.0, 2022-05-06 12:37:17.730
41.0, -261.2768907044083, -218.44381651189178, -207.10443984623998, -214.7674948554486, 0.12800000607967377, 0.12800000607967377, 1.0240000486373901, 0.0, 0.0, 0.0, 0.0, 0.0, 1.651837037746391E9, 0.0, 2022-05-06 12:37:17.746
41.0, -321.13398949522525, -277.92692530713975, -268.06480912398547, -248.10870296042413, 0.12800000607967377, 0.12800000607967377, 1.0240000486373901, 0.0, 0.0, 0.0, 0.0, 0.0, 1.651837037746391E9, 0.0, 2022-05-06 12:37:17.746
42.0, -269.1605998110026, -111.29194288142025, -183.6814464237541, -196.60280077066272, 0.12800000607967377, 0.12800000607967377, 1.0240000486373901, 0.0, 0.0, 0.0, 0.0, 0.0, 1.6518370377473402E9, 0.0, 2022-05-06 12:37:17.747
42.0, -211.45020359475166, -56.40891103167087, -121.21389746386558, -160.6287030968815, 0.12800000607967377, 0.12800000607967377, 1.0240000486373901, 0.0, 0.0, 0.0, 0.0, 0.0, 1.6518370377473402E9, 0.0, 2022-05-06 12:37:17.747
43.0, -265.3496417561546, -223.27576725464314, -209.6550516160205, -219.33765260130167, 0.12800000607967377, 0.12800000607967377, 1.0240000486373901, 0.0, 0.0, 0.0, 0.0, 0.0, 1.651837037760428E9, 0.0, 2022-05-06 12:37:17.760
43.0, -324.65697525348514, -277.0517887175083, -269.91979950200766, -246.5641242787242, 0.12800000607967377, 0.12800000607967377, 1.0240000486373901, 0.0, 0.0, 0.0, 0.0, 0.0, 1.651837037760428E9, 0.0, 2022-05-06 12:37:17.760
44.0, -267.6496802289039, -107.9409925211221, -178.87567498069257, -186.8267022864893, 0.12800000607967377, 0.12800000607967377, 1.0240000486373901, 0.0, 0.0, 0.0, 0.0, 0.0, 1.6518370377763832E9, 0.0, 2022-05-06 12:37:17.776
44.0, -223.0738126570359, -56.62208532914519, -116.80829531606287, -145.8448785720393, 0.12800000607967377, 0.12800000607967377, 1.0240000486373901, 0.0, 0.0, 0.0, 0.0, 0.0, 1.6518370377763832E9, 0.0, 2022-05-06 12:37:17.776
45.0, -269.8749207025394, -212.90876457747072, -204.7632624739781, -206.49857605341822, 0.12800000607967377, 0.12800000607967377, 1.0240000486373901, 0.0, 0.0, 0.0, 0.0, 0.0, 1.6518370377773395E9, 0.0, 2022-05-06 12:37:17.777
45.0, -322.644909077324, -277.1004074169323, -261.70323929935694, -238.9609076688066, 0.12800000607967377, 0.12800000607967377, 1.0240000486373901, 0.0, 0.0, 0.0, 0.0, 0.0, 1.6518370377773395E9, 0.0, 2022-05-06 12:37:17.777
46.0, -245.43841439206153, -93.3030240945518, -160.4080489994958, -177.35727559868246, 0.12800000607967377, 0.12800000607967377, 1.0240000486373901, 0.0, 0.0, 0.0, 0.0, 0.0, 1.65183703779044E9, 0.0, 2022-05-06 12:37:17.790
46.0, -203.27104239165783, -50.454990302212536, -113.76775665208697, -143.90761039499193, 0.12800000607967377, 0.12800000607967377, 1.0240000486373901, 0.0, 0.0, 0.0, 0.0, 0.0, 1.65183703779044E9, 0.0, 2022-05-06 12:37:17.790
47.0, -263.62928777653724, -214.53562105819583, -199.70691773388535, -198.70836444571614, 0.12800000607967377, 0.12800000607967377, 1.0240000486373901, 0.0, 0.0, 0.0, 0.0, 0.0, 1.6518370378064213E9, 0.0, 2022-05-06 12:37:17.806
47.0, -312.1806690013036, -255.7119195703417, -250.3750823335722, -227.89828359987587, 0.12800000607967377, 0.12800000607967377, 1.0240000486373901, 0.0, 0.0, 0.0, 0.0, 0.0, 1.6518370378064213E9, 0.0, 2022-05-06 12:37:17.806
48.0, -256.57957636006176, -96.79235075321048, -170.84984967578202, -181.1644937535748, 0.12800000607967377, 0.12800000607967377, 1.0240000486373901, 0.0, 0.0, 0.0, 0.0, 0.0, 1.6518370378073375E9, 0.0, 2022-05-06 12:37:17.807
48.0, -217.5462405225262, -54.68855705205351, -119.50850308407098, -154.09509787429124, 0.12800000607967377, 0.12800000607967377, 1.0240000486373901, 0.0, 0.0, 0.0, 0.0, 0.0, 1.6518370378073375E9, 0.0, 2022-05-06 12:37:17.807
49.0, -267.0849553355947, -212.6170523809269, -203.0204690946266, -194.2429238986224, 0.12800000607967377, 0.12800000607967377, 1.0240000486373901, 0.0, 0.0, 0.0, 0.0, 0.0, 1.6518370378205326E9, 0.0, 2022-05-06 12:37:17.820
49.0, -320.3673100043088, -270.25639049801975, -268.04236972425133, -244.57075760234147, 0.12800000607967377, 0.12800000607967377, 1.0240000486373901, 0.0, 0.0, 0.0, 0.0, 0.0, 1.6518370378205326E9, 0.0, 2022-05-06 12:37:17.820
50.0, -246.68006117735058, -90.70379362534732, -162.79410517122597, -163.49720636289567, 0.12800000607967377, 0.12800000607967377, 1.0240000486373901, 0.0, 0.0, 0.0, 0.0, 0.0, 1.6518370378363976E9, 0.0, 2022-05-06 12:37:17.836
50.0, -209.08284692279994, -57.699176516383886, -113.64060005359352, -141.25976122636348, 0.12800000607967377, 0.12800000607967377, 1.0240000486373901, 0.0, 0.0, 0.0, 0.0, 0.0, 1.6518370378363976E9, 0.0, 2022-05-06 12:37:17.836
51.0, -272.59382797032595, -221.9892416698858, -211.05003429949284, -212.63575188070536, 0.12800000607967377, 0.12800000607967377, 1.0240000486373901, 0.0, 0.0, 0.0, 0.0, 0.0, 1.6518370378373337E9, 0.0, 2022-05-06 12:37:17.837
51.0, -316.0776447551325, -263.03464368358254, -262.36520159151405, -243.02617892064154, 0.12800000607967377, 0.12800000607967377, 1.0240000486373901, 0.0, 0.0, 0.0, 0.0, 0.0, 1.6518370378373337E9, 0.0, 2022-05-06 12:37:17.837
52.0, -260.9328199084848, -96.8260098528117, -168.96120019815862, -182.3463021395728, 0.12800000607967377, 0.12800000607967377, 1.0240000486373901, 0.0, 0.0, 0.0, 0.0, 0.0, 1.6518370378504434E9, 0.0, 2022-05-06 12:37:17.850
52.0, -200.6905114222318, -49.59855321235955, -104.31702946405858, -130.7656019506976, 0.12800000607967377, 0.12800000607967377, 1.0240000486373901, 0.0, 0.0, 0.0, 0.0, 0.0, 1.6518370378504434E9, 0.0, 2022-05-06 12:37:17.850
53.0, -270.349887996912, -225.02230053395033, -205.85157336108387, -210.45539020653814, 0.12800000607967377, 0.12800000607967377, 1.0240000486373901, 0.0, 0.0, 0.0, 0.0, 0.0, 1.6518370378664434E9, 0.0, 2022-05-06 12:37:17.866
53.0, -319.57819111365825, -257.80252364557236, -251.66534781828523, -225.71044212579727, 0.12800000607967377, 0.12800000607967377, 1.0240000486373901, 0.0, 0.0, 0.0, 0.0, 0.0, 1.6518370378664434E9, 0.0, 2022-05-06 12:37:17.866
54.0, -256.7890107575804, -95.4160675695166, -167.46898011583835, -185.81318939849734, 0.12800000607967377, 0.12800000607967377, 1.0240000486373901, 0.0, 0.0, 0.0, 0.0, 0.0, 1.6518370378673615E9, 0.0, 2022-05-06 12:37:17.867
54.0, -219.72286229673773, -58.600492405705154, -123.29702173918486, -165.12780274357647, 0.12800000607967377, 0.12800000607967377, 1.0240000486373901, 0.0, 0.0, 0.0, 0.0, 0.0, 1.6518370378673615E9, 0.0, 2022-05-06 12:37:17.867
55.0, -278.502869900316, -223.45902235247195, -207.66916473954916, -206.21808355674148, 0.12800000607967377, 0.12800000607967377, 1.0240000486373901, 0.0, 0.0, 0.0, 0.0, 0.0, 1.651837037880416E9, 0.0, 2022-05-06 12:37:17.880
55.0, -321.3097647931427, -260.14744091778994, -257.7426852462813, -243.07105772010982, 0.12800000607967377, 0.12800000607967377, 1.0240000486373901, 0.0, 0.0, 0.0, 0.0, 0.0, 1.651837037880416E9, 0.0, 2022-05-06 12:37:17.880
56.0, -251.10436282493174, -93.32546349428594, -168.50867230352014, -173.1947669479996, 0.12800000607967377, 0.12800000607967377, 1.0240000486373901, 0.0, 0.0, 0.0, 0.0, 0.0, 1.65183703789638E9, 0.0, 2022-05-06 12:37:17.896
56.0, -208.30494773201644, -53.49926886614412, -108.9058867096901, -133.72012291569263, 0.12800000607967377, 0.12800000607967377, 1.0240000486373901, 0.0, 0.0, 0.0, 0.0, 0.0, 1.65183703789638E9, 0.0, 2022-05-06 12:37:17.896
57.0, -273.9401919543743, -227.68136940244585, -206.71549025084823, -211.14727169834077, 0.12800000607967377, 0.12800000607967377, 1.0240000486373901, 0.0, 0.0, 0.0, 0.0, 0.0, 1.6518370378973603E9, 0.0, 2022-05-06 12:37:17.897
57.0, -316.28707915265113, -268.6482335170731, -258.6440011356026, -231.9261558521539, 0.12800000607967377, 0.12800000607967377, 1.0240000486373901, 0.0, 0.0, 0.0, 0.0, 0.0, 1.6518370378973603E9, 0.0, 2022-05-06 12:37:17.897
58.0, -245.40101539250463, -89.23027304280549, -160.91293549351394, -172.16629446018487, 0.12800000607967377, 0.12800000607967377, 1.0240000486373901, 0.0, 0.0, 0.0, 0.0, 0.0, 1.6518370379103875E9, 0.0, 2022-05-06 12:37:17.910
58.0, -209.6961905155331, -59.95807608962059, -117.6123738065362, -148.67598283849657, 0.12800000607967377, 0.12800000607967377, 1.0240000486373901, 0.0, 0.0, 0.0, 0.0, 0.0, 1.6518370379103875E9, 0.0, 2022-05-06 12:37:17.910
59.0, -279.0488952938467, -235.3668638113886, -215.70994964428246, -214.07935326360166, 0.12800000607967377, 0.12800000607967377, 1.0240000486373901, 0.0, 0.0, 0.0, 0.0, 0.0, 1.6518370379263947E9, 0.0, 2022-05-06 12:37:17.926
59.0, -322.704747476615, -265.4319195551798, -260.84306230954826, -243.04861832037568, 0.12800000607967377, 0.12800000607967377, 1.0240000486373901, 0.0, 0.0, 0.0, 0.0, 0.0, 1.6518370379263947E9, 0.0, 2022-05-06 12:37:17.926
60.0, -251.02208502590656, -97.18504024855793, -165.38959574047476, -172.9741128506139, 0.12800000607967377, 0.12800000607967377, 1.0240000486373901, 0.0, 0.0, 0.0, 0.0, 0.0, 1.6518370379273384E9, 0.0, 2022-05-06 12:37:17.927
60.0, -204.63984577544034, -55.93020383734256, -117.65351270604879, -152.1428700974211, 0.12800000607967377, 0.12800000607967377, 1.0240000486373901, 0.0, 0.0, 0.0, 0.0, 0.0, 1.6518370379273384E9, 0.0, 2022-05-06 12:37:17.927
61.0, -264.7998764626682, -221.8134663719684, -195.58180808275938, -190.7947361394763, 0.12800000607967377, 0.12800000607967377, 1.0240000486373901, 0.0, 0.0, 0.0, 0.0, 0.0, 1.6518370379404173E9, 0.0, 2022-05-06 12:37:17.940
61.0, -315.65129616018385, -258.83847593329847, -253.65123469475657, -229.87295077648014, 0.12800000607967377, 0.12800000607967377, 1.0240000486373901, 0.0, 0.0, 0.0, 0.0, 0.0, 1.6518370379404173E9, 0.0, 2022-05-06 12:37:17.940
62.0, -258.2737510399893, -91.43307411670685, -169.68674078956246, -180.5698496606201, 0.12800000607967377, 0.12800000607967377, 1.0240000486373901, 0.0, 0.0, 0.0, 0.0, 0.0, 1.6518370379563828E9, 0.0, 2022-05-06 12:37:17.956
62.0, -207.25777574442327, -53.55536736547947, -111.44527877960354, -155.2170678609982, 0.12800000607967377, 0.12800000607967377, 1.0240000486373901, 0.0, 0.0, 0.0, 0.0, 0.0, 1.6518370379563828E9, 0.0, 2022-05-06 12:37:17.956
63.0, -286.2893416080624, -240.3334509525448, -220.77751408424228, -215.64637134503573, 0.12800000607967377, 0.12800000607967377, 1.0240000486373901, 0.0, 0.0, 0.0, 0.0, 0.0, 1.6518370379573383E9, 0.0, 2022-05-06 12:37:17.957
63.0, -314.70884137135, -263.92473987303674, -252.7461789054796, -224.89140403550118, 0.12800000607967377, 0.12800000607967377, 1.0240000486373901, 0.0, 0.0, 0.0, 0.0, 0.0, 1.6518370379573383E9, 0.0, 2022-05-06 12:37:17.957
64.0, -245.8161442875862, -88.83384364750236, -160.9989531924948, -154.09883777424693, 0.12800000607967377, 0.12800000607967377, 1.0240000486373901, 0.0, 0.0, 0.0, 0.0, 0.0, 1.65183703797039E9, 0.0, 2022-05-06 12:37:17.970
64.0, -207.3961520427838, -58.204063010402024, -121.8010617569089, -162.95492086932063, 0.12800000607967377, 0.12800000607967377, 1.0240000486373901, 0.0, 0.0, 0.0, 0.0, 0.0, 1.65183703797039E9, 0.0, 2022-05-06 12:37:17.970
65.0, -283.64149243943393, -238.58317777328193, -221.3983374768868, -228.6313039911911, 0.12800000607967377, 0.12800000607967377, 1.0240000486373901, 0.0, 0.0, 0.0, 0.0, 0.0, 1.651837038002423E9, 0.0, 2022-05-06 12:37:18.002
65.0, -314.90705606900156, -262.679353187792, -262.25300459284335, -243.06731782015413, 0.12800000607967377, 0.12800000607967377, 1.0240000486373901, 0.0, 0.0, 0.0, 0.0, 0.0, 1.651837038002423E9, 0.0, 2022-05-06 12:37:18.002
66.0, -249.1970138475299, -83.49700641073287, -157.13563653826714, -174.28307783510536, 0.12800000607967377, 0.12800000607967377, 1.0240000486373901, 0.0, 0.0, 0.0, 0.0, 0.0, 1.6518370380033274E9, 0.0, 2022-05-06 12:37:18.003
66.0, -210.2496957089752, -69.27416687924415, -123.49897633679211, -156.48863384593278, 0.12800000607967377, 0.12800000607967377, 1.0240000486373901, 0.0, 0.0, 0.0, 0.0, 0.0, 1.6518370380033274E9, 0.0, 2022-05-06 12:37:18.003
67.0, -267.720738328062, -224.27806044276804, -205.56360106449574, -191.24726403411478, 0.12800000607967377, 0.12800000607967377, 1.0240000486373901, 0.0, 0.0, 0.0, 0.0, 0.0, 1.6518370380043793E9, 0.0, 2022-05-06 12:37:18.004
67.0, -316.54513224959373, -254.41043438576162, -255.73435897007585, -232.94340864010155, 0.12800000607967377, 0.12800000607967377, 1.0240000486373901, 0.0, 0.0, 0.0, 0.0, 0.0, 1.6518370380043793E9, 0.0, 2022-05-06 12:37:18.004
68.0, -243.77415891177952, -84.6675950968638, -158.60915712080896, -176.7551517058164, 0.12800000607967377, 0.12800000607967377, 1.0240000486373901, 0.0, 0.0, 0.0, 0.0, 0.0, 1.65183703800534E9, 0.0, 2022-05-06 12:37:18.005
68.0, -206.6519119516015, -67.77820689696819, -116.71105791721493, -140.0667331404984, 0.12800000607967377, 0.12800000607967377, 1.0240000486373901, 0.0, 0.0, 0.0, 0.0, 0.0, 1.65183703800534E9, 0.0, 2022-05-06 12:37:18.005
69.0, -280.23070367984474, -231.41752945818007, -212.97982267662883, -203.28974189143628, 0.12800000607967377, 0.12800000607967377, 1.0240000486373901, 0.0, 0.0, 0.0, 0.0, 0.0, 1.6518370380153892E9, 0.0, 2022-05-06 12:37:18.015
69.0, -316.42545545101166, -257.58934934809804, -249.73929934110492, -239.90710235759616, 0.12800000607967377, 0.12800000607967377, 1.0240000486373901, 0.0, 0.0, 0.0, 0.0, 0.0, 1.6518370380153892E9, 0.0, 2022-05-06 12:37:18.015
70.0, -237.87259678170085, -80.93143504112959, -147.56149265170097, -155.98748725187033, 0.12800000607967377, 0.12800000607967377, 1.0240000486373901, 0.0, 0.0, 0.0, 0.0, 0.0, 1.6518370380304303E9, 0.0, 2022-05-06 12:37:18.030
70.0, -205.7318965625018, -63.28284715022892, -118.70816449355334, -145.96455537062138, 0.12800000607967377, 0.12800000607967377, 1.0240000486373901, 0.0, 0.0, 0.0, 0.0, 0.0, 1.6518370380304303E9, 0.0, 2022-05-06 12:37:18.030
71.0, -277.911965707317, -228.54154639225453, -207.19419744517654, -193.81283540371805, 0.12800000607967377, 0.12800000607967377, 1.0240000486373901, 0.0, 0.0, 0.0, 0.0, 0.0, 1.6518370380464008E9, 0.0, 2022-05-06 12:37:18.046
71.0, -313.5606920849532, -253.88684839196503, -256.2616848638281, -243.1495956191793, 0.12800000607967377, 0.12800000607967377, 1.0240000486373901, 0.0, 0.0, 0.0, 0.0, 0.0, 1.6518370380464008E9, 0.0, 2022-05-06 12:37:18.046
72.0, -248.83050365187228, -86.95267396979034, -163.7814387595281, -185.93286619707942, 0.12800000607967377, 0.12800000607967377, 1.0240000486373901, 0.0, 0.0, 0.0, 0.0, 0.0, 1.6518370380473313E9, 0.0, 2022-05-06 12:37:18.047
72.0, -216.68232363276184, -77.18031538557261, -127.72132338676602, -148.90411673579365, 0.12800000607967377, 0.12800000607967377, 1.0240000486373901, 0.0, 0.0, 0.0, 0.0, 0.0, 1.6518370380473313E9, 0.0, 2022-05-06 12:37:18.047
73.0, -278.3196148024872, -234.02049982734025, -213.78016126714647, -210.38059220742434, 0.12800000607967377, 0.12800000607967377, 1.0240000486373901, 0.0, 0.0, 0.0, 0.0, 0.0, 1.6518370380603993E9, 0.0, 2022-05-06 12:37:18.060
73.0, -311.5860249083489, -253.236105799675, -253.58391649555415, -236.58233129698783, 0.12800000607967377, 0.12800000607967377, 1.0240000486373901, 0.0, 0.0, 0.0, 0.0, 0.0, 1.6518370380603993E9, 0.0, 2022-05-06 12:37:18.060
74.0, -234.43188882246614, -68.20081559196115, -145.20535567961633, -165.86830293480307, 0.12800000607967377, 0.12800000607967377, 1.0240000486373901, 0.0, 0.0, 0.0, 0.0, 0.0, 1.651837038076394E9, 0.0, 2022-05-06 12:37:18.076
74.0, -204.04520168248564, -60.69109648093581, -115.60030763037503, -142.80060000810772, 0.12800000607967377, 0.12800000607967377, 1.0240000486373901, 0.0, 0.0, 0.0, 0.0, 0.0, 1.651837038076394E9, 0.0, 2022-05-06 12:37:18.076
75.0, -270.4920041952282, -223.6983759496361, -202.75493619777262, -194.50845679547638, 0.12800000607967377, 0.12800000607967377, 1.0240000486373901, 0.0, 0.0, 0.0, 0.0, 0.0, 1.6518370380773358E9, 0.0, 2022-05-06 12:37:18.077
75.0, -315.06039196718484, -249.66076144203544, -257.84366254508495, -246.0779372844845, 0.12800000607967377, 0.12800000607967377, 1.0240000486373901, 0.0, 0.0, 0.0, 0.0, 0.0, 1.6518370380773358E9, 0.0, 2022-05-06 12:37:18.077
76.0, -231.57086535636336, -68.86651778407395, -145.87479777168483, -168.6395688019693, 0.12800000607967377, 0.12800000607967377, 1.0240000486373901, 0.0, 0.0, 0.0, 0.0, 0.0, 1.651837038090435E9, 0.0, 2022-05-06 12:37:18.090
76.0, -220.6989761851728, -83.0033396165818, -129.5052556656301, -157.49092703405768, 0.12800000607967377, 0.12800000607967377, 1.0240000486373901, 0.0, 0.0, 0.0, 0.0, 0.0, 1.651837038090435E9, 0.0, 2022-05-06 12:37:18.090
77.0, -279.4602842889726, -237.34527088794857, -215.67255064472556, -203.86568648461252, 0.12800000607967377, 0.12800000607967377, 1.0240000486373901, 0.0, 0.0, 0.0, 0.0, 0.0, 1.6518370381063898E9, 0.0, 2022-05-06 12:37:18.106
77.0, -309.1476101372391, -251.22403962351382, -261.9051938969642, -231.90745635237545, 0.12800000607967377, 0.12800000607967377, 1.0240000486373901, 0.0, 0.0, 0.0, 0.0, 0.0, 1.6518370381063898E9, 0.0, 2022-05-06 12:37:18.106
78.0, -234.76847981847823, -74.11359742190689, -152.6290570916608, -167.2595457183197, 0.12800000607967377, 0.12800000607967377, 1.0240000486373901, 0.0, 0.0, 0.0, 0.0, 0.0, 1.6518370381073549E9, 0.0, 2022-05-06 12:37:18.107
78.0, -207.52330864127725, -66.31964591424912, -114.1679259473458, -140.69129643309861, 0.12800000607967377, 0.12800000607967377, 1.0240000486373901, 0.0, 0.0, 0.0, 0.0, 0.0, 1.6518370381073549E9, 0.0, 2022-05-06 12:37:18.107
79.0, -268.89506691414863, -222.75966106075794, -208.41714473068714, -204.0938203819096, 0.12800000607967377, 0.12800000607967377, 1.0240000486373901, 0.0, 0.0, 0.0, 0.0, 0.0, 1.6518370381204E9, 0.0, 2022-05-06 12:37:18.120
79.0, -297.52774097491056, -237.4088491871953, -237.19567488972098, -216.2484952379018, 0.12800000607967377, 0.12800000607967377, 1.0240000486373901, 0.0, 0.0, 0.0, 0.0, 0.0, 1.6518370381204E9, 0.0, 2022-05-06 12:37:18.120
80.0, -238.94968796893954, -69.04229308199137, -149.93258922360837, -157.34881083574146, 0.12800000607967377, 0.12800000607967377, 1.0240000486373901, 0.0, 0.0, 0.0, 0.0, 0.0, 1.651837038136433E9, 0.0, 2022-05-06 12:37:18.136
80.0, -200.52595582418144, -58.83236620295793, -109.58654850162566, -142.75946110859513, 0.12800000607967377, 0.12800000607967377, 1.0240000486373901, 0.0, 0.0, 0.0, 0.0, 0.0, 1.651837038136433E9, 0.0, 2022-05-06 12:37:18.136
81.0, -274.1309268521145, -234.08407812658697, -211.8466329900548, -201.23653681576252, 0.12800000607967377, 0.12800000607967377, 1.0240000486373901, 0.0, 0.0, 0.0, 0.0, 0.0, 1.6518370381373746E9, 0.0, 2022-05-06 12:37:18.137
81.0, -299.34159245342016, -230.7032085666433, -238.71407427173108, -228.64252369105816, 0.12800000607967377, 0.12800000607967377, 1.0240000486373901, 0.0, 0.0, 0.0, 0.0, 0.0, 1.6518370381373746E9, 0.0, 2022-05-06 12:37:18.137
82.0, -240.03051905613393, -71.9594150474295, -159.90690240543336, -174.21949953585863, 0.12800000607967377, 0.12800000607967377, 1.0240000486373901, 0.0, 0.0, 0.0, 0.0, 0.0, 1.6518370381503854E9, 0.0, 2022-05-06 12:37:18.150
82.0, -214.50196195859462, -81.05485173966736, -129.74460926279426, -164.2302267542109, 0.12800000607967377, 0.12800000607967377, 1.0240000486373901, 0.0, 0.0, 0.0, 0.0, 0.0, 1.6518370381503854E9, 0.0, 2022-05-06 12:37:18.150
83.0, -283.71255053859204, -241.18240824248642, -220.90467068273574, -212.86014587804675, 0.12800000607967377, 0.12800000607967377, 1.0240000486373901, 0.0, 0.0, 0.0, 0.0, 0.0, 1.651837038166402E9, 0.0, 2022-05-06 12:37:18.166
83.0, -303.8818309996277, -240.05295845586807, -241.71347403619438, -224.60717163886875, 0.12800000607967377, 0.12800000607967377, 1.0240000486373901, 0.0, 0.0, 0.0, 0.0, 0.0, 1.651837038166402E9, 0.0, 2022-05-06 12:37:18.166
84.0, -233.25382033642381, -73.91164282429963, -151.46594820544124, -166.72100012470037, 0.12800000607967377, 0.12800000607967377, 1.0240000486373901, 0.0, 0.0, 0.0, 0.0, 0.0, 1.6518370381673515E9, 0.0, 2022-05-06 12:37:18.167
84.0, -205.9862097594887, -73.70968822669238, -126.33382050320506, -161.82921098265797, 0.12800000607967377, 0.12800000607967377, 1.0240000486373901, 0.0, 0.0, 0.0, 0.0, 0.0, 1.6518370381673515E9, 0.0, 2022-05-06 12:37:18.167
85.0, -273.62230045814067, -240.62142324913293, -215.13400505110621, -211.8054940905422, 0.12800000607967377, 0.12800000607967377, 1.0240000486373901, 0.0, 0.0, 0.0, 0.0, 0.0, 1.6518370381803854E9, 0.0, 2022-05-06 12:37:18.180
85.0, -313.16800258960575, -247.20738707110286, -258.2363520404324, -236.93762179277837, 0.12800000607967377, 0.12800000607967377, 1.0240000486373901, 0.0, 0.0, 0.0, 0.0, 0.0, 1.6518370381803854E9, 0.0, 2022-05-06 12:37:18.180
86.0, -241.50029973872006, -77.74504027888179, -154.93283546436578, -173.69591354206204, 0.12800000607967377, 0.12800000607967377, 1.0240000486373901, 0.0, 0.0, 0.0, 0.0, 0.0, 1.6518370381963866E9, 0.0, 2022-05-06 12:37:18.196
86.0, -204.45285077765584, -69.62197757512331, -116.15381282381713, -145.50080777611583, 0.12800000607967377, 0.12800000607967377, 1.0240000486373901, 0.0, 0.0, 0.0, 0.0, 0.0, 1.6518370381963866E9, 0.0, 2022-05-06 12:37:18.196
87.0, -281.3152746669948, -241.01037284452468, -219.68172339722514, -209.73358951509, 0.12800000607967377, 0.12800000607967377, 1.0240000486373901, 0.0, 0.0, 0.0, 0.0, 0.0, 1.6518370381973565E9, 0.0, 2022-05-06 12:37:18.197
87.0, -298.3280795654282, -241.05899154394865, -243.42634821590036, -215.70620974432677, 0.12800000607967377, 0.12800000607967377, 1.0240000486373901, 0.0, 0.0, 0.0, 0.0, 0.0, 1.6518370381973565E9, 0.0, 2022-05-06 12:37:18.197
88.0, -226.00589422229677, -61.16606377530843, -139.2140359506011, -153.56777198053896, 0.12800000607967377, 0.12800000607967377, 1.0240000486373901, 0.0, 0.0, 0.0, 0.0, 0.0, 1.6518370382103696E9, 0.0, 2022-05-06 12:37:18.210
88.0, -203.18128479272127, -66.45802221260965, -108.41221991553903, -122.45554424915463, 0.12800000607967377, 0.12800000607967377, 1.0240000486373901, 0.0, 0.0, 0.0, 0.0, 0.0, 1.6518370382103696E9, 0.0, 2022-05-06 12:37:18.210
89.0, -271.8009691797197, -230.11978417355567, -204.3556133788079, -176.73271230608225, 0.12800000607967377, 0.12800000607967377, 1.0240000486373901, 0.0, 0.0, 0.0, 0.0, 0.0, 1.6518370382423804E9, 0.0, 2022-05-06 12:37:18.242
89.0, -296.82089988328516, -233.47073453385383, -250.84630972798914, -233.72504773084074, 0.12800000607967377, 0.12800000607967377, 1.0240000486373901, 0.0, 0.0, 0.0, 0.0, 0.0, 1.6518370382423804E9, 0.0, 2022-05-06 12:37:18.242
90.0, -219.63310469780117, -56.05736043583602, -130.01014215964824, -148.81809903681278, 0.12800000607967377, 0.12800000607967377, 1.0240000486373901, 0.0, 0.0, 0.0, 0.0, 0.0, 1.651837038243343E9, 0.0, 2022-05-06 12:37:18.243
90.0, -197.92298545502126, -69.93238927144557, -120.00216987822205, -157.8873564293608, 0.12800000607967377, 0.12800000607967377, 1.0240000486373901, 0.0, 0.0, 0.0, 0.0, 0.0, 1.651837038243343E9, 0.0, 2022-05-06 12:37:18.243
91.0, -273.97011115401983, -237.7828391827643, -217.60607892181724, -211.66337789222598, 0.12800000607967377, 0.12800000607967377, 1.0240000486373901, 0.0, 0.0, 0.0, 0.0, 0.0, 1.6518370382443564E9, 0.0, 2022-05-06 12:37:18.244
91.0, -305.30673288274556, -235.68101540766656, -248.56871065497398, -231.4025698583573, 0.12800000607967377, 0.12800000607967377, 1.0240000486373901, 0.0, 0.0, 0.0, 0.0, 0.0, 1.6518370382443564E9, 0.0, 2022-05-06 12:37:18.244
92.0, -227.83470530062914, -66.35704491380602, -146.82847226038575, -168.36281620524824, 0.12800000607967377, 0.12800000607967377, 1.0240000486373901, 0.0, 0.0, 0.0, 0.0, 0.0, 1.651837038245415E9, 0.0, 2022-05-06 12:37:18.245
92.0, -210.64612510427833, -83.03325881622732, -123.68223143462092, -146.09919176902622, 0.12800000607967377, 0.12800000607967377, 1.0240000486373901, 0.0, 0.0, 0.0, 0.0, 0.0, 1.651837038245415E9, 0.0, 2022-05-06 12:37:18.245
93.0, -279.70711768604815, -247.81325086392462, -233.08552483841777, -221.06174648087472, 0.12800000607967377, 0.12800000607967377, 1.0240000486373901, 0.0, 0.0, 0.0, 0.0, 0.0, 1.6518370382553895E9, 0.0, 2022-05-06 12:37:18.255
93.0, -301.6565905259922, -230.8864636644721, -246.30981108173728, -229.1810692846775, 0.12800000607967377, 0.12800000607967377, 1.0240000486373901, 0.0, 0.0, 0.0, 0.0, 0.0, 1.6518370382553895E9, 0.0, 2022-05-06 12:37:18.255
94.0, -243.32911081705242, -74.28937271982431, -157.54328563343734, -175.22179272398353, 0.12800000607967377, 0.12800000607967377, 1.0240000486373901, 0.0, 0.0, 0.0, 0.0, 0.0, 1.651837038270444E9, 0.0, 2022-05-06 12:37:18.270
94.0, -205.34294696711004, -74.2183146206662, -116.14633302390575, -148.9564753351733, 0.12800000607967377, 0.12800000607967377, 1.0240000486373901, 0.0, 0.0, 0.0, 0.0, 0.0, 1.651837038270444E9, 0.0, 2022-05-06 12:37:18.270
95.0, -281.52470906451344, -253.8943281918764, -226.2228084197268, -210.07766031101346, 0.12800000607967377, 0.12800000607967377, 1.0240000486373901, 0.0, 0.0, 0.0, 0.0, 0.0, 1.651837038286381E9, 0.0, 2022-05-06 12:37:18.286
95.0, -301.8548052236438, -234.85823741741478, -246.6314424779266, -229.08383188582957, 0.12800000607967377, 0.12800000607967377, 1.0240000486373901, 0.0, 0.0, 0.0, 0.0, 0.0, 1.651837038286381E9, 0.0, 2022-05-06 12:37:18.286
96.0, -222.63998426217586, -64.5880722347647, -139.9956750413403, -158.2576065249741, 0.12800000607967377, 0.12800000607967377, 1.0240000486373901, 0.0, 0.0, 0.0, 0.0, 0.0, 1.6518370382873623E9, 0.0, 2022-05-06 12:37:18.287
96.0, -202.88957259617746, -79.46165435854346, -124.66956502292305, -153.04792588669807, 0.12800000607967377, 0.12800000607967377, 1.0240000486373901, 0.0, 0.0, 0.0, 0.0, 0.0, 1.6518370382873623E9, 0.0, 2022-05-06 12:37:18.287
97.0, -284.16133853327483, -253.95416659116745, -228.83325858879834, -225.55710622761399, 0.12800000607967377, 0.12800000607967377, 1.0240000486373901, 0.0, 0.0, 0.0, 0.0, 0.0, 1.6518370383004608E9, 0.0, 2022-05-06 12:37:18.300
97.0, -285.34688681922853, -225.08213893324137, -234.65254291985184, -213.39121167175472, 0.12800000607967377, 0.12800000607967377, 1.0240000486373901, 0.0, 0.0, 0.0, 0.0, 0.0, 1.6518370383004608E9, 0.0, 2022-05-06 12:37:18.300
98.0, -225.32149253040552, -66.07655241712928, -140.4407231360674, -155.51251995749772, 0.12800000607967377, 0.12800000607967377, 1.0240000486373901, 0.0, 0.0, 0.0, 0.0, 0.0, 1.6518370383164003E9, 0.0, 2022-05-06 12:37:18.316
98.0, -199.26560953911394, -71.8883569482714, -108.1279875189066, -121.70008445810527, 0.12800000607967377, 0.12800000607967377, 1.0240000486373901, 0.0, 0.0, 0.0, 0.0, 0.0, 1.6518370383164003E9, 0.0, 2022-05-06 12:37:18.316
99.0, -276.52072292380035, -241.1562289427966, -223.3243859540671, -211.6596379922703, 0.12800000607967377, 0.12800000607967377, 1.0240000486373901, 0.0, 0.0, 0.0, 0.0, 0.0, 1.6518370383173232E9, 0.0, 2022-05-06 12:37:18.317
99.0, -297.5053015751764, -227.8085260009393, -240.73362024780363, -223.13365105632693, 0.12800000607967377, 0.12800000607967377, 1.0240000486373901, 0.0, 0.0, 0.0, 0.0, 0.0, 1.6518370383173232E9, 0.0, 2022-05-06 12:37:18.317
100.0, -220.141731091775, -54.894251549616456, -138.26036146190017, -159.37957651168108, 0.12800000607967377, 0.12800000607967377, 1.0240000486373901, 0.0, 0.0, 0.0, 0.0, 0.0, 1.65183703833139E9, 0.0, 2022-05-06 12:37:18.331
100.0, -207.60558644030243, -83.519445810467, -124.73314332216978, -165.7037473367527, 0.12800000607967377, 0.12800000607967377, 1.0240000486373901, 0.0, 0.0, 0.0, 0.0, 0.0, 1.65183703833139E9, 0.0, 2022-05-06 12:37:18.331
0.0, -274.7928891442716, -240.05295845586807, -215.22002275008708, -201.19165801629424, 0.12800000607967377, 0.12800000607967377, 1.0240000486373901, 0.0, 0.0, 0.0, 0.0, 0.0, 1.6518370383323457E9, 0.0, 2022-05-06 12:37:18.332
1.0, -290.3284335602075, -220.26888769026846, -234.7049015192315, -227.70754870213568, 0.12800000607967377, 0.12800000607967377, 1.0240000486373901, 0.0, 0.0, 0.0, 0.0, 0.0, 1.6518370383454306E9, 0.0, 2022-05-06 12:37:18.345
1.0, -227.41583650559187, -69.98848777078092, -146.921969759278, -180.69700625911355, 0.12800000607967377, 0.12800000607967377, 1.0240000486373901, 0.0, 0.0, 0.0, 0.0, 0.0, 1.6518370383454306E9, 0.0, 2022-05-06 12:37:18.345
2.0, -203.60015358775854, -86.522585474886, -124.5760675240308, -161.32058458868414, 0.12800000607967377, 0.12800000607967377, 1.0240000486373901, 0.0, 0.0, 0.0, 0.0, 0.0, 1.6518370383613777E9, 0.0, 2022-05-06 12:37:18.361
2.0, -284.4306113300845, -241.69103463646024, -221.24126167874783, -205.62717936374247, 0.12800000607967377, 0.12800000607967377, 1.0240000486373901, 0.0, 0.0, 0.0, 0.0, 0.0, 1.6518370383613777E9, 0.0, 2022-05-06 12:37:18.361
3.0, -308.60906454361975, -228.23113469593227, -243.45626741554588, -224.2593609429896, 0.12800000607967377, 0.12800000607967377, 1.0240000486373901, 0.0, 0.0, 0.0, 0.0, 0.0, 1.6518370383764007E9, 0.0, 2022-05-06 12:37:18.376
3.0, -224.4014771413058, -61.14362437557429, -139.67404364515096, -158.5193995218724, 0.12800000607967377, 0.12800000607967377, 1.0240000486373901, 0.0, 0.0, 0.0, 0.0, 0.0, 1.6518370383764007E9, 0.0, 2022-05-06 12:37:18.376
4.0, -213.81382036674768, -100.03858391474932, -139.23647535033524, -159.1477027144283, 0.12800000607967377, 0.12800000607967377, 1.0240000486373901, 0.0, 0.0, 0.0, 0.0, 0.0, 1.6518370383773456E9, 0.0, 2022-05-06 12:37:18.377
4.0, -293.9187375176698, -263.8349822741002, -236.79550559446216, -222.72600196115673, 0.12800000607967377, 0.12800000607967377, 1.0240000486373901, 0.0, 0.0, 0.0, 0.0, 0.0, 1.6518370383773456E9, 0.0, 2022-05-06 12:37:18.377
5.0, -304.84298528824, -237.79031898267567, -252.25625201128423, -227.3260789066553, 0.12800000607967377, 0.12800000607967377, 1.0240000486373901, 0.0, 0.0, 0.0, 0.0, 0.0, 1.651837038391398E9, 0.0, 2022-05-06 12:37:18.391
5.0, -220.86353178322315, -59.04554050043225, -130.30559425614774, -143.44760270044208, 0.12800000607967377, 0.12800000607967377, 1.0240000486373901, 0.0, 0.0, 0.0, 0.0, 0.0, 1.651837038391398E9, 0.0, 2022-05-06 12:37:18.391
6.0, -212.53103468194604, -89.33125034160912, -129.93160426057875, -157.58068463299423, 0.12800000607967377, 0.12800000607967377, 1.0240000486373901, 0.0, 0.0, 0.0, 0.0, 0.0, 1.6518370383923635E9, 0.0, 2022-05-06 12:37:18.392
6.0, -272.3918733727187, -237.82771798223257, -216.4018311360851, -211.35296619590372, 0.12800000607967377, 0.12800000607967377, 1.0240000486373901, 0.0, 0.0, 0.0, 0.0, 0.0, 1.6518370383923635E9, 0.0, 2022-05-06 12:37:18.392
7.0, -289.5542742693797, -211.8092339904979, -223.16731015592813, -205.4289646660909, 0.12800000607967377, 0.12800000607967377, 1.0240000486373901, 0.0, 0.0, 0.0, 0.0, 0.0, 1.6518370384053977E9, 0.0, 2022-05-06 12:37:18.405
7.0, -221.22256217896938, -56.977375824935734, -139.7750209439546, -169.64934179000556, 0.12800000607967377, 0.12800000607967377, 1.0240000486373901, 0.0, 0.0, 0.0, 0.0, 0.0, 1.6518370384053977E9, 0.0, 2022-05-06 12:37:18.405
8.0, -205.30928786750883, -84.28986520133913, -125.66063851118088, -147.64377045072615, 0.12800000607967377, 0.12800000607967377, 1.0240000486373901, 0.0, 0.0, 0.0, 0.0, 0.0, 1.6518370384215577E9, 0.0, 2022-05-06 12:37:18.421
8.0, -283.1253862455487, -250.18434743583202, -226.31256601866335, -223.87415124755353, 0.12800000607967377, 0.12800000607967377, 1.0240000486373901, 0.0, 0.0, 0.0, 0.0, 0.0, 1.6518370384215577E9, 0.0, 2022-05-06 12:37:18.421
9.0, -295.3660788005218, -217.4377834238112, -241.27590574137866, -228.23861449584365, 0.12800000607967377, 0.12800000607967377, 1.0240000486373901, 0.0, 0.0, 0.0, 0.0, 0.0, 1.651837038422321E9, 0.0, 2022-05-06 12:37:18.422
9.0, -228.3321119947359, -66.24858781509101, -142.72580200899392, -167.64849531371146, 0.12800000607967377, 0.12800000607967377, 1.0240000486373901, 0.0, 0.0, 0.0, 0.0, 0.0, 1.651837038422321E9, 0.0, 2022-05-06 12:37:18.422
10.0, -200.3165214266628, -79.08766436297446, -120.63421297073364, -147.43059615325183, 0.12800000607967377, 0.12800000607967377, 1.0240000486373901, 0.0, 0.0, 0.0, 0.0, 0.0, 1.6518370384353955E9, 0.0, 2022-05-06 12:37:18.435
10.0, -277.4631777126342, -242.67836822476238, -220.2875871900469, -203.23738329205662, 0.12800000607967377, 0.12800000607967377, 1.0240000486373901, 0.0, 0.0, 0.0, 0.0, 0.0, 1.6518370384353955E9, 0.0, 2022-05-06 12:37:18.435
11.0, -293.38393182400614, -220.44840288814157, -237.98479378037155, -221.49183497577906, 0.12800000607967377, 0.12800000607967377, 1.0240000486373901, 0.0, 0.0, 0.0, 0.0, 0.0, 1.651837038451403E9, 0.0, 2022-05-06 12:37:18.451
11.0, -224.39773724135011, -58.48081560712308, -137.22440917417407, -156.39887624699622, 0.12800000607967377, 0.12800000607967377, 1.0240000486373901, 0.0, 0.0, 0.0, 0.0, 0.0, 1.651837038451403E9, 0.0, 2022-05-06 12:37:18.451
12.0, -202.3959058020264, -83.25017301365733, -116.71853771712631, -126.96586359571666, 0.12800000607967377, 0.12800000607967377, 1.0240000486373901, 0.0, 0.0, 0.0, 0.0, 0.0, 1.6518370384523563E9, 0.0, 2022-05-06 12:37:18.452
12.0, -261.77803729847074, -237.2218541894108, -213.49966877046973, -198.61860684677958, 0.12800000607967377, 0.12800000607967377, 1.0240000486373901, 0.0, 0.0, 0.0, 0.0, 0.0, 1.6518370384523563E9, 0.0, 2022-05-06 12:37:18.452
13.0, -294.10947241541, -224.809126236476, -239.97442055679858, -227.01566721033305, 0.12800000607967377, 0.12800000607967377, 1.0240000486373901, 0.0, 0.0, 0.0, 0.0, 0.0, 1.6518370384654045E9, 0.0, 2022-05-06 12:37:18.465
13.0, -226.15549022052437, -62.68446315731853, -140.70625603292137, -161.08497089147568, 0.12800000607967377, 0.12800000607967377, 1.0240000486373901, 0.0, 0.0, 0.0, 0.0, 0.0, 1.6518370384654045E9, 0.0, 2022-05-06 12:37:18.465
14.0, -204.51268917694688, -93.1160290967673, -130.5412079533562, -161.3392840884626, 0.12800000607967377, 0.12800000607967377, 1.0240000486373901, 0.0, 0.0, 0.0, 0.0, 0.0, 1.6518370384814372E9, 0.0, 2022-05-06 12:37:18.481
14.0, -268.92872601374984, -244.88490919861943, -222.46794886421412, -205.92263146024197, 0.12800000607967377, 0.12800000607967377, 1.0240000486373901, 0.0, 0.0, 0.0, 0.0, 0.0, 1.6518370384814372E9, 0.0, 2022-05-06 12:37:18.481
15.0, -293.3315732246265, -211.70451679173857, -223.90781034715474, -194.10828750021756, 0.12800000607967377, 0.12800000607967377, 1.0240000486373901, 0.0, 0.0, 0.0, 0.0, 0.0, 1.651837038482507E9, 0.0, 2022-05-06 12:37:18.482
15.0, -220.42222358845174, -59.07919960003346, -132.74774892721325, -158.23142722528428, 0.12800000607967377, 0.12800000607967377, 1.0240000486373901, 0.0, 0.0, 0.0, 0.0, 0.0, 1.651837038482507E9, 0.0, 2022-05-06 12:37:18.482
16.0, -213.01348177623004, -100.93989980407059, -139.44216984789819, -175.57334331981838, 0.12800000607967377, 0.12800000607967377, 1.0240000486373901, 0.0, 0.0, 0.0, 0.0, 0.0, 1.6518370384953885E9, 0.0, 2022-05-06 12:37:18.495
16.0, -278.7160441977903, -252.4507268089801, -236.57111159712076, -224.5510731395334, 0.12800000607967377, 0.12800000607967377, 1.0240000486373901, 0.0, 0.0, 0.0, 0.0, 0.0, 1.6518370384953885E9, 0.0, 2022-05-06 12:37:18.495
17.0, -288.37620578333735, -210.4666099064052, -229.1848091846332, -212.4337972830981, 0.12800000607967377, 0.12800000607967377, 1.0240000486373901, 0.0, 0.0, 0.0, 0.0, 0.0, 1.651837038511379E9, 0.0, 2022-05-06 12:37:18.511
17.0, -220.97572878189385, -55.89654473774135, -133.5780067173764, -154.7757596662268, 0.12800000607967377, 0.12800000607967377, 1.0240000486373901, 0.0, 0.0, 0.0, 0.0, 0.0, 1.651837038511379E9, 0.0, 2022-05-06 12:37:18.511
18.0, -210.41051140706986, -92.81683710031211, -131.9885492362082, -155.12731026206166, 0.12800000607967377, 0.12800000607967377, 1.0240000486373901, 0.0, 0.0, 0.0, 0.0, 0.0, 1.6518370385123403E9, 0.0, 2022-05-06 12:37:18.512
18.0, -282.9907498471439, -253.48293919675052, -238.06707157939672, -224.8427853360772, 0.12800000607967377, 0.12800000607967377, 1.0240000486373901, 0.0, 0.0, 0.0, 0.0, 0.0, 1.6518370385123403E9, 0.0, 2022-05-06 12:37:18.512
19.0, -288.56694068107754, -217.07501312810928, -241.24224664177746, -223.82179264817387, 0.12800000607967377, 0.12800000607967377, 1.0240000486373901, 0.0, 0.0, 0.0, 0.0, 0.0, 1.651837038525432E9, 0.0, 2022-05-06 12:37:18.525
19.0, -230.2544205719605, -60.71353588066995, -142.42287011258304, -168.4899728037417, 0.12800000607967377, 0.12800000607967377, 1.0240000486373901, 0.0, 0.0, 0.0, 0.0, 0.0, 1.651837038525432E9, 0.0, 2022-05-06 12:37:18.525
20.0, -213.6230854690075, -99.61971511971205, -128.60767967626452, -150.42625601775944, 0.12800000607967377, 0.12800000607967377, 1.0240000486373901, 0.0, 0.0, 0.0, 0.0, 0.0, 1.651837038541448E9, 0.0, 2022-05-06 12:37:18.541
20.0, -275.9447783306241, -242.86162332259119, -220.1043320922181, -207.81502083782107, 0.12800000607967377, 0.12800000607967377, 1.0240000486373901, 0.0, 0.0, 0.0, 0.0, 0.0, 1.651837038541448E9, 0.0, 2022-05-06 12:37:18.541
21.0, -293.9149976177141, -216.74964183196425, -239.90336245764047, -224.2593609429896, 0.12800000607967377, 0.12800000607967377, 1.0240000486373901, 0.0, 0.0, 0.0, 0.0, 0.0, 1.6518370385563867E9, 0.0, 2022-05-06 12:37:18.556
21.0, -221.52175417542458, -54.123832158744335, -136.81676007900387, -155.0038935635239, 0.12800000607967377, 0.12800000607967377, 1.0240000486373901, 0.0, 0.0, 0.0, 0.0, 0.0, 1.6518370385563867E9, 0.0, 2022-05-06 12:37:18.556
22.0, -212.79656757880002, -94.76532497722656, -127.08180049434304, -146.38716406561434, 0.12800000607967377, 0.12800000607967377, 1.0240000486373901, 0.0, 0.0, 0.0, 0.0, 0.0, 1.6518370385573373E9, 0.0, 2022-05-06 12:37:18.557
22.0, -283.70507073868066, -257.263978051953, -230.43393576983362, -225.4449092289433, 0.12800000607967377, 0.12800000607967377, 1.0240000486373901, 0.0, 0.0, 0.0, 0.0, 0.0, 1.6518370385573373E9, 0.0, 2022-05-06 12:37:18.557
23.0, -295.81860669516027, -221.05052678100765, -236.05126550327986, -206.7229700507596, 0.12800000607967377, 0.12800000607967377, 1.0240000486373901, 0.0, 0.0, 0.0, 0.0, 0.0, 1.651837038571388E9, 0.0, 2022-05-06 12:37:18.571
23.0, -223.98634824622422, -52.18282408174127, -129.81192746199667, -154.25217367243022, 0.12800000607967377, 0.12800000607967377, 1.0240000486373901, 0.0, 0.0, 0.0, 0.0, 0.0, 1.651837038571388E9, 0.0, 2022-05-06 12:37:18.571
24.0, -213.37251217197627, -99.46637922152877, -134.16891091037542, -145.16795668005943, 0.12800000607967377, 0.12800000607967377, 1.0240000486373901, 0.0, 0.0, 0.0, 0.0, 0.0, 1.6518370385723913E9, 0.0, 2022-05-06 12:37:18.572
24.0, -285.4029853185639, -258.6327814357355, -231.30907235946506, -211.74565569125116, 0.12800000607967377, 0.12800000607967377, 1.0240000486373901, 0.0, 0.0, 0.0, 0.0, 0.0, 1.6518370385723913E9, 0.0, 2022-05-06 12:37:18.572
25.0, -298.8105266597122, -219.06090000458062, -249.70564024150372, -242.0089261326939, 0.12800000607967377, 0.12800000607967377, 1.0240000486373901, 0.0, 0.0, 0.0, 0.0, 0.0, 1.6518370385853915E9, 0.0, 2022-05-06 12:37:18.585
25.0, -224.2518811430782, -58.00210841279477, -141.04658692888916, -163.8225776590407, 0.12800000607967377, 0.12800000607967377, 1.0240000486373901, 0.0, 0.0, 0.0, 0.0, 0.0, 1.6518370385853915E9, 0.0, 2022-05-06 12:37:18.585
26.0, -219.05716010462493, -107.3463484281674, -135.56015369389206, -157.79385893046856, 0.12800000607967377, 0.12800000607967377, 1.0240000486373901, 0.0, 0.0, 0.0, 0.0, 0.0, 1.651837038601474E9, 0.0, 2022-05-06 12:37:18.601
26.0, -296.74610188417137, -265.58525545336306, -239.62286996096373, -222.7372216610238, 0.12800000607967377, 0.12800000607967377, 1.0240000486373901, 0.0, 0.0, 0.0, 0.0, 0.0, 1.651837038601474E9, 0.0, 2022-05-06 12:37:18.601
27.0, -286.45389720611274, -214.82359335478395, -236.8179449941963, -221.4731354760006, 0.12800000607967377, 0.12800000607967377, 1.0240000486373901, 0.0, 0.0, 0.0, 0.0, 0.0, 1.6518370386023262E9, 0.0, 2022-05-06 12:37:18.602
27.0, -234.51042672153562, -65.31361282616854, -142.35181201342493, -175.32277002278715, 0.12800000607967377, 0.12800000607967377, 1.0240000486373901, 0.0, 0.0, 0.0, 0.0, 0.0, 1.6518370386023262E9, 0.0, 2022-05-06 12:37:18.602
28.0, -226.53322011604905, -112.70188516471535, -138.33141956105828, -162.20320097822696, 0.12800000607967377, 0.12800000607967377, 1.0240000486373901, 0.0, 0.0, 0.0, 0.0, 0.0, 1.6518370386153977E9, 0.0, 2022-05-06 12:37:18.615
28.0, -307.49831425677985, -278.9404381951317, -254.33189648669213, -239.4134355634451, 0.12800000607967377, 0.12800000607967377, 1.0240000486373901, 0.0, 0.0, 0.0, 0.0, 0.0, 1.6518370386153977E9, 0.0, 2022-05-06 12:37:18.615
29.0, -310.415436222218, -221.48435517586768, -242.80926472321153, -222.09395886864513, 0.12800000607967377, 0.12800000607967377, 1.0240000486373901, 0.0, 0.0, 0.0, 0.0, 0.0, 1.6518370386313877E9, 0.0, 2022-05-06 12:37:18.631
29.0, -226.27516701910645, -59.16147739905864, -135.60503249336034, -157.2590532368049, 0.12800000607967377, 0.12800000607967377, 1.0240000486373901, 0.0, 0.0, 0.0, 0.0, 0.0, 1.6518370386313877E9, 0.0, 2022-05-06 12:37:18.631
30.0, -222.9990146579221, -111.2732433816418, -141.01292782928795, -175.65936101879925, 0.12800000607967377, 0.12800000607967377, 1.0240000486373901, 0.0, 0.0, 0.0, 0.0, 0.0, 1.6518370386323285E9, 0.0, 2022-05-06 12:37:18.632
30.0, -293.52604802232236, -260.8655017092824, -243.1869946187362, -228.45926859322935, 0.12800000607967377, 0.12800000607967377, 1.0240000486373901, 0.0, 0.0, 0.0, 0.0, 0.0, 1.6518370386323285E9, 0.0, 2022-05-06 12:37:18.632
31.0, -286.82414730172604, -203.6151131875813, -228.50788729265332, -209.6550516160205, 0.12800000607967377, 0.12800000607967377, 1.0240000486373901, 0.0, 0.0, 0.0, 0.0, 0.0, 1.651837038645394E9, 0.0, 2022-05-06 12:37:18.645
31.0, -223.2907268544659, -50.78784139826894, -132.14562503434718, -156.05854535102844, 0.12800000607967377, 0.12800000607967377, 1.0240000486373901, 0.0, 0.0, 0.0, 0.0, 0.0, 1.651837038645394E9, 0.0, 2022-05-06 12:37:18.645
32.0, -224.79042673669755, -109.09288170747459, -136.22959578596056, -158.20524792559445, 0.12800000607967377, 0.12800000607967377, 1.0240000486373901, 0.0, 0.0, 0.0, 0.0, 0.0, 1.651837038661482E9, 0.0, 2022-05-06 12:37:18.661
32.0, -287.71424349118024, -254.59368948359042, -228.65000349096954, -206.58833365235478, 0.12800000607967377, 0.12800000607967377, 1.0240000486373901, 0.0, 0.0, 0.0, 0.0, 0.0, 1.651837038661482E9, 0.0, 2022-05-06 12:37:18.661
33.0, -306.35390487033874, -209.97294311225414, -245.58053059037775, -230.4788145693019, 0.12800000607967377, 0.12800000607967377, 1.0240000486373901, 0.0, 0.0, 0.0, 0.0, 0.0, 1.6518370386623523E9, 0.0, 2022-05-06 12:37:18.662
33.0, -215.71368954423815, -43.60723348334432, -122.18253155238926, -144.5172140877694, 0.12800000607967377, 0.12800000607967377, 1.0240000486373901, 0.0, 0.0, 0.0, 0.0, 0.0, 1.6518370386623523E9, 0.0, 2022-05-06 12:37:18.662
34.0, -220.90093078278005, -103.84206216968596, -134.12777201086283, -145.74016137328, 0.12800000607967377, 0.12800000607967377, 1.0240000486373901, 0.0, 0.0, 0.0, 0.0, 0.0, 1.6518370386753767E9, 0.0, 2022-05-06 12:37:18.675
34.0, -286.7605690024793, -252.4544667089358, -229.39424358215183, -218.6233317097649, 0.12800000607967377, 0.12800000607967377, 1.0240000486373901, 0.0, 0.0, 0.0, 0.0, 0.0, 1.6518370386753767E9, 0.0, 2022-05-06 12:37:18.675
35.0, -298.245801766403, -208.48072302993387, -237.34153098799288, -232.53201964497566, 0.12800000607967377, 0.12800000607967377, 1.0240000486373901, 0.0, 0.0, 0.0, 0.0, 0.0, 1.6518370386913931E9, 0.0, 2022-05-06 12:37:18.691
35.0, -224.28180034272373, -53.00934197194874, -133.75752191524953, -158.62037682067603, 0.12800000607967377, 0.12800000607967377, 1.0240000486373901, 0.0, 0.0, 0.0, 0.0, 0.0, 1.6518370386913931E9, 0.0, 2022-05-06 12:37:18.691
36.0, -224.74554793722928, -111.43031917978078, -140.08169274032116, -157.24035373702645, 0.12800000607967377, 0.12800000607967377, 1.0240000486373901, 0.0, 0.0, 0.0, 0.0, 0.0, 1.651837038692422E9, 0.0, 2022-05-06 12:37:18.692
36.0, -293.9112577177584, -263.8649014737457, -239.06936476752162, -223.15983035601676, 0.12800000607967377, 0.12800000607967377, 1.0240000486373901, 0.0, 0.0, 0.0, 0.0, 0.0, 1.651837038692422E9, 0.0, 2022-05-06 12:37:18.692
37.0, -301.4022773290053, -209.86448601353914, -234.41692922264338, -226.52200041618198, 0.12800000607967377, 0.12800000607967377, 1.0240000486373901, 0.0, 0.0, 0.0, 0.0, 0.0, 1.651837038705387E9, 0.0, 2022-05-06 12:37:18.705
37.0, -222.64746406208724, -54.82319345045835, -136.55870698206127, -159.39079621154815, 0.12800000607967377, 0.12800000607967377, 1.0240000486373901, 0.0, 0.0, 0.0, 0.0, 0.0, 1.651837038705387E9, 0.0, 2022-05-06 12:37:18.705
38.0, -215.22750254999846, -107.54456312581897, -133.6228855168447, -156.53725254535675, 0.12800000607967377, 0.12800000607967377, 1.0240000486373901, 0.0, 0.0, 0.0, 0.0, 0.0, 1.651837038721406E9, 0.0, 2022-05-06 12:37:18.721
38.0, -292.0974062392488, -257.0096648549661, -228.6275640912354, -220.01831439323723, 0.12800000607967377, 0.12800000607967377, 1.0240000486373901, 0.0, 0.0, 0.0, 0.0, 0.0, 1.651837038721406E9, 0.0, 2022-05-06 12:37:18.721
39.0, -290.7024235557765, -195.14797968789935, -229.1436702851206, -216.11385883949697, 0.12800000607967377, 0.12800000607967377, 1.0240000486373901, 0.0, 0.0, 0.0, 0.0, 0.0, 1.6518370387223408E9, 0.0, 2022-05-06 12:37:18.722
39.0, -206.51353565324098, -36.52012306731194, -118.88019989151508, -146.9631086587906, 0.12800000607967377, 0.12800000607967377, 1.0240000486373901, 0.0, 0.0, 0.0, 0.0, 0.0, 1.6518370387223408E9, 0.0, 2022-05-06 12:37:18.722
40.0, -212.96112317685038, -110.25599059369415, -130.79178125038743, -152.4084029942751, 0.12800000607967377, 0.12800000607967377, 1.0240000486373901, 0.0, 0.0, 0.0, 0.0, 0.0, 1.651837038735398E9, 0.0, 2022-05-06 12:37:18.735
40.0, -293.19693682622164, -263.5320503776893, -239.1142435669899, -224.7754671368748, 0.12800000607967377, 0.12800000607967377, 1.0240000486373901, 0.0, 0.0, 0.0, 0.0, 0.0, 1.651837038735398E9, 0.0, 2022-05-06 12:37:18.735
41.0, -291.1362519506365, -195.5331893833354, -219.50220819935203, -201.52824901230633, 0.12800000607967377, 0.12800000607967377, 1.0240000486373901, 0.0, 0.0, 0.0, 0.0, 0.0, 1.6518370387513773E9, 0.0, 2022-05-06 12:37:18.751
41.0, -208.3573063313961, -34.26496339403093, -113.56580205447972, -138.27158116176724, 0.12800000607967377, 0.12800000607967377, 1.0240000486373901, 0.0, 0.0, 0.0, 0.0, 0.0, 1.6518370387513773E9, 0.0, 2022-05-06 12:37:18.751
42.0, -224.42391654103994, -119.46736418455839, -147.7709270492196, -175.96229291521013, 0.12800000607967377, 0.12800000607967377, 1.0240000486373901, 0.0, 0.0, 0.0, 0.0, 0.0, 1.6518370387523289E9, 0.0, 2022-05-06 12:37:18.752
42.0, -301.1778833316639, -260.1212616181001, -241.12256984319538, -230.16092307306826, 0.12800000607967377, 0.12800000607967377, 1.0240000486373901, 0.0, 0.0, 0.0, 0.0, 0.0, 1.6518370387523289E9, 0.0, 2022-05-06 12:37:18.752
43.0, -284.78964172583073, -191.77085002791137, -221.46939557604492, -201.97703700698912, 0.12800000607967377, 0.12800000607967377, 1.0240000486373901, 0.0, 0.0, 0.0, 0.0, 0.0, 1.6518370387654016E9, 0.0, 2022-05-06 12:37:18.765
43.0, -201.27393581531942, -32.350134616717696, -108.53937651403248, -118.74182359315455, 0.12800000607967377, 0.12800000607967377, 1.0240000486373901, 0.0, 0.0, 0.0, 0.0, 0.0, 1.6518370387654016E9, 0.0, 2022-05-06 12:37:18.765
44.0, -216.72720243223011, -106.63202753663063, -142.20595591515303, -173.8978681396693, 0.12800000607967377, 0.12800000607967377, 1.0240000486373901, 0.0, 0.0, 0.0, 0.0, 0.0, 1.65183703878141E9, 0.0, 2022-05-06 12:37:18.781
44.0, -293.41759092360735, -264.9756517605856, -235.63987650815398, -225.76280072517693, 0.12800000607967377, 0.12800000607967377, 1.0240000486373901, 0.0, 0.0, 0.0, 0.0, 0.0, 1.65183703878141E9, 0.0, 2022-05-06 12:37:18.781
45.0, -302.804739812389, -206.80898774974048, -237.9324351809919, -222.4791685640812, 0.12800000607967377, 0.12800000607967377, 1.0240000486373901, 0.0, 0.0, 0.0, 0.0, 0.0, 1.6518370387823324E9, 0.0, 2022-05-06 12:37:18.782
45.0, -223.3318657539785, -48.82439392153174, -132.09326643496752, -163.29151186533272, 0.12800000607967377, 0.12800000607967377, 1.0240000486373901, 0.0, 0.0, 0.0, 0.0, 0.0, 1.6518370387823324E9, 0.0, 2022-05-06 12:37:18.782
46.0, -224.2556210430339, -119.88623297959566, -137.38148497231305, -166.47416672762483, 0.12800000607967377, 0.12800000607967377, 1.0240000486373901, 0.0, 0.0, 0.0, 0.0, 0.0, 1.6518370387954319E9, 0.0, 2022-05-06 12:37:18.795
46.0, -298.16352396737784, -266.4977910425514, -238.04837207961828, -220.5493801869452, 0.12800000607967377, 0.12800000607967377, 1.0240000486373901, 0.0, 0.0, 0.0, 0.0, 0.0, 1.6518370387954319E9, 0.0, 2022-05-06 12:37:18.795
47.0, -282.736436650157, -189.78496315144002, -217.42656372394413, -190.95929173752666, 0.12800000607967377, 0.12800000607967377, 1.0240000486373901, 0.0, 0.0, 0.0, 0.0, 0.0, 1.651837038811394E9, 0.0, 2022-05-06 12:37:18.811
47.0, -210.9116580011323, -39.253989934921265, -122.42562504950911, -147.28100015502423, 0.12800000607967377, 0.12800000607967377, 1.0240000486373901, 0.0, 0.0, 0.0, 0.0, 0.0, 1.651837038811394E9, 0.0, 2022-05-06 12:37:18.811
48.0, -222.26599426660687, -116.830734715797, -135.85934569034725, -163.95721405744553, 0.12800000607967377, 0.12800000607967377, 1.0240000486373901, 0.0, 0.0, 0.0, 0.0, 0.0, 1.6518370388123937E9, 0.0, 2022-05-06 12:37:18.812
48.0, -285.92657131236047, -255.4501265734434, -229.79067297745496, -218.67943020910025, 0.12800000607967377, 0.12800000607967377, 1.0240000486373901, 0.0, 0.0, 0.0, 0.0, 0.0, 1.6518370388123937E9, 0.0, 2022-05-06 12:37:18.812
49.0, -284.2510961322114, -192.41411282029003, -217.12737172748893, -206.1694648573175, 0.12800000607967377, 0.12800000607967377, 1.0240000486373901, 0.0, 0.0, 0.0, 0.0, 0.0, 1.651837038825402E9, 0.0, 2022-05-06 12:37:18.825
49.0, -224.20700234360993, -51.715336587280035, -136.92895707767457, -164.5256788507104, 0.12800000607967377, 0.12800000607967377, 1.0240000486373901, 0.0, 0.0, 0.0, 0.0, 0.0, 1.651837038825402E9, 0.0, 2022-05-06 12:37:18.825
50.0, -219.23667530249804, -119.71045768167824, -134.0305346120149, -151.53700630459934, 0.12800000607967377, 0.12800000607967377, 1.0240000486373901, 0.0, 0.0, 0.0, 0.0, 0.0, 1.6518370388413975E9, 0.0, 2022-05-06 12:37:18.841
50.0, -292.2956209369004, -255.7493185698986, -238.3400842761621, -216.547687234357, 0.12800000607967377, 0.12800000607967377, 1.0240000486373901, 0.0, 0.0, 0.0, 0.0, 0.0, 1.6518370388413975E9, 0.0, 2022-05-06 12:37:18.841
51.0, -295.3959980001673, -199.45634443685412, -236.06996500305831, -232.05705235060304, 0.12800000607967377, 0.12800000607967377, 1.0240000486373901, 0.0, 0.0, 0.0, 0.0, 0.0, 1.6518370388423471E9, 0.0, 2022-05-06 12:37:18.842
51.0, -213.18551717419177, -40.420838721096516, -120.43599827308208, -150.34771811868995, 0.12800000607967377, 0.12800000607967377, 1.0240000486373901, 0.0, 0.0, 0.0, 0.0, 0.0, 1.6518370388423471E9, 0.0, 2022-05-06 12:37:18.842
52.0, -221.87330477125943, -121.71878395788372, -144.59575198683888, -162.84646377060562, 0.12800000607967377, 0.12800000607967377, 1.0240000486373901, 0.0, 0.0, 0.0, 0.0, 0.0, 1.6518370388553889E9, 0.0, 2022-05-06 12:37:18.855
52.0, -296.690003384836, -267.1223543351516, -242.60731012560427, -221.82468607183546, 0.12800000607967377, 0.12800000607967377, 1.0240000486373901, 0.0, 0.0, 0.0, 0.0, 0.0, 1.6518370388553889E9, 0.0, 2022-05-06 12:37:18.855
53.0, -293.5372677221894, -194.75155029259622, -226.5519196158275, -211.90273148939013, 0.12800000607967377, 0.12800000607967377, 1.0240000486373901, 0.0, 0.0, 0.0, 0.0, 0.0, 1.6518370388714497E9, 0.0, 2022-05-06 12:37:18.871
53.0, -207.37745254300535, -34.60529428999871, -115.52924953121692, -132.04838763549924, 0.12800000607967377, 0.12800000607967377, 1.0240000486373901, 0.0, 0.0, 0.0, 0.0, 0.0, 1.6518370388714497E9, 0.0, 2022-05-06 12:37:18.871
54.0, -219.09829900413752, -118.94003829080611, -143.56727949902415, -169.0098188975826, 0.12800000607967377, 0.12800000607967377, 1.0240000486373901, 0.0, 0.0, 0.0, 0.0, 0.0, 1.6518370388723524E9, 0.0, 2022-05-06 12:37:18.872
54.0, -293.5484874220565, -266.3594147441909, -245.90216198656708, -236.76558639481664, 0.12800000607967377, 0.12800000607967377, 1.0240000486373901, 0.0, 0.0, 0.0, 0.0, 0.0, 1.6518370388723524E9, 0.0, 2022-05-06 12:37:18.872
55.0, -282.6952977506444, -192.6422467175871, -223.4777218522504, -208.7986145261675, 0.12800000607967377, 0.12800000607967377, 1.0240000486373901, 0.0, 0.0, 0.0, 0.0, 0.0, 1.651837038885393E9, 0.0, 2022-05-06 12:37:18.885
55.0, -220.71393578499556, -52.897144973278046, -135.08892629947513, -165.157721943222, 0.12800000607967377, 0.12800000607967377, 1.0240000486373901, 0.0, 0.0, 0.0, 0.0, 0.0, 1.651837038885393E9, 0.0, 2022-05-06 12:37:18.885
56.0, -216.77582113165408, -124.19459772855043, -144.44989588856697, -160.73716019559652, 0.12800000607967377, 0.12800000607967377, 1.0240000486373901, 0.0, 0.0, 0.0, 0.0, 0.0, 1.6518370389014E9, 0.0, 2022-05-06 12:37:18.901
56.0, -297.4342434760183, -259.81084992177784, -236.08492460288107, -218.1820235149935, 0.12800000607967377, 0.12800000607967377, 1.0240000486373901, 0.0, 0.0, 0.0, 0.0, 0.0, 1.6518370389014E9, 0.0, 2022-05-06 12:37:18.901
57.0, -302.75238121300936, -195.6902651814744, -230.7406075662002, -219.33391270134598, 0.12800000607967377, 0.12800000607967377, 1.0240000486373901, 0.0, 0.0, 0.0, 0.0, 0.0, 1.6518370389023314E9, 0.0, 2022-05-06 12:37:18.902
57.0, -205.92637136019766, -40.33856092207134, -120.11062697693706, -140.6239782338962, 0.12800000607967377, 0.12800000607967377, 1.0240000486373901, 0.0, 0.0, 0.0, 0.0, 0.0, 1.6518370389023314E9, 0.0, 2022-05-06 12:37:18.902
58.0, -218.8813848067075, -119.84135418012738, -138.92980355396867, -150.12706402130425, 0.12800000607967377, 0.12800000607967377, 1.0240000486373901, 0.0, 0.0, 0.0, 0.0, 0.0, 1.6518370389153981E9, 0.0, 2022-05-06 12:37:18.915
58.0, -293.34279292449355, -260.07264291867614, -237.0759980911389, -211.6970369918272, 0.12800000607967377, 0.12800000607967377, 1.0240000486373901, 0.0, 0.0, 0.0, 0.0, 0.0, 1.6518370389153981E9, 0.0, 2022-05-06 12:37:18.915
59.0, -287.66936469171196, -185.8618080979213, -223.04389345739037, -216.68232363276184, 0.12800000607967377, 0.12800000607967377, 1.0240000486373901, 0.0, 0.0, 0.0, 0.0, 0.0, 1.6518370389313822E9, 0.0, 2022-05-06 12:37:18.931
59.0, -210.53018820565194, -40.484417020343244, -123.79442843329161, -158.10427062679082, 0.12800000607967377, 0.12800000607967377, 1.0240000486373901, 0.0, 0.0, 0.0, 0.0, 0.0, 1.6518370389313822E9, 0.0, 2022-05-06 12:37:18.931
60.0, -231.41378955822438, -133.19279702194035, -149.73063462600112, -174.6383683308959, 0.12800000607967377, 0.12800000607967377, 1.0240000486373901, 0.0, 0.0, 0.0, 0.0, 0.0, 1.6518370389323285E9, 0.0, 2022-05-06 12:37:18.932
60.0, -303.01791410986334, -270.77623659186065, -246.71746017690748, -223.19348945561796, 0.12800000607967377, 0.12800000607967377, 1.0240000486373901, 0.0, 0.0, 0.0, 0.0, 0.0, 1.6518370389323285E9, 0.0, 2022-05-06 12:37:18.932
61.0, -285.5787606164813, -187.24931098148227, -223.82179264817387, -221.35719857737422, 0.12800000607967377, 0.12800000607967377, 1.0240000486373901, 0.0, 0.0, 0.0, 0.0, 0.0, 1.651837038945567E9, 0.0, 2022-05-06 12:37:18.945
61.0, -218.83276610728353, -41.11272021289915, -125.27916871570051, -152.43458229396492, 0.12800000607967377, 0.12800000607967377, 1.0240000486373901, 0.0, 0.0, 0.0, 0.0, 0.0, 1.651837038945567E9, 0.0, 2022-05-06 12:37:18.945
62.0, -217.42656372394413, -123.97768353112042, -140.324786237441, -162.34531717654318, 0.12800000607967377, 0.12800000607967377, 1.0240000486373901, 0.0, 0.0, 0.0, 0.0, 0.0, 1.6518370389613812E9, 0.0, 2022-05-06 12:37:18.961
62.0, -283.07302764616907, -263.1692800819874, -228.43308929353952, -211.18467069789767, 0.12800000607967377, 0.12800000607967377, 1.0240000486373901, 0.0, 0.0, 0.0, 0.0, 0.0, 1.6518370389613812E9, 0.0, 2022-05-06 12:37:18.961
63.0, -276.2439703270793, -173.79689084086567, -214.34114626049995, -191.9840243253857, 0.12800000607967377, 0.12800000607967377, 1.0240000486373901, 0.0, 0.0, 0.0, 0.0, 0.0, 1.6518370389623506E9, 0.0, 2022-05-06 12:37:18.962
