%OpenBCI Raw EEG Data
%Number of channels = 4
%Sample Rate = 200 Hz
%Board = OpenBCI_GUI$BoardGanglionBLE
Sample Index, EXG Channel 0, EXG Channel 1, EXG Channel 2, EXG Channel 3, Accel Channel 0, Accel Channel 1, Accel Channel 2, Other, Other, Other, Other, Other, Timestamp, Other, Timestamp (Formatted)
0.0, -212.8377064783126, -73.95091177383438, -128.76288552442566, -155.77244300441816, 0.0, 0.0, 0.0, 0.0, 0.0, 0.0, 0.0, 0.0, 1.6518371617100885E9, 0.0, 2022-05-06 12:39:21.710
1.0, -260.9776987079531, -198.32128480030224, -189.78683310141787, -195.87913012923673, 0.0, 0.06400000303983688, 0.0, 0.0, 0.0, 0.0, 0.0, 0.0, 1.6518371617231312E9, 0.0, 2022-05-06 12:39:21.723
1.0, -309.0354131385684, -248.45838360628113, -250.72102307947353, -226.50891076633707, 0.0, 0.06400000303983688, 0.0, 0.0, 0.0, 0.0, 0.0, 0.0, 1.6518371617231312E9, 0.0, 2022-05-06 12:39:21.723
2.0, -251.76258521713316, -113.41433610627428, -177.24320865003392, -185.17179655609652, 0.06400000303983688, 0.06400000303983688, 0.0, 0.0, 0.0, 0.0, 0.0, 0.0, 1.6518371617400491E9, 0.0, 2022-05-06 12:39:21.740
2.0, -211.30808739643544, -67.48836465040222, -129.17427451955155, -161.51692933635786, 0.06400000303983688, 0.06400000303983688, 0.0, 0.0, 0.0, 0.0, 0.0, 0.0, 1.6518371617400491E9, 0.0, 2022-05-06 12:39:21.740
3.0, -265.9068868495524, -205.25879921810701, -202.50997275067493, -207.91038828669116, 0.06400000303983688, 0.06400000303983688, 0.0, 0.0, 0.0, 0.0, 0.0, 0.0, 1.651837161741057E9, 0.0, 2022-05-06 12:39:21.741
3.0, -317.663362336345, -263.6722966260277, -260.01841436931863, -238.59626742312685, 0.06400000303983688, 0.06400000303983688, 0.0, 0.0, 0.0, 0.0, 0.0, 0.0, 1.651837161741057E9, 0.0, 2022-05-06 12:39:21.741
4.0, -260.0053247194737, -128.42255462845787, -183.71697547333315, -194.06153875077143, 0.06400000303983688, 0.06400000303983688, 0.0, 0.0, 0.0, 0.0, 0.0, 0.0, 1.651837161769111E9, 0.0, 2022-05-06 12:39:21.769
4.0, -203.71235058642924, -65.29304337641224, -125.58023066213354, -152.96377813769504, 0.06400000303983688, 0.06400000303983688, 0.0, 0.0, 0.0, 0.0, 0.0, 0.0, 1.651837161769111E9, 0.0, 2022-05-06 12:39:21.769
5.0, -264.934512861073, -201.7806922593154, -198.65413589635864, -201.26832596538588, 0.06400000303983688, 0.06400000303983688, 0.0, 0.0, 0.0, 0.0, 0.0, 0.0, 1.651837161770134E9, 0.0, 2022-05-06 12:39:21.770
5.0, -309.49542083311826, -246.11720623401925, -243.2786221676506, -228.3863405440934, 0.06400000303983688, 0.06400000303983688, 0.0, 0.0, 0.0, 0.0, 0.0, 0.0, 1.651837161770134E9, 0.0, 2022-05-06 12:39:21.770
6.0, -268.78286991547793, -124.10297017963603, -186.67523633828387, -196.1521428260021, 0.06400000303983688, 0.06400000303983688, 0.0, 0.0, 0.0, 0.0, 0.0, 0.0, 1.6518371617711425E9, 0.0, 2022-05-06 12:39:21.771
6.0, -220.7700342843309, -77.6122738304548, -129.32013061782345, -159.88259305572137, 0.06400000303983688, 0.06400000303983688, 0.0, 0.0, 0.0, 0.0, 0.0, 0.0, 1.6518371617711425E9, 0.0, 2022-05-06 12:39:21.771
7.0, -264.25385106913745, -207.0763905965723, -204.67911472497508, -208.7817849763669, 0.06400000303983688, 0.06400000303983688, 0.0, 0.0, 0.0, 0.0, 0.0, 0.0, 1.6518371617831678E9, 0.0, 2022-05-06 12:39:21.783
7.0, -327.5591376191005, -279.24897994147614, -274.992973791901, -255.4706960231997, 0.06400000303983688, 0.06400000303983688, 0.0, 0.0, 0.0, 0.0, 0.0, 0.0, 1.6518371617831678E9, 0.0, 2022-05-06 12:39:21.783
8.0, -262.0211307955906, -129.3350902176462, -175.05910707591102, -184.98106165835634, 0.06400000303983688, 0.06400000303983688, 0.0, 0.0, 0.0, 0.0, 0.0, 0.0, 1.6518371617991304E9, 0.0, 2022-05-06 12:39:21.799
8.0, -202.2425699038431, -70.37182751623914, -123.8187377830036, -150.9030932621099, 0.06400000303983688, 0.06400000303983688, 0.0, 0.0, 0.0, 0.0, 0.0, 0.0, 1.6518371617991304E9, 0.0, 2022-05-06 12:39:21.799
9.0, -277.41081911325455, -211.35109624592587, -214.61602890724316, -222.55957641312853, 0.06400000303983688, 0.06400000303983688, 0.0, 0.0, 0.0, 0.0, 0.0, 0.0, 1.651837161800131E9, 0.0, 2022-05-06 12:39:21.800
9.0, -310.28453972376883, -249.61027279263362, -246.56225432874635, -230.55922241834924, 0.06400000303983688, 0.06400000303983688, 0.0, 0.0, 0.0, 0.0, 0.0, 0.0, 1.651837161800131E9, 0.0, 2022-05-06 12:39:21.800
10.0, -260.6336279120296, -118.19392824964598, -174.63649838091806, -184.82772576017305, 0.06400000303983688, 0.06400000303983688, 0.5280000250786543, 0.0, 0.0, 0.0, 0.0, 0.0, 1.6518371618131135E9, 0.0, 2022-05-06 12:39:21.813
10.0, -209.16512472182512, -68.1989456419833, -124.52931877458468, -153.760376828257, 0.06400000303983688, 0.06400000303983688, 0.5280000250786543, 0.0, 0.0, 0.0, 0.0, 0.0, 1.6518371618131135E9, 0.0, 2022-05-06 12:39:21.813
11.0, -264.92329316120595, -200.23985347757116, -198.03331250371411, -200.05285847978666, 0.06400000303983688, 0.09600000455975533, 0.5280000250786543, 0.0, 0.0, 0.0, 0.0, 0.0, 1.6518371618292146E9, 0.0, 2022-05-06 12:39:21.829
11.0, -309.0802919380367, -243.68253136286512, -255.88956481823698, -238.9889569184743, 0.06400000303983688, 0.09600000455975533, 0.5280000250786543, 0.0, 0.0, 0.0, 0.0, 0.0, 1.6518371618292146E9, 0.0, 2022-05-06 12:39:21.829
12.0, -249.4924659440294, -112.887010212522, -167.70646376302466, -186.6640166384168, 0.09600000455975533, 0.09600000455975533, 0.5280000250786543, 0.0, 0.0, 0.0, 0.0, 0.0, 1.6518371618300545E9, 0.0, 2022-05-06 12:39:21.830
12.0, -202.99428979493678, -77.63845313014463, -123.77385898353532, -141.43366657430306, 0.09600000455975533, 0.09600000455975533, 0.5280000250786543, 0.0, 0.0, 0.0, 0.0, 0.0, 1.6518371618300545E9, 0.0, 2022-05-06 12:39:21.830
13.0, -286.0686875106767, -235.78386265644804, -223.20657910546288, -225.83572877431288, 0.09600000455975533, 0.09600000455975533, 0.5280000250786543, 0.0, 0.0, 0.0, 0.0, 0.0, 1.6518371618431833E9, 0.0, 2022-05-06 12:39:21.843
13.0, -314.13663667812943, -249.6888106917031, -260.16427046759054, -243.67131166299805, 0.09600000455975533, 0.09600000455975533, 0.5280000250786543, 0.0, 0.0, 0.0, 0.0, 0.0, 1.6518371618431833E9, 0.0, 2022-05-06 12:39:21.843
14.0, -241.25720624160022, -86.59925342397764, -159.23559036338702, -178.97852222947404, 0.09600000455975533, 0.09600000455975533, 0.5280000250786543, 0.0, 0.0, 0.0, 0.0, 0.0, 1.6518371618591177E9, 0.0, 2022-05-06 12:39:21.859
14.0, -215.63515164516866, -84.63580594724044, -129.57444381481037, -166.90612517250702, 0.09600000455975533, 0.09600000455975533, 0.5280000250786543, 0.0, 0.0, 0.0, 0.0, 0.0, 1.6518371618591177E9, 0.0, 2022-05-06 12:39:21.859
15.0, -287.04480139911175, -250.59012658102438, -230.4208461199887, -215.7903574933298, 0.09600000455975533, 0.09600000455975533, 0.5280000250786543, 0.0, 0.0, 0.0, 0.0, 0.0, 1.6518371618600516E9, 0.0, 2022-05-06 12:39:21.860
15.0, -314.64900297205895, -248.1330123101361, -262.61016503861174, -241.63680608710274, 0.09600000455975533, 0.09600000455975533, 0.5280000250786543, 0.0, 0.0, 0.0, 0.0, 0.0, 1.6518371618600516E9, 0.0, 2022-05-06 12:39:21.860
16.0, -232.34502464719117, -73.05707568442449, -142.5668562608771, -156.39700629701838, 0.09600000455975533, 0.09600000455975533, 0.5280000250786543, 0.0, 0.0, 0.0, 0.0, 0.0, 1.6518371618731697E9, 0.0, 2022-05-06 12:39:21.873
16.0, -203.08778729382902, -77.75439002877101, -120.34437072416767, -144.93047303287312, 0.09600000455975533, 0.09600000455975533, 0.5280000250786543, 0.0, 0.0, 0.0, 0.0, 0.0, 1.6518371618731697E9, 0.0, 2022-05-06 12:39:21.873
17.0, -280.93006497155875, -250.44053058279678, -231.30720240948722, -226.48273146664724, 0.09600000455975533, 0.09600000455975533, 0.5280000250786543, 0.0, 0.0, 0.0, 0.0, 0.0, 1.65183716188913E9, 0.0, 2022-05-06 12:39:21.889
17.0, -313.09694449044764, -242.97195037128404, -253.7316425438039, -241.83876068471, 0.09600000455975533, 0.09600000455975533, 0.5280000250786543, 0.0, 0.0, 0.0, 0.0, 0.0, 1.65183716188913E9, 0.0, 2022-05-06 12:39:21.889
18.0, -236.1859019016847, -74.62409376585856, -153.29288933379576, -170.9115580250509, 0.09600000455975533, 0.09600000455975533, 0.5280000250786543, 0.0, 0.0, 0.0, 0.0, 0.0, 1.6518371618903155E9, 0.0, 2022-05-06 12:39:21.890
18.0, -209.4717965181917, -89.0227085952647, -120.19477472594008, -146.1272410186939, 0.09600000455975533, 0.09600000455975533, 0.5280000250786543, 0.0, 0.0, 0.0, 0.0, 0.0, 1.6518371618903155E9, 0.0, 2022-05-06 12:39:21.890
19.0, -290.08160016313195, -256.6525044091977, -236.1316733523272, -226.232158169616, 0.09600000455975533, 0.09600000455975533, 0.5280000250786543, 0.0, 0.0, 0.0, 0.0, 0.0, 1.6518371619031503E9, 0.0, 2022-05-06 12:39:21.903
19.0, -312.3639240991324, -236.0232162536122, -252.94252365315333, -243.21504386840388, 0.09600000455975533, 0.09600000455975533, 0.5280000250786543, 0.0, 0.0, 0.0, 0.0, 0.0, 1.6518371619031503E9, 0.0, 2022-05-06 12:39:21.903
20.0, -230.68824896682054, -75.42817225633189, -147.54466310190037, -177.68825674476102, 0.09600000455975533, 0.09600000455975533, 0.7680000364780426, 0.0, 0.0, 0.0, 0.0, 0.0, 1.6518371619192035E9, 0.0, 2022-05-06 12:39:21.919
20.0, -202.7212770981714, -83.760669357609, -122.49481319868937, -147.98597129667178, 0.09600000455975533, 0.09600000455975533, 0.7680000364780426, 0.0, 0.0, 0.0, 0.0, 0.0, 1.6518371619192035E9, 0.0, 2022-05-06 12:39:21.919
21.0, -300.1045320443809, -262.41569024091586, -243.38333936640993, -226.59492846531793, 0.09600000455975533, 0.11200000531971455, 0.7680000364780426, 0.0, 0.0, 0.0, 0.0, 0.0, 1.6518371619200916E9, 0.0, 2022-05-06 12:39:21.920
21.0, -315.2623465647921, -250.41435128310695, -255.2089030263014, -246.47997652972117, 0.09600000455975533, 0.11200000531971455, 0.7680000364780426, 0.0, 0.0, 0.0, 0.0, 0.0, 1.6518371619200916E9, 0.0, 2022-05-06 12:39:21.920
22.0, -225.87125782389194, -71.36290100449696, -144.9342129328288, -176.62986505730078, 0.11200000531971455, 0.11200000531971455, 0.7680000364780426, 0.0, 0.0, 0.0, 0.0, 0.0, 1.6518371619332218E9, 0.0, 2022-05-06 12:39:21.933
22.0, -201.6180066112429, -87.60154661210254, -127.01261234516278, -146.50871081417426, 0.11200000531971455, 0.11200000531971455, 0.7680000364780426, 0.0, 0.0, 0.0, 0.0, 0.0, 1.6518371619332218E9, 0.0, 2022-05-06 12:39:21.933
23.0, -287.8339202897623, -246.18452443322167, -220.81304313382134, -216.6019157837145, 0.11200000531971455, 0.11200000531971455, 0.7680000364780426, 0.0, 0.0, 0.0, 0.0, 0.0, 1.6518371619491396E9, 0.0, 2022-05-06 12:39:21.949
23.0, -303.94540929887444, -228.36764104431495, -239.22831051563844, -220.94767953222618, 0.11200000531971455, 0.11200000531971455, 0.7680000364780426, 0.0, 0.0, 0.0, 0.0, 0.0, 1.6518371619491396E9, 0.0, 2022-05-06 12:39:21.949
24.0, -218.48121551144868, -57.44299336941913, -135.43112714542076, -149.24631758173928, 0.11200000531971455, 0.11200000531971455, 0.7680000364780426, 0.0, 0.0, 0.0, 0.0, 0.0, 1.6518371619500823E9, 0.0, 2022-05-06 12:39:21.950
24.0, -209.9542436124757, -84.37027305038646, -130.4907193039544, -160.357560350094, 0.11200000531971455, 0.11200000531971455, 0.7680000364780426, 0.0, 0.0, 0.0, 0.0, 0.0, 1.6518371619500823E9, 0.0, 2022-05-06 12:39:21.950
25.0, -290.997875652276, -252.00380876427516, -231.29972260957584, -237.47803733637556, 0.11200000531971455, 0.11200000531971455, 0.7680000364780426, 0.0, 0.0, 0.0, 0.0, 0.0, 1.6518371619631069E9, 0.0, 2022-05-06 12:39:21.963
25.0, -307.8573446525261, -239.50880301231518, -253.41375104757026, -233.51748328329995, 0.11200000531971455, 0.11200000531971455, 0.7680000364780426, 0.0, 0.0, 0.0, 0.0, 0.0, 1.6518371619631069E9, 0.0, 2022-05-06 12:39:21.963
26.0, -233.1827622372657, -69.1638398305513, -146.2356981174089, -164.59486699989066, 0.11200000531971455, 0.11200000531971455, 0.7680000364780426, 0.0, 0.0, 0.0, 0.0, 0.0, 1.6518371619791572E9, 0.0, 2022-05-06 12:39:21.979
26.0, -218.2530816141516, -96.67454390460625, -131.72114638937637, -157.45165808452293, 0.11200000531971455, 0.11200000531971455, 0.7680000364780426, 0.0, 0.0, 0.0, 0.0, 0.0, 1.6518371619791572E9, 0.0, 2022-05-06 12:39:21.979
27.0, -293.9449168173596, -258.5935124862008, -242.22397038014606, -223.00462450785562, 0.11200000531971455, 0.11200000531971455, 0.7680000364780426, 0.0, 0.0, 0.0, 0.0, 0.0, 1.6518371619801085E9, 0.0, 2022-05-06 12:39:21.980
27.0, -311.8814770048484, -232.84804119123146, -239.88279300788417, -226.16857987036929, 0.11200000531971455, 0.11200000531971455, 0.7680000364780426, 0.0, 0.0, 0.0, 0.0, 0.0, 1.6518371619801085E9, 0.0, 2022-05-06 12:39:21.980
28.0, -235.91288920491934, -74.65027306554839, -153.95111172599718, -182.5463867872022, 0.11200000531971455, 0.11200000531971455, 0.7680000364780426, 0.0, 0.0, 0.0, 0.0, 0.0, 1.6518371619931066E9, 0.0, 2022-05-06 12:39:21.993
28.0, -225.23173493146896, -102.30309333791956, -142.17416676552966, -175.08154647564515, 0.11200000531971455, 0.11200000531971455, 0.7680000364780426, 0.0, 0.0, 0.0, 0.0, 0.0, 1.6518371619931066E9, 0.0, 2022-05-06 12:39:21.993
29.0, -298.38791796471924, -266.032173498068, -240.23060370376334, -237.0217695417814, 0.11200000531971455, 0.11200000531971455, 0.7680000364780426, 0.0, 0.0, 0.0, 0.0, 0.0, 1.651837162009214E9, 0.0, 2022-05-06 12:39:22.009
29.0, -314.90331616904587, -233.4613847839646, -253.12951865093783, -232.15615969942883, 0.11200000531971455, 0.11200000531971455, 0.7680000364780426, 0.0, 0.0, 0.0, 0.0, 0.0, 1.651837162009214E9, 0.0, 2022-05-06 12:39:22.009
30.0, -243.45626741554588, -77.95634462637827, -164.69958419864997, -190.75546718994156, 0.11200000531971455, 0.11200000531971455, 0.8960000425577164, 0.0, 0.0, 0.0, 0.0, 0.0, 1.651837162010082E9, 0.0, 2022-05-06 12:39:22.010
30.0, -227.15778340864927, -108.47018836485222, -148.36744109215215, -174.23632908565924, 0.11200000531971455, 0.11200000531971455, 0.8960000425577164, 0.0, 0.0, 0.0, 0.0, 0.0, 1.651837162010082E9, 0.0, 2022-05-06 12:39:22.010
31.0, -302.53920691553503, -264.1136048207991, -242.11925318138674, -224.40334709128365, 0.11200000531971455, 0.11200000531971455, 0.8960000425577164, 0.0, 0.0, 0.0, 0.0, 0.0, 1.6518371620232573E9, 0.0, 2022-05-06 12:39:22.023
31.0, -325.80886443983763, -241.63306618714705, -254.90971102984622, -228.97350483713672, 0.11200000531971455, 0.11200000531971455, 0.8960000425577164, 0.0, 0.0, 0.0, 0.0, 0.0, 1.6518371620232573E9, 0.0, 2022-05-06 12:39:22.023
32.0, -233.35479763522744, -63.194959501270205, -140.66324718343094, -166.55083467671648, 0.12800000607967377, 0.11200000531971455, 0.8960000425577164, 0.0, 0.0, 0.0, 0.0, 0.0, 1.6518371620391612E9, 0.0, 2022-05-06 12:39:22.039
32.0, -223.15235055610538, -109.09101175749674, -144.50786433788016, -175.541554170195, 0.12800000607967377, 0.11200000531971455, 0.8960000425577164, 0.0, 0.0, 0.0, 0.0, 0.0, 1.6518371620391612E9, 0.0, 2022-05-06 12:39:22.039
33.0, -291.56260054558516, -257.75203499617055, -225.36450137989596, -210.6704344539903, 0.12800000607967377, 0.11200000531971455, 0.8960000425577164, 0.0, 0.0, 0.0, 0.0, 0.0, 1.6518371620401216E9, 0.0, 2022-05-06 12:39:22.040
33.0, -312.5172599973157, -239.44148481311277, -255.86712541850284, -237.62015353469178, 0.12800000607967377, 0.11200000531971455, 0.8960000425577164, 0.0, 0.0, 0.0, 0.0, 0.0, 1.6518371620401216E9, 0.0, 2022-05-06 12:39:22.040
34.0, -238.21292767766863, -75.69744505314156, -159.12339336471632, -179.34129252517596, 0.12800000607967377, 0.11200000531971455, 0.8960000425577164, 0.0, 0.0, 0.0, 0.0, 0.0, 1.6518371620691607E9, 0.0, 2022-05-06 12:39:22.069
34.0, -223.50390115194023, -100.4742822595872, -130.64779510209337, -152.8702806388028, 0.12800000607967377, 0.11200000531971455, 0.8960000425577164, 0.0, 0.0, 0.0, 0.0, 0.0, 1.6518371620691607E9, 0.0, 2022-05-06 12:39:22.069
35.0, -295.9233238939196, -255.250041925814, -234.1644859756343, -223.14300080621615, 0.12800000607967377, 0.11200000531971455, 0.8960000425577164, 0.0, 0.0, 0.0, 0.0, 0.0, 1.6518371620701053E9, 0.0, 2022-05-06 12:39:22.070
35.0, -311.87399720493704, -228.43869914347306, -249.92068448895589, -236.07931475294754, 0.12800000607967377, 0.11200000531971455, 0.8960000425577164, 0.0, 0.0, 0.0, 0.0, 0.0, 1.6518371620701053E9, 0.0, 2022-05-06 12:39:22.070
36.0, -235.23970721289515, -67.69031924800947, -142.65287395985797, -169.14632524596527, 0.12800000607967377, 0.11200000531971455, 0.8960000425577164, 0.0, 0.0, 0.0, 0.0, 0.0, 1.6518371620710557E9, 0.0, 2022-05-06 12:39:22.071
36.0, -221.2936202781275, -101.46161584788933, -137.13278162525967, -160.7240705457516, 0.12800000607967377, 0.11200000531971455, 0.8960000425577164, 0.0, 0.0, 0.0, 0.0, 0.0, 1.6518371620710557E9, 0.0, 2022-05-06 12:39:22.071
37.0, -298.6609306614846, -264.6895494139753, -239.9501112070866, -219.44423975003883, 0.12800000607967377, 0.11200000531971455, 0.8960000425577164, 0.0, 0.0, 0.0, 0.0, 0.0, 1.6518371620831385E9, 0.0, 2022-05-06 12:39:22.083
37.0, -305.05615958571434, -225.06156948348507, -247.48600961780176, -221.03743713116273, 0.12800000607967377, 0.11200000531971455, 0.8960000425577164, 0.0, 0.0, 0.0, 0.0, 0.0, 1.6518371620831385E9, 0.0, 2022-05-06 12:39:22.083
38.0, -231.26419355999678, -61.36988832289353, -133.21710637165233, -162.01059613050893, 0.12800000607967377, 0.11200000531971455, 0.8960000425577164, 0.0, 0.0, 0.0, 0.0, 0.0, 1.6518371620991297E9, 0.0, 2022-05-06 12:39:22.099
38.0, -223.64227745030075, -101.4728355477564, -142.69027295941487, -168.42452455451712, 0.12800000607967377, 0.11200000531971455, 0.8960000425577164, 0.0, 0.0, 0.0, 0.0, 0.0, 1.6518371620991297E9, 0.0, 2022-05-06 12:39:22.099
39.0, -298.8741049589589, -263.97896842239425, -238.21853752760217, -228.61821434134617, 0.12800000607967377, 0.11200000531971455, 0.8960000425577164, 0.0, 0.0, 0.0, 0.0, 0.0, 1.6518371621000645E9, 0.0, 2022-05-06 12:39:22.100
39.0, -306.72041506599635, -224.84465528605506, -240.7616694974713, -219.85188884520903, 0.12800000607967377, 0.11200000531971455, 0.8960000425577164, 0.0, 0.0, 0.0, 0.0, 0.0, 1.6518371621000645E9, 0.0, 2022-05-06 12:39:22.100
40.0, -230.75930706597865, -62.338522411417216, -141.10081547824666, -163.3569601145573, 0.12800000607967377, 0.11200000531971455, 0.9600000455975533, 0.0, 0.0, 0.0, 0.0, 0.0, 1.6518371621131315E9, 0.0, 2022-05-06 12:39:22.113
40.0, -226.13679072074592, -102.18715643929318, -149.80356267513707, -173.43973039509729, 0.12800000607967377, 0.11200000531971455, 0.9600000455975533, 0.0, 0.0, 0.0, 0.0, 0.0, 1.6518371621131315E9, 0.0, 2022-05-06 12:39:22.113
41.0, -302.50180791597813, -266.97088838694617, -242.5418618763797, -237.14518624031916, 0.12800000607967377, 0.12800000607967377, 0.9600000455975533, 0.0, 0.0, 0.0, 0.0, 0.0, 1.6518371621292107E9, 0.0, 2022-05-06 12:39:22.129
41.0, -310.0040472270921, -221.52362412540242, -240.41759870154783, -227.47754485486075, 0.12800000607967377, 0.12800000607967377, 0.9600000455975533, 0.0, 0.0, 0.0, 0.0, 0.0, 1.6518371621292107E9, 0.0, 2022-05-06 12:39:22.129
42.0, -231.24549406021833, -59.23814534815028, -143.22133875312284, -170.3206538320519, 0.12800000607967377, 0.12800000607967377, 0.9600000455975533, 0.0, 0.0, 0.0, 0.0, 0.0, 1.6518371621301763E9, 0.0, 2022-05-06 12:39:22.130
42.0, -230.23946097213775, -106.9592687827535, -141.94603286823258, -161.9058789317496, 0.12800000607967377, 0.12800000607967377, 0.9600000455975533, 0.0, 0.0, 0.0, 0.0, 0.0, 1.6518371621301763E9, 0.0, 2022-05-06 12:39:22.130
43.0, -290.8482796540484, -259.2928737779148, -242.52316237660125, -224.97181188454852, 0.12800000607967377, 0.12800000607967377, 0.9600000455975533, 0.0, 0.0, 0.0, 0.0, 0.0, 1.651837162143164E9, 0.0, 2022-05-06 12:39:22.143
43.0, -306.42496296949685, -227.1222543590702, -247.11201962223276, -230.33856832096353, 0.12800000607967377, 0.12800000607967377, 0.9600000455975533, 0.0, 0.0, 0.0, 0.0, 0.0, 1.651837162143164E9, 0.0, 2022-05-06 12:39:22.143
44.0, -232.38242364674807, -56.9343669754453, -132.01659848587587, -153.7566369283013, 0.12800000607967377, 0.12800000607967377, 0.9600000455975533, 0.0, 0.0, 0.0, 0.0, 0.0, 1.6518371621591673E9, 0.0, 2022-05-06 12:39:22.159
44.0, -232.24778724834323, -117.97701405221596, -152.04376274859533, -180.14911091560498, 0.12800000607967377, 0.12800000607967377, 0.9600000455975533, 0.0, 0.0, 0.0, 0.0, 0.0, 1.6518371621591673E9, 0.0, 2022-05-06 12:39:22.159
45.0, -295.52315459866077, -259.01238128123805, -237.97170413052663, -229.93465912574902, 0.12800000607967377, 0.12800000607967377, 0.9600000455975533, 0.0, 0.0, 0.0, 0.0, 0.0, 1.6518371621600804E9, 0.0, 2022-05-06 12:39:22.160
45.0, -308.34727154672146, -216.69915318256244, -233.69325858121738, -218.80097695766017, 0.12800000607967377, 0.12800000607967377, 0.9600000455975533, 0.0, 0.0, 0.0, 0.0, 0.0, 1.6518371621600804E9, 0.0, 2022-05-06 12:39:22.160
46.0, -229.01651368662715, -54.350096106063575, -137.28611752344295, -155.76496320450678, 0.12800000607967377, 0.12800000607967377, 0.9600000455975533, 0.0, 0.0, 0.0, 0.0, 0.0, 1.6518371621731255E9, 0.0, 2022-05-06 12:39:22.173
46.0, -222.49412816390395, -107.28837997885421, -136.05569043802097, -170.2121967333369, 0.12800000607967377, 0.12800000607967377, 0.9600000455975533, 0.0, 0.0, 0.0, 0.0, 0.0, 1.6518371621731255E9, 0.0, 2022-05-06 12:39:22.173
47.0, -295.48949549905956, -265.3627314059995, -237.58649443509057, -224.17521319398656, 0.12800000607967377, 0.12800000607967377, 0.9600000455975533, 0.0, 0.0, 0.0, 0.0, 0.0, 1.6518371621891117E9, 0.0, 2022-05-06 12:39:22.189
47.0, -306.664316566661, -218.83837595721707, -236.51688304776326, -211.2351593472995, 0.12800000607967377, 0.12800000607967377, 0.9600000455975533, 0.0, 0.0, 0.0, 0.0, 0.0, 1.6518371621891117E9, 0.0, 2022-05-06 12:39:22.189
48.0, -230.04124627448618, -51.515251939650625, -132.77953807683662, -148.3487415923737, 0.12800000607967377, 0.12800000607967377, 0.9600000455975533, 0.0, 0.0, 0.0, 0.0, 0.0, 1.6518371621900904E9, 0.0, 2022-05-06 12:39:22.190
48.0, -216.11759873945266, -104.00474781775847, -140.14714098954573, -164.66218519909307, 0.12800000607967377, 0.12800000607967377, 0.9600000455975533, 0.0, 0.0, 0.0, 0.0, 0.0, 1.6518371621900904E9, 0.0, 2022-05-06 12:39:22.190
49.0, -291.19235044997185, -263.6573370262049, -244.9466175478883, -237.1676256400533, 0.12800000607967377, 0.12800000607967377, 0.9600000455975533, 0.0, 0.0, 0.0, 0.0, 0.0, 1.6518371622031183E9, 0.0, 2022-05-06 12:39:22.203
49.0, -309.97412802744657, -224.15651369420812, -251.6971369679086, -237.7211308334954, 0.12800000607967377, 0.12800000607967377, 0.9600000455975533, 0.0, 0.0, 0.0, 0.0, 0.0, 1.6518371622031183E9, 0.0, 2022-05-06 12:39:22.203
50.0, -227.97308159898967, -58.84919575275853, -141.28407057607546, -166.19554418092594, 0.12800000607967377, 0.12800000607967377, 0.9920000471174717, 0.0, 0.0, 0.0, 0.0, 0.0, 1.6518371622192917E9, 0.0, 2022-05-06 12:39:22.219
50.0, -224.92880303505808, -107.8082260726951, -144.22737184120342, -167.14921866962686, 0.12800000607967377, 0.12800000607967377, 0.9920000471174717, 0.0, 0.0, 0.0, 0.0, 0.0, 1.6518371622192917E9, 0.0, 2022-05-06 12:39:22.219
51.0, -302.49806801602244, -274.86955709336326, -249.85336628975347, -232.0551824006252, 0.12800000607967377, 0.12800000607967377, 0.9920000471174717, 0.0, 0.0, 0.0, 0.0, 0.0, 1.6518371622201204E9, 0.0, 2022-05-06 12:39:22.220
51.0, -305.2581141833216, -220.9364598323591, -240.00994960637763, -212.63014203077182, 0.12800000607967377, 0.12800000607967377, 0.9920000471174717, 0.0, 0.0, 0.0, 0.0, 0.0, 1.6518371622201204E9, 0.0, 2022-05-06 12:39:22.220
52.0, -222.34827206563205, -51.85558283561841, -130.4495804044418, -146.41521331528202, 0.12800000607967377, 0.12800000607967377, 0.9920000471174717, 0.0, 0.0, 0.0, 0.0, 0.0, 1.6518371622332664E9, 0.0, 2022-05-06 12:39:22.233
52.0, -223.33934555388987, -106.31974589033052, -134.7467254535295, -163.74964960990474, 0.12800000607967377, 0.12800000607967377, 0.9920000471174717, 0.0, 0.0, 0.0, 0.0, 0.0, 1.6518371622332664E9, 0.0, 2022-05-06 12:39:22.233
53.0, -302.0604997212067, -261.9669022462331, -243.44691766565666, -231.22866451041773, 0.12800000607967377, 0.12800000607967377, 0.9920000471174717, 0.0, 0.0, 0.0, 0.0, 0.0, 1.651837162249122E9, 0.0, 2022-05-06 12:39:22.249
53.0, -308.003200750798, -212.59274303121492, -241.40493228984997, -229.95335862552747, 0.12800000607967377, 0.12800000607967377, 0.9920000471174717, 0.0, 0.0, 0.0, 0.0, 0.0, 1.651837162249122E9, 0.0, 2022-05-06 12:39:22.249
54.0, -230.58353176806122, -62.69755280716345, -144.425586538855, -165.4999227891676, 0.12800000607967377, 0.12800000607967377, 0.9920000471174717, 0.0, 0.0, 0.0, 0.0, 0.0, 1.6518371622500613E9, 0.0, 2022-05-06 12:39:22.250
54.0, -214.29252756107599, -105.17159660393372, -127.49131953949109, -151.00407056091353, 0.12800000607967377, 0.12800000607967377, 0.9920000471174717, 0.0, 0.0, 0.0, 0.0, 0.0, 1.6518371622500613E9, 0.0, 2022-05-06 12:39:22.250
55.0, -297.97652896959335, -264.4801150164567, -246.52111542923376, -225.532796877902, 0.12800000607967377, 0.12800000607967377, 0.9920000471174717, 0.0, 0.0, 0.0, 0.0, 0.0, 1.6518371622632089E9, 0.0, 2022-05-06 12:39:22.263
55.0, -309.7011153306812, -214.78058450529352, -235.8362212558277, -217.80242366949096, 0.12800000607967377, 0.12800000607967377, 0.9920000471174717, 0.0, 0.0, 0.0, 0.0, 0.0, 1.6518371622632089E9, 0.0, 2022-05-06 12:39:22.263
56.0, -225.29905313067138, -55.23645239556208, -134.36151575809345, -166.07586738234386, 0.12800000607967377, 0.12800000607967377, 0.9920000471174717, 0.0, 0.0, 0.0, 0.0, 0.0, 1.651837162279161E9, 0.0, 2022-05-06 12:39:22.279
56.0, -221.50305467564613, -109.775413449388, -140.1247015898116, -169.47917634202167, 0.12800000607967377, 0.12800000607967377, 0.9920000471174717, 0.0, 0.0, 0.0, 0.0, 0.0, 1.651837162279161E9, 0.0, 2022-05-06 12:39:22.279
57.0, -305.6657632784918, -265.4711885047145, -251.3268868722953, -230.9032932142727, 0.12800000607967377, 0.12800000607967377, 0.9920000471174717, 0.0, 0.0, 0.0, 0.0, 0.0, 1.651837162280064E9, 0.0, 2022-05-06 12:39:22.280
57.0, -309.35330463480204, -225.4205998792313, -242.3511269786395, -231.32590190926567, 0.12800000607967377, 0.12800000607967377, 0.9920000471174717, 0.0, 0.0, 0.0, 0.0, 0.0, 1.651837162280064E9, 0.0, 2022-05-06 12:39:22.280
58.0, -238.94594806898385, -71.57607530197129, -155.76870310446247, -173.286394496914, 0.12800000607967377, 0.12800000607967377, 0.9920000471174717, 0.0, 0.0, 0.0, 0.0, 0.0, 1.6518371622931051E9, 0.0, 2022-05-06 12:39:22.293
58.0, -225.30279303062707, -116.34267777157947, -150.54406286636367, -180.6203383100219, 0.12800000607967377, 0.12800000607967377, 0.9920000471174717, 0.0, 0.0, 0.0, 0.0, 0.0, 1.6518371622931051E9, 0.0, 2022-05-06 12:39:22.293
59.0, -311.7393608065322, -279.35743704019114, -248.7276564030908, -237.66877223411575, 0.12800000607967377, 0.12800000607967377, 0.9920000471174717, 0.0, 0.0, 0.0, 0.0, 0.0, 1.651837162325118E9, 0.0, 2022-05-06 12:39:22.325
59.0, -304.91030348744243, -219.09642905415967, -239.10863371705636, -223.32625590404496, 0.12800000607967377, 0.12800000607967377, 0.9920000471174717, 0.0, 0.0, 0.0, 0.0, 0.0, 1.651837162325118E9, 0.0, 2022-05-06 12:39:22.325
60.0, -222.79332016035914, -48.269018778111786, -122.67432839656249, -146.72562501160428, 0.12800000607967377, 0.12800000607967377, 1.008000047877431, 0.0, 0.0, 0.0, 0.0, 0.0, 1.6518371623261547E9, 0.0, 2022-05-06 12:39:22.326
60.0, -231.67558255512267, -113.90800290042534, -145.33438222808763, -170.01772193564102, 0.12800000607967377, 0.12800000607967377, 1.008000047877431, 0.0, 0.0, 0.0, 0.0, 0.0, 1.6518371623261547E9, 0.0, 2022-05-06 12:39:22.326
61.0, -297.7409152723849, -269.7758133537136, -242.76999577367678, -225.99654447240755, 0.12800000607967377, 0.12800000607967377, 1.008000047877431, 0.0, 0.0, 0.0, 0.0, 0.0, 1.651837162327121E9, 0.0, 2022-05-06 12:39:22.327
61.0, -291.12129235081375, -202.629649549257, -228.13950714701787, -208.61722937831655, 0.12800000607967377, 0.12800000607967377, 1.008000047877431, 0.0, 0.0, 0.0, 0.0, 0.0, 1.651837162327121E9, 0.0, 2022-05-06 12:39:22.327
62.0, -228.97537478711456, -54.4136744053103, -135.0459174499847, -166.79392817383632, 0.12800000607967377, 0.12800000607967377, 1.008000047877431, 0.0, 0.0, 0.0, 0.0, 0.0, 1.651837162328148E9, 0.0, 2022-05-06 12:39:22.328
62.0, -229.09131168574095, -120.8529971181415, -149.2350978818722, -178.45867613563314, 0.12800000607967377, 0.12800000607967377, 1.008000047877431, 0.0, 0.0, 0.0, 0.0, 0.0, 1.651837162328148E9, 0.0, 2022-05-06 12:39:22.328
63.0, -298.1822234671563, -274.24125390080735, -246.08354713441804, -237.7996687325649, 0.12800000607967377, 0.12800000607967377, 1.008000047877431, 0.0, 0.0, 0.0, 0.0, 0.0, 1.6518371623381324E9, 0.0, 2022-05-06 12:39:22.338
63.0, -310.0788452262059, -218.9730123556219, -240.6868714983575, -226.28077686903998, 0.12800000607967377, 0.12800000607967377, 1.008000047877431, 0.0, 0.0, 0.0, 0.0, 0.0, 1.6518371623381324E9, 0.0, 2022-05-06 12:39:22.338
64.0, -221.02434748131782, -46.92265479406342, -128.0373449330218, -157.8705268795602, 0.12800000607967377, 0.12800000607967377, 1.008000047877431, 0.0, 0.0, 0.0, 0.0, 0.0, 1.6518371623531115E9, 0.0, 2022-05-06 12:39:22.353
64.0, -219.41245060041547, -106.50674088811502, -134.01370506221429, -160.7614695453085, 0.12800000607967377, 0.12800000607967377, 1.008000047877431, 0.0, 0.0, 0.0, 0.0, 0.0, 1.6518371623531115E9, 0.0, 2022-05-06 12:39:22.353
65.0, -286.6595917036757, -258.75806808425114, -222.9073871090077, -204.36870302865282, 0.12800000607967377, 0.12800000607967377, 1.008000047877431, 0.0, 0.0, 0.0, 0.0, 0.0, 1.65183716236913E9, 0.0, 2022-05-06 12:39:22.369
65.0, -288.4809229820967, -198.53071919782087, -218.57658296031877, -187.12028443301097, 0.12800000607967377, 0.12800000607967377, 1.008000047877431, 0.0, 0.0, 0.0, 0.0, 0.0, 1.65183716236913E9, 0.0, 2022-05-06 12:39:22.369
66.0, -227.43079610541463, -54.40245470544323, -141.29155037598684, -165.6869177869521, 0.12800000607967377, 0.12800000607967377, 1.008000047877431, 0.0, 0.0, 0.0, 0.0, 0.0, 1.651837162370062E9, 0.0, 2022-05-06 12:39:22.370
66.0, -221.20012277923524, -119.31963813630864, -149.6427469770424, -183.0325737814419, 0.12800000607967377, 0.12800000607967377, 1.008000047877431, 0.0, 0.0, 0.0, 0.0, 0.0, 1.651837162370062E9, 0.0, 2022-05-06 12:39:22.370
67.0, -303.91175019927323, -270.79306614166126, -247.93479761248454, -226.99509776057675, 0.12800000607967377, 0.12800000607967377, 1.008000047877431, 0.0, 0.0, 0.0, 0.0, 0.0, 1.6518371623831303E9, 0.0, 2022-05-06 12:39:22.383
67.0, -306.57829886768013, -209.36520936945453, -236.29622895037755, -224.88205428561196, 0.12800000607967377, 0.12800000607967377, 1.008000047877431, 0.0, 0.0, 0.0, 0.0, 0.0, 1.6518371623831303E9, 0.0, 2022-05-06 12:39:22.383
68.0, -223.30942635424435, -54.88864169968292, -135.07583664963022, -170.31317403214052, 0.12800000607967377, 0.12800000607967377, 1.008000047877431, 0.0, 0.0, 0.0, 0.0, 0.0, 1.6518371623991065E9, 0.0, 2022-05-06 12:39:22.399
68.0, -229.30822588317096, -123.45970738725737, -150.28974966937676, -181.16636370355263, 0.12800000607967377, 0.12800000607967377, 1.008000047877431, 0.0, 0.0, 0.0, 0.0, 0.0, 1.6518371623991065E9, 0.0, 2022-05-06 12:39:22.399
69.0, -305.1496570846066, -276.30941857630387, -250.00296228798106, -237.21624433947727, 0.12800000607967377, 0.12800000607967377, 1.008000047877431, 0.0, 0.0, 0.0, 0.0, 0.0, 1.6518371624001253E9, 0.0, 2022-05-06 12:39:22.400
69.0, -303.45174250472337, -209.1595148718916, -235.99329705396667, -228.95106543740258, 0.12800000607967377, 0.12800000607967377, 1.008000047877431, 0.0, 0.0, 0.0, 0.0, 0.0, 1.6518371624001253E9, 0.0, 2022-05-06 12:39:22.400
70.0, -217.24330862611532, -47.075990692246705, -128.8563830233179, -154.97584431385621, 0.12800000607967377, 0.12800000607967377, 1.008000047877431, 0.0, 0.0, 0.0, 0.0, 0.0, 1.6518371624132967E9, 0.0, 2022-05-06 12:39:22.413
70.0, -213.82130016665906, -111.61918412754312, -132.2671717829071, -158.76810286892578, 0.12800000607967377, 0.12800000607967377, 1.008000047877431, 0.0, 0.0, 0.0, 0.0, 0.0, 1.6518371624132967E9, 0.0, 2022-05-06 12:39:22.413
71.0, -297.2958671776578, -270.20590184861794, -246.05362793477252, -227.91137324972078, 0.12800000607967377, 0.12800000607967377, 1.008000047877431, 0.0, 0.0, 0.0, 0.0, 0.0, 1.651837162429129E9, 0.0, 2022-05-06 12:39:22.429
71.0, -291.3980449475348, -197.90241600526497, -220.80182343395427, -208.25445908261463, 0.12800000607967377, 0.12800000607967377, 1.008000047877431, 0.0, 0.0, 0.0, 0.0, 0.0, 1.651837162429129E9, 0.0, 2022-05-06 12:39:22.429
72.0, -218.61585190985352, -40.84157746611163, -126.02527875686064, -146.43017291510478, 0.12800000607967377, 0.12800000607967377, 1.008000047877431, 0.0, 0.0, 0.0, 0.0, 0.0, 1.6518371624300668E9, 0.0, 2022-05-06 12:39:22.430
72.0, -224.52863373979926, -117.75635995483026, -143.3784145512618, -162.14523252891377, 0.12800000607967377, 0.12800000607967377, 1.008000047877431, 0.0, 0.0, 0.0, 0.0, 0.0, 1.6518371624300668E9, 0.0, 2022-05-06 12:39:22.430
73.0, -302.0791992209852, -268.8034393652342, -252.31422046059743, -235.9110192549415, 0.12800000607967377, 0.12800000607967377, 1.008000047877431, 0.0, 0.0, 0.0, 0.0, 0.0, 1.651837162443128E9, 0.0, 2022-05-06 12:39:22.443
73.0, -293.8888183180243, -205.83848371123895, -233.54740248294547, -211.4184144451283, 0.12800000607967377, 0.12800000607967377, 1.008000047877431, 0.0, 0.0, 0.0, 0.0, 0.0, 1.651837162443128E9, 0.0, 2022-05-06 12:39:22.443
74.0, -214.41594425961375, -48.740246172528714, -125.51291246293113, -152.13352034753188, 0.12800000607967377, 0.12800000607967377, 1.008000047877431, 0.0, 0.0, 0.0, 0.0, 0.0, 1.651837162459202E9, 0.0, 2022-05-06 12:39:22.459
74.0, -218.11844521574676, -114.68216219125316, -137.79474391741678, -170.7283029272221, 0.12800000607967377, 0.12800000607967377, 1.008000047877431, 0.0, 0.0, 0.0, 0.0, 0.0, 1.651837162459202E9, 0.0, 2022-05-06 12:39:22.459
75.0, -298.5075947633013, -266.997067686636, -242.0257556824945, -233.92887227842584, 0.12800000607967377, 0.12800000607967377, 1.008000047877431, 0.0, 0.0, 0.0, 0.0, 0.0, 1.6518371624600635E9, 0.0, 2022-05-06 12:39:22.460
75.0, -305.11973788496107, -211.42963414499536, -225.55523627763614, -214.13732171291485, 0.12800000607967377, 0.12800000607967377, 1.008000047877431, 0.0, 0.0, 0.0, 0.0, 0.0, 1.6518371624600635E9, 0.0, 2022-05-06 12:39:22.460
76.0, -222.03786036930978, -57.091442773584276, -133.1572679723613, -161.06814134167507, 0.12800000607967377, 0.12800000607967377, 1.008000047877431, 0.0, 0.0, 0.0, 0.0, 0.0, 1.6518371624731865E9, 0.0, 2022-05-06 12:39:22.473
76.0, -219.285294001922, -121.63837610883638, -148.9807846848853, -164.3966523022391, 0.12800000607967377, 0.12800000607967377, 1.008000047877431, 0.0, 0.0, 0.0, 0.0, 0.0, 1.6518371624731865E9, 0.0, 2022-05-06 12:39:22.473
77.0, -297.45668287575245, -267.5468329801224, -246.07980723446235, -221.74053832283244, 0.12800000607967377, 0.12800000607967377, 1.008000047877431, 0.0, 0.0, 0.0, 0.0, 0.0, 1.6518371624891112E9, 0.0, 2022-05-06 12:39:22.489
77.0, -287.93115768861026, -200.2996918768622, -228.33398194471374, -207.92534788651392, 0.12800000607967377, 0.12800000607967377, 1.008000047877431, 0.0, 0.0, 0.0, 0.0, 0.0, 1.6518371624891112E9, 0.0, 2022-05-06 12:39:22.489
78.0, -228.58268529176712, -56.94184677535668, -140.70812598289922, -177.22450915025547, 0.12800000607967377, 0.12800000607967377, 1.008000047877431, 0.0, 0.0, 0.0, 0.0, 0.0, 1.6518371624901E9, 0.0, 2022-05-06 12:39:22.490
78.0, -231.72794115450233, -126.17113485513255, -154.725271016825, -182.9241166827269, 0.12800000607967377, 0.12800000607967377, 1.008000047877431, 0.0, 0.0, 0.0, 0.0, 0.0, 1.6518371624901E9, 0.0, 2022-05-06 12:39:22.490
79.0, -293.5522273220122, -265.05605960963294, -231.22492461046204, -230.3834471204318, 0.12800000607967377, 0.12800000607967377, 1.008000047877431, 0.0, 0.0, 0.0, 0.0, 0.0, 1.6518371625031655E9, 0.0, 2022-05-06 12:39:22.503
79.0, -290.82584025431424, -192.95452836388722, -219.88554794481024, -208.90520167490467, 0.12800000607967377, 0.12800000607967377, 1.008000047877431, 0.0, 0.0, 0.0, 0.0, 0.0, 1.6518371625031655E9, 0.0, 2022-05-06 12:39:22.503
80.0, -216.34573263674974, -44.03171212831512, -128.58711022650823, -156.75229679280892, 0.12800000607967377, 0.12800000607967377, 1.008000047877431, 0.0, 0.0, 0.0, 0.0, 0.0, 1.6518371625191774E9, 0.0, 2022-05-06 12:39:22.519
80.0, -219.78270069602877, -122.79400519514456, -146.48627141444013, -168.77233525039628, 0.12800000607967377, 0.12800000607967377, 1.008000047877431, 0.0, 0.0, 0.0, 0.0, 0.0, 1.6518371625191774E9, 0.0, 2022-05-06 12:39:22.519
81.0, -299.78290064819157, -269.0278333625756, -240.34654060238972, -231.0154902129434, 0.12800000607967377, 0.12800000607967377, 1.008000047877431, 0.0, 0.0, 0.0, 0.0, 0.0, 1.6518371625200562E9, 0.0, 2022-05-06 12:39:22.520
81.0, -298.3916578646749, -201.09255066746846, -229.08196193585172, -218.0455171666108, 0.12800000607967377, 0.12800000607967377, 1.008000047877431, 0.0, 0.0, 0.0, 0.0, 0.0, 1.6518371625200562E9, 0.0, 2022-05-06 12:39:22.520
82.0, -220.44466298818588, -45.32945741293952, -132.01659848587587, -153.3115888335742, 0.12800000607967377, 0.12800000607967377, 1.008000047877431, 0.0, 0.0, 0.0, 0.0, 0.0, 1.651837162533122E9, 0.0, 2022-05-06 12:39:22.533
82.0, -222.44924936443567, -121.14470931468531, -143.68882624758407, -169.4342975425534, 0.12800000607967377, 0.12800000607967377, 1.008000047877431, 0.0, 0.0, 0.0, 0.0, 0.0, 1.651837162533122E9, 0.0, 2022-05-06 12:39:22.533
83.0, -292.5761134335771, -268.5079872687347, -237.60145403491333, -222.6007153126411, 0.12800000607967377, 0.12800000607967377, 1.008000047877431, 0.0, 0.0, 0.0, 0.0, 0.0, 1.6518371625491571E9, 0.0, 2022-05-06 12:39:22.549
83.0, -288.66791797988117, -195.09375113854185, -230.70881841657683, -218.77105775801465, 0.12800000607967377, 0.12800000607967377, 1.008000047877431, 0.0, 0.0, 0.0, 0.0, 0.0, 1.6518371625491571E9, 0.0, 2022-05-06 12:39:22.549
84.0, -223.72455524932593, -53.83772981213406, -131.59024989092723, -151.84554805094376, 0.12800000607967377, 0.12800000607967377, 1.008000047877431, 0.0, 0.0, 0.0, 0.0, 0.0, 1.6518371625500548E9, 0.0, 2022-05-06 12:39:22.550
84.0, -217.04135402850807, -116.8513041655533, -139.83672929322347, -160.5071563483216, 0.12800000607967377, 0.12800000607967377, 1.008000047877431, 0.0, 0.0, 0.0, 0.0, 0.0, 1.6518371625500548E9, 0.0, 2022-05-06 12:39:22.550
85.0, -292.2470022374764, -267.4346359814517, -249.70751019148156, -233.3940665847622, 0.12800000607967377, 0.12800000607967377, 1.008000047877431, 0.0, 0.0, 0.0, 0.0, 0.0, 1.651837162563193E9, 0.0, 2022-05-06 12:39:22.563
85.0, -289.8684258656576, -200.32587117655203, -223.0831624069251, -211.85224283998832, 0.12800000607967377, 0.12800000607967377, 1.008000047877431, 0.0, 0.0, 0.0, 0.0, 0.0, 1.651837162563193E9, 0.0, 2022-05-06 12:39:22.563
86.0, -211.11361259873956, -43.76991913141683, -134.94494015118107, -152.9450786379166, 0.12800000607967377, 0.12800000607967377, 1.008000047877431, 0.0, 0.0, 0.0, 0.0, 0.0, 1.6518371625791187E9, 0.0, 2022-05-06 12:39:22.579
86.0, -210.53392810560763, -117.70026145549491, -141.04097707895562, -163.74964960990474, 0.12800000607967377, 0.12800000607967377, 1.008000047877431, 0.0, 0.0, 0.0, 0.0, 0.0, 1.6518371625791187E9, 0.0, 2022-05-06 12:39:22.579
87.0, -308.63898374326527, -270.38167714653537, -247.88617891306058, -234.32530167372897, 0.12800000607967377, 0.12800000607967377, 1.008000047877431, 0.0, 0.0, 0.0, 0.0, 0.0, 1.6518371625800498E9, 0.0, 2022-05-06 12:39:22.580
87.0, -293.20067672617733, -200.57270457362756, -227.99739094870165, -218.21007276466116, 0.12800000607967377, 0.12800000607967377, 1.008000047877431, 0.0, 0.0, 0.0, 0.0, 0.0, 1.6518371625800498E9, 0.0, 2022-05-06 12:39:22.580
88.0, -236.556151997298, -54.323916806373745, -136.61293553141877, -161.43465153733268, 0.12800000607967377, 0.12800000607967377, 1.008000047877431, 0.0, 0.0, 0.0, 0.0, 0.0, 1.6518371625932438E9, 0.0, 2022-05-06 12:39:22.593
88.0, -232.52827974501997, -134.40265465760604, -157.23100398713723, -172.2093033096753, 0.12800000607967377, 0.12800000607967377, 1.008000047877431, 0.0, 0.0, 0.0, 0.0, 0.0, 1.6518371625932438E9, 0.0, 2022-05-06 12:39:22.593
89.0, -304.4876947924495, -273.5493724090047, -251.27452827291563, -243.30480146734044, 0.12800000607967377, 0.12800000607967377, 1.008000047877431, 0.0, 0.0, 0.0, 0.0, 0.0, 1.6518371626091485E9, 0.0, 2022-05-06 12:39:22.609
89.0, -300.16437044367194, -197.68550180783495, -234.35896077333018, -230.55174261843786, 0.12800000607967377, 0.12800000607967377, 1.008000047877431, 0.0, 0.0, 0.0, 0.0, 0.0, 1.6518371626091485E9, 0.0, 2022-05-06 12:39:22.609
90.0, -217.3629854246974, -55.80865708878264, -129.18175431946293, -159.0523352655582, 0.12800000607967377, 0.12800000607967377, 1.0240000486373901, 0.0, 0.0, 0.0, 0.0, 0.0, 1.6518371626101172E9, 0.0, 2022-05-06 12:39:22.610
90.0, -228.05909929797053, -131.339676593896, -150.25983046973124, -167.15669846953824, 0.12800000607967377, 0.12800000607967377, 1.0240000486373901, 0.0, 0.0, 0.0, 0.0, 0.0, 1.6518371626101172E9, 0.0, 2022-05-06 12:39:22.610
91.0, -301.1816232316196, -274.7124812952243, -248.9557903003879, -234.62823357013986, 0.12800000607967377, 0.12800000607967377, 1.0240000486373901, 0.0, 0.0, 0.0, 0.0, 0.0, 1.651837162623122E9, 0.0, 2022-05-06 12:39:22.623
91.0, -302.31481291819364, -202.36037675244734, -236.38224664935842, -217.46583267347887, 0.12800000607967377, 0.12800000607967377, 1.0240000486373901, 0.0, 0.0, 0.0, 0.0, 0.0, 1.651837162623122E9, 0.0, 2022-05-06 12:39:22.623
92.0, -213.56698696967214, -41.802731754723936, -120.58372432133183, -150.57772196596488, 0.144000006839633, 0.12800000607967377, 1.0240000486373901, 0.0, 0.0, 0.0, 0.0, 0.0, 1.6518371626392093E9, 0.0, 2022-05-06 12:39:22.639
92.0, -236.08866450283676, -144.91177353309467, -170.0214618355967, -194.90301624080166, 0.144000006839633, 0.12800000607967377, 1.0240000486373901, 0.0, 0.0, 0.0, 0.0, 0.0, 1.6518371626392093E9, 0.0, 2022-05-06 12:39:22.639
93.0, -308.13409724924713, -287.005532449577, -266.9222696875222, -254.22904923791066, 0.144000006839633, 0.12800000607967377, 1.0240000486373901, 0.0, 0.0, 0.0, 0.0, 0.0, 1.6518371626400888E9, 0.0, 2022-05-06 12:39:22.640
93.0, -298.8890645587817, -206.76597890025005, -242.47828357713297, -228.9809846370481, 0.144000006839633, 0.12800000607967377, 1.0240000486373901, 0.0, 0.0, 0.0, 0.0, 0.0, 1.6518371626400888E9, 0.0, 2022-05-06 12:39:22.640
94.0, -220.35864528920501, -55.80491718882695, -135.51714484440163, -160.38373964978382, 0.144000006839633, 0.12800000607967377, 1.0240000486373901, 0.0, 0.0, 0.0, 0.0, 0.0, 1.6518371626531734E9, 0.0, 2022-05-06 12:39:22.653
94.0, -225.20555563177913, -133.50881856819615, -153.2405307344161, -174.37096548406407, 0.144000006839633, 0.12800000607967377, 1.0240000486373901, 0.0, 0.0, 0.0, 0.0, 0.0, 1.6518371626531734E9, 0.0, 2022-05-06 12:39:22.653
95.0, -295.79616729542613, -273.3661173111759, -241.84998038457707, -222.32770261587575, 0.144000006839633, 0.12800000607967377, 1.0240000486373901, 0.0, 0.0, 0.0, 0.0, 0.0, 1.65183716268517E9, 0.0, 2022-05-06 12:39:22.685
95.0, -288.70905687939376, -186.2601074432023, -218.39332786248997, -212.73859912948683, 0.144000006839633, 0.12800000607967377, 1.0240000486373901, 0.0, 0.0, 0.0, 0.0, 0.0, 1.65183716268517E9, 0.0, 2022-05-06 12:39:22.685
96.0, -213.66422436852008, -43.063078039791435, -124.11792977945879, -148.18418599432334, 0.144000006839633, 0.12800000607967377, 1.0240000486373901, 0.0, 0.0, 0.0, 0.0, 0.0, 1.651837162686122E9, 0.0, 2022-05-06 12:39:22.686
96.0, -218.8813848067075, -128.22060003085062, -146.0524430195801, -166.04968808265403, 0.144000006839633, 0.12800000607967377, 1.0240000486373901, 0.0, 0.0, 0.0, 0.0, 0.0, 1.651837162686122E9, 0.0, 2022-05-06 12:39:22.686
97.0, -287.5870868926868, -261.847225447651, -238.2110577276908, -217.84730246895924, 0.144000006839633, 0.12800000607967377, 1.0240000486373901, 0.0, 0.0, 0.0, 0.0, 0.0, 1.651837162687045E9, 0.0, 2022-05-06 12:39:22.687
97.0, -296.96675598155707, -197.06841831514612, -232.32819509739056, -225.8619080740027, 0.144000006839633, 0.12800000607967377, 1.0240000486373901, 0.0, 0.0, 0.0, 0.0, 0.0, 1.651837162687045E9, 0.0, 2022-05-06 12:39:22.687
98.0, -219.00106160528958, -51.885502035263926, -133.8940282636322, -167.3212540675886, 0.144000006839633, 0.12800000607967377, 1.0240000486373901, 0.0, 0.0, 0.0, 0.0, 0.0, 1.6518371626880903E9, 0.0, 2022-05-06 12:39:22.688
98.0, -246.1527352835983, -145.51015752600506, -159.78161575691774, -183.7319350731559, 0.144000006839633, 0.12800000607967377, 1.0240000486373901, 0.0, 0.0, 0.0, 0.0, 0.0, 1.6518371626880903E9, 0.0, 2022-05-06 12:39:22.688
99.0, -301.7725274246186, -277.6744820601307, -253.3239934486337, -232.30575569765642, 0.144000006839633, 0.12800000607967377, 1.0240000486373901, 0.0, 0.0, 0.0, 0.0, 0.0, 1.6518371626981573E9, 0.0, 2022-05-06 12:39:22.698
99.0, -281.9510576594621, -183.68705627368763, -221.43760642642155, -220.84670223342255, 0.144000006839633, 0.12800000607967377, 1.0240000486373901, 0.0, 0.0, 0.0, 0.0, 0.0, 1.6518371626981573E9, 0.0, 2022-05-06 12:39:22.698
100.0, -218.11470531579107, -46.305571301374584, -126.99765274534002, -154.82624831562862, 0.144000006839633, 0.12800000607967377, 1.0240000486373901, 0.0, 0.0, 0.0, 0.0, 0.0, 1.6518371627141824E9, 0.0, 2022-05-06 12:39:22.714
100.0, -226.83989191241562, -130.2289263070561, -143.33727565174922, -158.4988300721161, 0.144000006839633, 0.12800000607967377, 1.0240000486373901, 0.0, 0.0, 0.0, 0.0, 0.0, 1.6518371627141824E9, 0.0, 2022-05-06 12:39:22.714
0.0, -300.7496647867374, -273.2614001124166, -250.78460137872025, -225.83011892437935, 0.144000006839633, 0.12800000607967377, 1.0240000486373901, 0.0, 0.0, 0.0, 0.0, 0.0, 1.6518371627150493E9, 0.0, 2022-05-06 12:39:22.715
1.0, -286.75869905250147, -180.8783914069645, -214.3018773109652, -206.55841445270926, 0.144000006839633, 0.12800000607967377, 1.0240000486373901, 0.0, 0.0, 0.0, 0.0, 0.0, 1.6518371627281263E9, 0.0, 2022-05-06 12:39:22.728
1.0, -203.5272255386226, -38.627556692343205, -118.2612464488484, -132.3924584314227, 0.144000006839633, 0.12800000607967377, 1.0240000486373901, 0.0, 0.0, 0.0, 0.0, 0.0, 1.6518371627281263E9, 0.0, 2022-05-06 12:39:22.728
2.0, -217.3424159749411, -124.32736417697743, -141.4561059740372, -158.72883391939104, 0.12800000607967377, 0.12800000607967377, 1.0240000486373901, 0.0, 0.0, 0.0, 0.0, 0.0, 1.6518371627442074E9, 0.0, 2022-05-06 12:39:22.744
2.0, -305.62275442900136, -271.5934047321789, -242.96073067141697, -232.9284490402788, 0.12800000607967377, 0.12800000607967377, 1.0240000486373901, 0.0, 0.0, 0.0, 0.0, 0.0, 1.6518371627442074E9, 0.0, 2022-05-06 12:39:22.744
3.0, -290.4798995084129, -187.39329712977633, -225.40564027940854, -226.31630591861904, 0.12800000607967377, 0.12800000607967377, 1.0240000486373901, 0.0, 0.0, 0.0, 0.0, 0.0, 1.6518371627450812E9, 0.0, 2022-05-06 12:39:22.745
3.0, -223.87228129757568, -48.19796067895368, -137.54043072042987, -169.7129200892523, 0.12800000607967377, 0.12800000607967377, 1.0240000486373901, 0.0, 0.0, 0.0, 0.0, 0.0, 1.6518371627450812E9, 0.0, 2022-05-06 12:39:22.745
4.0, -239.69953791005537, -149.02192358439788, -166.19554418092594, -192.7207846166566, 0.12800000607967377, 0.12800000607967377, 1.0240000486373901, 0.0, 0.0, 0.0, 0.0, 0.0, 1.651837162758112E9, 0.0, 2022-05-06 12:39:22.758
4.0, -299.28736390406266, -279.27515924116597, -244.09018045803532, -232.65543634351343, 0.12800000607967377, 0.12800000607967377, 1.0240000486373901, 0.0, 0.0, 0.0, 0.0, 0.0, 1.651837162758112E9, 0.0, 2022-05-06 12:39:22.758
5.0, -289.88151551550254, -186.9557288349606, -222.02851061942056, -215.4406768474728, 0.12800000607967377, 0.12800000607967377, 1.0240000486373901, 0.0, 0.0, 0.0, 0.0, 0.0, 1.65183716277412E9, 0.0, 2022-05-06 12:39:22.774
5.0, -208.55365107906982, -43.822277730796486, -129.9334742105566, -149.12103093322366, 0.12800000607967377, 0.12800000607967377, 1.0240000486373901, 0.0, 0.0, 0.0, 0.0, 0.0, 1.65183716277412E9, 0.0, 2022-05-06 12:39:22.774
6.0, -226.86046136217192, -134.10720256110653, -154.48965731961653, -174.47381273284554, 0.12800000607967377, 0.12800000607967377, 1.0240000486373901, 0.0, 0.0, 0.0, 0.0, 0.0, 1.6518371627750688E9, 0.0, 2022-05-06 12:39:22.775
6.0, -298.06815651850775, -269.0315732625313, -241.58818738767877, -217.52754102274776, 0.12800000607967377, 0.12800000607967377, 1.0240000486373901, 0.0, 0.0, 0.0, 0.0, 0.0, 1.6518371627750688E9, 0.0, 2022-05-06 12:39:22.775
7.0, -289.50378561997786, -184.5472332634963, -219.30212355172262, -201.1729585165158, 0.12800000607967377, 0.12800000607967377, 1.0240000486373901, 0.0, 0.0, 0.0, 0.0, 0.0, 1.6518371627881627E9, 0.0, 2022-05-06 12:39:22.788
7.0, -217.14420127728954, -41.24174676137045, -134.21939955977723, -162.86890317033976, 0.12800000607967377, 0.12800000607967377, 1.0240000486373901, 0.0, 0.0, 0.0, 0.0, 0.0, 1.6518371627881627E9, 0.0, 2022-05-06 12:39:22.788
8.0, -232.89665989065543, -141.96847226796672, -166.55083467671648, -188.32640216872096, 0.12800000607967377, 0.12800000607967377, 1.0240000486373901, 0.0, 0.0, 0.0, 0.0, 0.0, 1.651837162803116E9, 0.0, 2022-05-06 12:39:22.803
8.0, -297.0209845309146, -276.3056786763482, -247.26909542037174, -234.68620201945305, 0.12800000607967377, 0.12800000607967377, 1.0240000486373901, 0.0, 0.0, 0.0, 0.0, 0.0, 1.651837162803116E9, 0.0, 2022-05-06 12:39:22.803
9.0, -289.61224271869287, -182.05271999305114, -228.97350483713672, -212.42257758323103, 0.12800000607967377, 0.12800000607967377, 1.0240000486373901, 0.0, 0.0, 0.0, 0.0, 0.0, 1.651837162819194E9, 0.0, 2022-05-06 12:39:22.819
9.0, -217.5630700723268, -41.21182756172493, -119.58891093311831, -151.34253150690347, 0.12800000607967377, 0.12800000607967377, 1.0240000486373901, 0.0, 0.0, 0.0, 0.0, 0.0, 1.651837162819194E9, 0.0, 2022-05-06 12:39:22.819
10.0, -221.00377803156152, -136.72887243004516, -162.58280082372949, -173.1985068479553, 0.12800000607967377, 0.12800000607967377, 1.0240000486373901, 0.0, 0.0, 0.0, 0.0, 0.0, 1.6518371628200896E9, 0.0, 2022-05-06 12:39:22.820
10.0, -302.2456247690134, -274.185155401472, -251.3194070723839, -229.91408967599273, 0.12800000607967377, 0.12800000607967377, 1.0240000486373901, 0.0, 0.0, 0.0, 0.0, 0.0, 1.6518371628200896E9, 0.0, 2022-05-06 12:39:22.820
11.0, -286.0144589613192, -171.98116941237822, -208.99121937388554, -197.06654836516827, 0.12800000607967377, 0.12800000607967377, 1.0240000486373901, 0.0, 0.0, 0.0, 0.0, 0.0, 1.6518371628341703E9, 0.0, 2022-05-06 12:39:22.834
11.0, -197.68550180783495, -24.37853786116466, -109.9250094476156, -123.61865313537419, 0.12800000607967377, 0.12800000607967377, 1.0240000486373901, 0.0, 0.0, 0.0, 0.0, 0.0, 1.6518371628341703E9, 0.0, 2022-05-06 12:39:22.834
12.0, -253.27911464916542, -156.2062713992782, -177.37410514848307, -201.689064710401, 0.12800000607967377, 0.12800000607967377, 1.0240000486373901, 0.0, 0.0, 0.0, 0.0, 0.0, 1.6518371628350687E9, 0.0, 2022-05-06 12:39:22.835
12.0, -316.4385451008566, -290.58087680721655, -269.6972754546441, -254.7171061821282, 0.12800000607967377, 0.12800000607967377, 1.0240000486373901, 0.0, 0.0, 0.0, 0.0, 0.0, 1.6518371628350687E9, 0.0, 2022-05-06 12:39:22.835
13.0, -298.50946471327916, -193.0330662629567, -230.88833361444995, -226.9932278105989, 0.12800000607967377, 0.12800000607967377, 1.0240000486373901, 0.0, 0.0, 0.0, 0.0, 0.0, 1.6518371628481195E9, 0.0, 2022-05-06 12:39:22.848
13.0, -232.87796039087698, -60.48353203339502, -142.66035375976935, -171.3771755695343, 0.12800000607967377, 0.12800000607967377, 1.0240000486373901, 0.0, 0.0, 0.0, 0.0, 0.0, 1.6518371628481195E9, 0.0, 2022-05-06 12:39:22.848
14.0, -242.62413967540488, -155.52186970738694, -171.29676772048697, -187.4924044786021, 0.12800000607967377, 0.12800000607967377, 1.0240000486373901, 0.0, 0.0, 0.0, 0.0, 0.0, 1.6518371628641665E9, 0.0, 2022-05-06 12:39:22.864
14.0, -315.2006382155232, -279.6753285364248, -261.8397456477396, -233.1902420371771, 0.12800000607967377, 0.12800000607967377, 1.0240000486373901, 0.0, 0.0, 0.0, 0.0, 0.0, 1.6518371628641665E9, 0.0, 2022-05-06 12:39:22.864
15.0, -296.54227733658627, -188.28339331923053, -227.00257756048813, -223.18974955566227, 0.12800000607967377, 0.12800000607967377, 1.0240000486373901, 0.0, 0.0, 0.0, 0.0, 0.0, 1.6518371628651364E9, 0.0, 2022-05-06 12:39:22.865
15.0, -211.5231316438876, -45.879222706425935, -121.36910331202671, -150.19812212046236, 0.12800000607967377, 0.12800000607967377, 1.0240000486373901, 0.0, 0.0, 0.0, 0.0, 0.0, 1.6518371628651364E9, 0.0, 2022-05-06 12:39:22.865
16.0, -236.2027314514853, -151.98766424925998, -175.64253146899864, -191.60255452990532, 0.12800000607967377, 0.12800000607967377, 1.0240000486373901, 0.0, 0.0, 0.0, 0.0, 0.0, 1.6518371628941703E9, 0.0, 2022-05-06 12:39:22.894
16.0, -308.7193915923126, -286.43706765631214, -261.24136165482923, -232.43852214608341, 0.12800000607967377, 0.12800000607967377, 1.0240000486373901, 0.0, 0.0, 0.0, 0.0, 0.0, 1.6518371628941703E9, 0.0, 2022-05-06 12:39:22.894
17.0, -301.07129618292674, -193.0368061629124, -233.28934938600287, -219.31147330161184, 0.12800000607967377, 0.12800000607967377, 1.0240000486373901, 0.0, 0.0, 0.0, 0.0, 0.0, 1.6518371628950431E9, 0.0, 2022-05-06 12:39:22.895
17.0, -217.7500650701113, -44.15886872680858, -127.86530953506008, -152.41962269414216, 0.12800000607967377, 0.12800000607967377, 1.0240000486373901, 0.0, 0.0, 0.0, 0.0, 0.0, 1.6518371628950431E9, 0.0, 2022-05-06 12:39:22.895
18.0, -244.41929165413603, -153.11711403587833, -164.90153879625723, -177.821023193188, 0.12800000607967377, 0.12800000607967377, 1.0240000486373901, 0.0, 0.0, 0.0, 0.0, 0.0, 1.6518371628961272E9, 0.0, 2022-05-06 12:39:22.896
18.0, -316.22163090342656, -279.7837856351398, -252.0262481640093, -242.10242363158613, 0.12800000607967377, 0.12800000607967377, 1.0240000486373901, 0.0, 0.0, 0.0, 0.0, 0.0, 1.6518371628961272E9, 0.0, 2022-05-06 12:39:22.896
19.0, -288.8156440281309, -178.04728714050725, -222.6044552125968, -203.2860019914806, 0.12800000607967377, 0.12800000607967377, 1.0240000486373901, 0.0, 0.0, 0.0, 0.0, 0.0, 1.6518371629081516E9, 0.0, 2022-05-06 12:39:22.908
19.0, -196.86646371753886, -34.09853784600273, -115.12347038602456, -142.29945341404527, 0.12800000607967377, 0.12800000607967377, 1.0240000486373901, 0.0, 0.0, 0.0, 0.0, 0.0, 1.6518371629081516E9, 0.0, 2022-05-06 12:39:22.908
20.0, -238.74586342135444, -145.35682162782177, -164.56120790028945, -183.2775372285396, 0.12800000607967377, 0.12800000607967377, 1.0240000486373901, 0.0, 0.0, 0.0, 0.0, 0.0, 1.6518371629241607E9, 0.0, 2022-05-06 12:39:22.924
20.0, -319.2397301676683, -280.5242858263664, -259.6219849740155, -237.5547052854672, 0.12800000607967377, 0.12800000607967377, 1.0240000486373901, 0.0, 0.0, 0.0, 0.0, 0.0, 1.6518371629241607E9, 0.0, 2022-05-06 12:39:22.924
21.0, -289.5935432189144, -177.78549414360896, -222.81762951007113, -216.76086153183132, 0.12800000607967377, 0.12800000607967377, 1.0240000486373901, 0.0, 0.0, 0.0, 0.0, 0.0, 1.6518371629251196E9, 0.0, 2022-05-06 12:39:22.925
21.0, -214.11488231318071, -40.4825470703654, -121.92260850546882, -153.19004208501428, 0.12800000607967377, 0.12800000607967377, 1.0240000486373901, 0.0, 0.0, 0.0, 0.0, 0.0, 1.6518371629251196E9, 0.0, 2022-05-06 12:39:22.925
22.0, -236.62534014647827, -148.81248918687925, -162.78475542133674, -180.94383965618908, 0.12800000607967377, 0.12800000607967377, 1.0240000486373901, 0.0, 0.0, 0.0, 0.0, 0.0, 1.6518371629381397E9, 0.0, 2022-05-06 12:39:22.938
22.0, -308.70069209253415, -288.5575909311883, -257.8866713945754, -238.25406657718122, 0.12800000607967377, 0.12800000607967377, 1.0240000486373901, 0.0, 0.0, 0.0, 0.0, 0.0, 1.6518371629381397E9, 0.0, 2022-05-06 12:39:22.938
23.0, -294.66110765887424, -178.64567113341764, -217.46583267347887, -200.5446553239599, 0.12800000607967377, 0.12800000607967377, 1.0240000486373901, 0.0, 0.0, 0.0, 0.0, 0.0, 1.6518371629541695E9, 0.0, 2022-05-06 12:39:22.954
23.0, -230.00945712486282, -49.02821846911684, -127.745632736478, -163.94973425753415, 0.12800000607967377, 0.12800000607967377, 1.0240000486373901, 0.0, 0.0, 0.0, 0.0, 0.0, 1.6518371629541695E9, 0.0, 2022-05-06 12:39:22.954
24.0, -252.30674066068605, -160.7652094452642, -178.05102704046294, -205.37286616675556, 0.12800000607967377, 0.12800000607967377, 1.0240000486373901, 0.0, 0.0, 0.0, 0.0, 0.0, 1.651837162955114E9, 0.0, 2022-05-06 12:39:22.955
24.0, -313.0988144404255, -285.90600186260417, -266.4398225932382, -248.61732935439795, 0.12800000607967377, 0.12800000607967377, 1.0240000486373901, 0.0, 0.0, 0.0, 0.0, 0.0, 1.651837162955114E9, 0.0, 2022-05-06 12:39:22.955
25.0, -285.87608266295865, -170.53382812952623, -215.99605199089274, -209.64383191615343, 0.12800000607967377, 0.12800000607967377, 1.0240000486373901, 0.0, 0.0, 0.0, 0.0, 0.0, 1.6518371629681225E9, 0.0, 2022-05-06 12:39:22.968
25.0, -224.1303343945183, -49.3386301654391, -119.966640828643, -148.53012674022466, 0.12800000607967377, 0.12800000607967377, 1.0240000486373901, 0.0, 0.0, 0.0, 0.0, 0.0, 1.6518371629681225E9, 0.0, 2022-05-06 12:39:22.968
26.0, -250.4293108829297, -151.77822985174134, -167.9458173601888, -172.0054787620902, 0.12800000607967377, 0.12800000607967377, 1.0240000486373901, 0.0, 0.0, 0.0, 0.0, 0.0, 1.6518371629841073E9, 0.0, 2022-05-06 12:39:22.984
26.0, -320.7356901499443, -279.6229699370451, -256.82453980715945, -236.83290459401906, 0.12800000607967377, 0.12800000607967377, 1.0240000486373901, 0.0, 0.0, 0.0, 0.0, 0.0, 1.6518371629841073E9, 0.0, 2022-05-06 12:39:22.984
27.0, -294.14126156503335, -174.67389738047495, -217.05818357830867, -215.86702544242144, 0.12800000607967377, 0.12800000607967377, 1.0240000486373901, 0.0, 0.0, 0.0, 0.0, 0.0, 1.651837162985057E9, 0.0, 2022-05-06 12:39:22.985
27.0, -214.02138481428847, -42.292658648919314, -124.17402827879414, -150.86008441261947, 0.12800000607967377, 0.12800000607967377, 1.0240000486373901, 0.0, 0.0, 0.0, 0.0, 0.0, 1.651837162985057E9, 0.0, 2022-05-06 12:39:22.985
28.0, -242.6540588750504, -160.55951494770125, -167.5045091654174, -171.68758726585656, 0.12800000607967377, 0.12800000607967377, 1.0240000486373901, 0.0, 0.0, 0.0, 0.0, 0.0, 1.651837162998172E9, 0.0, 2022-05-06 12:39:22.998
28.0, -302.87766786152497, -268.38083067024127, -249.94686378864571, -225.8862174237147, 0.12800000607967377, 0.12800000607967377, 1.0240000486373901, 0.0, 0.0, 0.0, 0.0, 0.0, 1.651837162998172E9, 0.0, 2022-05-06 12:39:22.998
29.0, -285.8648629630916, -172.5795534052886, -216.72533248225227, -223.39170415326953, 0.12800000607967377, 0.12800000607967377, 1.0240000486373901, 0.0, 0.0, 0.0, 0.0, 0.0, 1.6518371630141048E9, 0.0, 2022-05-06 12:39:23.014
29.0, -225.03539018379524, -47.35274328896776, -126.66480164928362, -164.60795664973557, 0.12800000607967377, 0.12800000607967377, 1.0240000486373901, 0.0, 0.0, 0.0, 0.0, 0.0, 1.6518371630141048E9, 0.0, 2022-05-06 12:39:23.014
30.0, -253.58952634548768, -162.51922252448276, -173.8398996903561, -191.07148873619735, 0.12800000607967377, 0.12800000607967377, 1.008000047877431, 0.0, 0.0, 0.0, 0.0, 0.0, 1.651837163015118E9, 0.0, 2022-05-06 12:39:23.015
30.0, -310.58560167020187, -280.0680180317722, -256.2111962144263, -236.30557870026678, 0.12800000607967377, 0.12800000607967377, 1.008000047877431, 0.0, 0.0, 0.0, 0.0, 0.0, 1.651837163015118E9, 0.0, 2022-05-06 12:39:23.015
31.0, -299.18638660525903, -176.89165805419907, -220.24831824051216, -208.26754873245955, 0.12800000607967377, 0.12800000607967377, 1.008000047877431, 0.0, 0.0, 0.0, 0.0, 0.0, 1.651837163028132E9, 0.0, 2022-05-06 12:39:23.028
31.0, -226.19475917005911, -54.00976521009579, -133.2657250710763, -164.78747184760869, 0.12800000607967377, 0.12800000607967377, 1.008000047877431, 0.0, 0.0, 0.0, 0.0, 0.0, 1.651837163028132E9, 0.0, 2022-05-06 12:39:23.028
32.0, -244.45295075373724, -163.97404360724613, -171.52116171782836, -189.69146565254778, 0.12800000607967377, 0.12800000607967377, 1.008000047877431, 0.0, 0.0, 0.0, 0.0, 0.0, 1.6518371630441651E9, 0.0, 2022-05-06 12:39:23.044
32.0, -311.92822575429454, -284.219306982588, -257.5089414990507, -226.05825282167643, 0.12800000607967377, 0.12800000607967377, 1.008000047877431, 0.0, 0.0, 0.0, 0.0, 0.0, 1.6518371630441651E9, 0.0, 2022-05-06 12:39:23.044
33.0, -277.887656357605, -160.5370755479671, -207.50273919152096, -196.19515167549253, 0.12800000607967377, 0.12800000607967377, 1.008000047877431, 0.0, 0.0, 0.0, 0.0, 0.0, 1.6518371630451152E9, 0.0, 2022-05-06 12:39:23.045
33.0, -207.24842599453405, -37.22883410891518, -118.1490494501777, -151.86237760074437, 0.12800000607967377, 0.12800000607967377, 1.008000047877431, 0.0, 0.0, 0.0, 0.0, 0.0, 1.6518371630451152E9, 0.0, 2022-05-06 12:39:23.045
34.0, -258.75432818429545, -163.9067254080437, -176.44287005951628, -197.1637857640162, 0.12800000607967377, 0.12800000607967377, 1.008000047877431, 0.0, 0.0, 0.0, 0.0, 0.0, 1.6518371630581806E9, 0.0, 2022-05-06 12:39:23.058
34.0, -322.23165013222024, -290.4499803087674, -272.7752131181769, -253.6811538944021, 0.12800000607967377, 0.12800000607967377, 1.008000047877431, 0.0, 0.0, 0.0, 0.0, 0.0, 1.6518371630581806E9, 0.0, 2022-05-06 12:39:23.058
35.0, -291.4148744973354, -169.1762444456108, -208.7481258767657, -198.85796044394374, 0.12800000607967377, 0.12800000607967377, 1.008000047877431, 0.0, 0.0, 0.0, 0.0, 0.0, 1.6518371630741673E9, 0.0, 2022-05-06 12:39:23.074
35.0, -221.37776802713051, -49.03195836907253, -127.50627913931385, -150.75910711381584, 0.12800000607967377, 0.12800000607967377, 1.008000047877431, 0.0, 0.0, 0.0, 0.0, 0.0, 1.6518371630741673E9, 0.0, 2022-05-06 12:39:23.074
36.0, -240.52605580026284, -169.70731023931876, -183.16721017984673, -201.07198121771216, 0.12800000607967377, 0.12800000607967377, 1.008000047877431, 0.0, 0.0, 0.0, 0.0, 0.0, 1.6518371630750704E9, 0.0, 2022-05-06 12:39:23.075
36.0, -315.1370599162765, -282.24089990602806, -258.23822199041024, -249.18579414766282, 0.12800000607967377, 0.12800000607967377, 1.008000047877431, 0.0, 0.0, 0.0, 0.0, 0.0, 1.6518371630750704E9, 0.0, 2022-05-06 12:39:23.075
37.0, -287.25236584665254, -163.49533641291782, -209.06227747304365, -202.51558260060847, 0.12800000607967377, 0.12800000607967377, 1.008000047877431, 0.0, 0.0, 0.0, 0.0, 0.0, 1.6518371630881495E9, 0.0, 2022-05-06 12:39:23.088
37.0, -211.8223236403428, -42.01216615224257, -106.57779898727313, -146.57041916344315, 0.12800000607967377, 0.12800000607967377, 1.008000047877431, 0.0, 0.0, 0.0, 0.0, 0.0, 1.6518371630881495E9, 0.0, 2022-05-06 12:39:23.088
38.0, -236.51314314780757, -152.95629833778366, -173.18167729815468, -180.4239935623482, 0.12800000607967377, 0.12800000607967377, 1.008000047877431, 0.0, 0.0, 0.0, 0.0, 0.0, 1.651837163104178E9, 0.0, 2022-05-06 12:39:23.104
38.0, -310.282669773791, -270.49761404516175, -241.4348514894955, -217.63225822150707, 0.12800000607967377, 0.12800000607967377, 1.008000047877431, 0.0, 0.0, 0.0, 0.0, 0.0, 1.651837163104178E9, 0.0, 2022-05-06 12:39:23.104
39.0, -286.46698685595766, -162.55288162408397, -204.1106499317102, -184.08161571901292, 0.12800000607967377, 0.12800000607967377, 1.008000047877431, 0.0, 0.0, 0.0, 0.0, 0.0, 1.65183716310518E9, 0.0, 2022-05-06 12:39:23.105
39.0, -209.72797966515645, -33.69836855074391, -114.1473564975895, -136.36797208432108, 0.12800000607967377, 0.12800000607967377, 1.008000047877431, 0.0, 0.0, 0.0, 0.0, 0.0, 1.65183716310518E9, 0.0, 2022-05-06 12:39:23.105
40.0, -237.80714853247628, -159.71055765775964, -168.14777195779607, -193.69689850509167, 0.12800000607967377, 0.12800000607967377, 1.0240000486373901, 0.0, 0.0, 0.0, 0.0, 0.0, 1.6518371631181679E9, 0.0, 2022-05-06 12:39:23.118
40.0, -317.1341664926149, -282.5326121025719, -262.20251594344154, -253.9766059909016, 0.12800000607967377, 0.12800000607967377, 1.0240000486373901, 0.0, 0.0, 0.0, 0.0, 0.0, 1.6518371631181679E9, 0.0, 2022-05-06 12:39:23.118
41.0, -282.57749090204015, -165.88513248460367, -214.25699851149693, -209.92058451287448, 0.12800000607967377, 0.12800000607967377, 1.0240000486373901, 0.0, 0.0, 0.0, 0.0, 0.0, 1.6518371631341064E9, 0.0, 2022-05-06 12:39:23.134
41.0, -212.10655603697523, -52.13981523225084, -128.4524738281034, -153.4106961824, 0.12800000607967377, 0.12800000607967377, 1.0240000486373901, 0.0, 0.0, 0.0, 0.0, 0.0, 1.6518371631341064E9, 0.0, 2022-05-06 12:39:23.134
42.0, -250.9154978771694, -174.72251607989892, -175.0254479763098, -191.76711012795568, 0.12800000607967377, 0.12800000607967377, 1.0240000486373901, 0.0, 0.0, 0.0, 0.0, 0.0, 1.6518371631491425E9, 0.0, 2022-05-06 12:39:23.149
42.0, -313.11003414029256, -282.8579833987169, -259.68182337330654, -234.8133586179465, 0.12800000607967377, 0.12800000607967377, 1.0240000486373901, 0.0, 0.0, 0.0, 0.0, 0.0, 1.6518371631491425E9, 0.0, 2022-05-06 12:39:23.149
43.0, -286.25007265852764, -164.1385992052965, -217.20777957653627, -204.45285077765584, 0.12800000607967377, 0.12800000607967377, 1.0240000486373901, 0.0, 0.0, 0.0, 0.0, 0.0, 1.6518371631500762E9, 0.0, 2022-05-06 12:39:23.150
43.0, -216.14190808916464, -47.42754128808156, -133.36670236987993, -157.34881083574146, 0.12800000607967377, 0.12800000607967377, 1.0240000486373901, 0.0, 0.0, 0.0, 0.0, 0.0, 1.6518371631500762E9, 0.0, 2022-05-06 12:39:23.150
44.0, -253.96351634105667, -178.7279489324428, -195.15732943778858, -207.42607124242932, 0.12800000607967377, 0.12800000607967377, 1.0240000486373901, 0.0, 0.0, 0.0, 0.0, 0.0, 1.651837163164209E9, 0.0, 2022-05-06 12:39:23.164
44.0, -327.9462172645144, -289.72817961731926, -269.3980834581889, -252.02063831407577, 0.12800000607967377, 0.12800000607967377, 1.0240000486373901, 0.0, 0.0, 0.0, 0.0, 0.0, 1.651837163164209E9, 0.0, 2022-05-06 12:39:23.164
45.0, -286.523085355293, -165.0960135939531, -214.04008431406692, -211.8017541905865, 0.12800000607967377, 0.12800000607967377, 1.0240000486373901, 0.0, 0.0, 0.0, 0.0, 0.0, 1.651837163165168E9, 0.0, 2022-05-06 12:39:23.165
45.0, -212.16639443626627, -41.006133064161986, -120.1498959264718, -143.87021139543504, 0.12800000607967377, 0.12800000607967377, 1.0240000486373901, 0.0, 0.0, 0.0, 0.0, 0.0, 1.651837163165168E9, 0.0, 2022-05-06 12:39:23.165
46.0, -242.01079608267173, -167.86353956116363, -170.10747953457758, -178.72607898246497, 0.12800000607967377, 0.12800000607967377, 1.0240000486373901, 0.0, 0.0, 0.0, 0.0, 0.0, 1.6518371631781633E9, 0.0, 2022-05-06 12:39:23.178
46.0, -303.67052665213123, -279.6753285364248, -254.9957287288271, -236.62347019650042, 0.12800000607967377, 0.12800000607967377, 1.0240000486373901, 0.0, 0.0, 0.0, 0.0, 0.0, 1.6518371631781633E9, 0.0, 2022-05-06 12:39:23.178
47.0, -280.16899533057585, -160.8736665439792, -212.21501313569024, -204.47903007734567, 0.12800000607967377, 0.12800000607967377, 1.0240000486373901, 0.0, 0.0, 0.0, 0.0, 0.0, 1.651837163194127E9, 0.0, 2022-05-06 12:39:23.194
47.0, -217.4583528735675, -45.063924516085535, -123.71028068428859, -153.90436297655106, 0.12800000607967377, 0.12800000607967377, 1.0240000486373901, 0.0, 0.0, 0.0, 0.0, 0.0, 1.651837163194127E9, 0.0, 2022-05-06 12:39:23.194
48.0, -244.05278145847842, -161.85352033236995, -175.83326636673883, -185.54765650164336, 0.12800000607967377, 0.12800000607967377, 1.0240000486373901, 0.0, 0.0, 0.0, 0.0, 0.0, 1.6518371631951663E9, 0.0, 2022-05-06 12:39:23.195
48.0, -312.21993795083836, -276.6609691721387, -246.7978680259548, -227.15404350869358, 0.12800000607967377, 0.12800000607967377, 1.0240000486373901, 0.0, 0.0, 0.0, 0.0, 0.0, 1.6518371631951663E9, 0.0, 2022-05-06 12:39:23.195
49.0, -270.34801804693416, -145.06884933123365, -180.7736742082052, -175.47610592097044, 0.12800000607967377, 0.12800000607967377, 1.0240000486373901, 0.0, 0.0, 0.0, 0.0, 0.0, 1.6518371632081192E9, 0.0, 2022-05-06 12:39:23.208
49.0, -211.72882614145055, -40.07863787515089, -124.64899557316676, -150.8825238123536, 0.12800000607967377, 0.12800000607967377, 1.0240000486373901, 0.0, 0.0, 0.0, 0.0, 0.0, 1.6518371632081192E9, 0.0, 2022-05-06 12:39:23.208
50.0, -250.93045747699216, -171.1770909219049, -187.4755749288015, -197.50785655993968, 0.12800000607967377, 0.12800000607967377, 1.0240000486373901, 0.0, 0.0, 0.0, 0.0, 0.0, 1.6518371632241356E9, 0.0, 2022-05-06 12:39:23.224
50.0, -311.4270791602321, -285.35997646907344, -261.7761673484929, -249.4924659440294, 0.12800000607967377, 0.12800000607967377, 1.0240000486373901, 0.0, 0.0, 0.0, 0.0, 0.0, 1.6518371632241356E9, 0.0, 2022-05-06 12:39:23.224
51.0, -280.68136162450537, -164.99503629514948, -208.53869147924706, -197.0553286653012, 0.12800000607967377, 0.12800000607967377, 1.0240000486373901, 0.0, 0.0, 0.0, 0.0, 0.0, 1.6518371632250893E9, 0.0, 2022-05-06 12:39:23.225
51.0, -214.42529400950298, -44.75351281976327, -121.06991131557152, -153.6612694794312, 0.12800000607967377, 0.12800000607967377, 1.0240000486373901, 0.0, 0.0, 0.0, 0.0, 0.0, 1.6518371632250893E9, 0.0, 2022-05-06 12:39:23.225
52.0, -246.79038822604343, -167.59426676435396, -179.56568652251735, -196.56914167106152, 0.12800000607967377, 0.12800000607967377, 1.0240000486373901, 0.0, 0.0, 0.0, 0.0, 0.0, 1.6518371632382195E9, 0.0, 2022-05-06 12:39:23.238
52.0, -320.1672253566794, -282.50643280288205, -260.34752556541935, -241.46664063911885, 0.12800000607967377, 0.12800000607967377, 1.0240000486373901, 0.0, 0.0, 0.0, 0.0, 0.0, 1.6518371632382195E9, 0.0, 2022-05-06 12:39:23.238
53.0, -272.6630161195062, -155.72756420494989, -193.95682155201212, -196.85337406769395, 0.12800000607967377, 0.12800000607967377, 1.0240000486373901, 0.0, 0.0, 0.0, 0.0, 0.0, 1.651837163254132E9, 0.0, 2022-05-06 12:39:23.254
53.0, -207.53639829112217, -39.813104978296906, -113.24230070831254, -146.19268926791847, 0.12800000607967377, 0.12800000607967377, 1.0240000486373901, 0.0, 0.0, 0.0, 0.0, 0.0, 1.651837163254132E9, 0.0, 2022-05-06 12:39:23.254
54.0, -250.18995728576556, -169.90552493697032, -170.3206538320519, -186.69954568799585, 0.12800000607967377, 0.12800000607967377, 1.0240000486373901, 0.0, 0.0, 0.0, 0.0, 0.0, 1.651837163255086E9, 0.0, 2022-05-06 12:39:23.255
54.0, -315.67560550989583, -278.32148475246504, -260.0371138690971, -237.25177338905632, 0.12800000607967377, 0.12800000607967377, 1.0240000486373901, 0.0, 0.0, 0.0, 0.0, 0.0, 1.651837163255086E9, 0.0, 2022-05-06 12:39:23.255
55.0, -276.87040356965736, -155.71634450508282, -210.0421312614344, -213.14811817463487, 0.12800000607967377, 0.12800000607967377, 1.0240000486373901, 0.0, 0.0, 0.0, 0.0, 0.0, 1.6518371632681272E9, 0.0, 2022-05-06 12:39:23.268
55.0, -206.13393580773845, -44.01675252849236, -117.95457465248182, -151.7763599017635, 0.12800000607967377, 0.12800000607967377, 1.0240000486373901, 0.0, 0.0, 0.0, 0.0, 0.0, 1.6518371632681272E9, 0.0, 2022-05-06 12:39:23.268
56.0, -244.52400885289535, -179.50584812322631, -184.60333176283166, -194.19430519919842, 0.12800000607967377, 0.12800000607967377, 1.0240000486373901, 0.0, 0.0, 0.0, 0.0, 0.0, 1.6518371632841203E9, 0.0, 2022-05-06 12:39:23.284
56.0, -321.3191145430319, -288.1088029365055, -272.27032662415877, -244.77645209990442, 0.12800000607967377, 0.12800000607967377, 1.0240000486373901, 0.0, 0.0, 0.0, 0.0, 0.0, 1.6518371632841203E9, 0.0, 2022-05-06 12:39:23.284
57.0, -278.57579794945195, -150.73479776410386, -199.43951488705352, -203.11022669356316, 0.12800000607967377, 0.12800000607967377, 1.0240000486373901, 0.0, 0.0, 0.0, 0.0, 0.0, 1.6518371632850757E9, 0.0, 2022-05-06 12:39:23.285
57.0, -196.69816821953282, -36.92216231254861, -114.24085399648175, -144.2180220913142, 0.12800000607967377, 0.12800000607967377, 1.0240000486373901, 0.0, 0.0, 0.0, 0.0, 0.0, 1.6518371632850757E9, 0.0, 2022-05-06 12:39:23.285
58.0, -236.52810274763033, -161.89465923188254, -161.6104268352501, -163.4074487639591, 0.12800000607967377, 0.12800000607967377, 1.0240000486373901, 0.0, 0.0, 0.0, 0.0, 0.0, 1.6518371632981021E9, 0.0, 2022-05-06 12:39:23.298
58.0, -313.5363827352412, -275.46794108627364, -248.12927241018042, -237.21811428945512, 0.12800000607967377, 0.12800000607967377, 1.0240000486373901, 0.0, 0.0, 0.0, 0.0, 0.0, 1.6518371632981021E9, 0.0, 2022-05-06 12:39:23.298
59.0, -272.27406652411446, -143.32979585183784, -189.28194660739973, -195.92587887868285, 0.12800000607967377, 0.12800000607967377, 1.0240000486373901, 0.0, 0.0, 0.0, 0.0, 0.0, 1.6518371633141236E9, 0.0, 2022-05-06 12:39:23.314
59.0, -199.91448218142614, -41.062231563497335, -119.13264313852414, -154.74958036653697, 0.12800000607967377, 0.12800000607967377, 1.0240000486373901, 0.0, 0.0, 0.0, 0.0, 0.0, 1.6518371633141236E9, 0.0, 2022-05-06 12:39:23.314
60.0, -247.56454751687124, -176.63360495725647, -175.74350876780227, -183.8310424219817, 0.12800000607967377, 0.12800000607967377, 1.0240000486373901, 0.0, 0.0, 0.0, 0.0, 0.0, 1.6518371633150685E9, 0.0, 2022-05-06 12:39:23.315
60.0, -314.9051861190237, -283.2319733942859, -261.1740434556268, -241.04777184408158, 0.12800000607967377, 0.12800000607967377, 1.0240000486373901, 0.0, 0.0, 0.0, 0.0, 0.0, 1.6518371633150685E9, 0.0, 2022-05-06 12:39:23.315
61.0, -275.09021119074896, -149.93445917358622, -202.7418465479277, -193.78291620407254, 0.12800000607967377, 0.12800000607967377, 1.0240000486373901, 0.0, 0.0, 0.0, 0.0, 0.0, 1.6518371633281493E9, 0.0, 2022-05-06 12:39:23.328
61.0, -217.5294109727256, -51.38435544120148, -132.35692938184366, -169.66056148987263, 0.12800000607967377, 0.12800000607967377, 1.0240000486373901, 0.0, 0.0, 0.0, 0.0, 0.0, 1.6518371633281493E9, 0.0, 2022-05-06 12:39:23.328
62.0, -245.75817583827302, -178.92616363009438, -179.81999971950427, -192.3916734205559, 0.12800000607967377, 0.12800000607967377, 1.0240000486373901, 0.0, 0.0, 0.0, 0.0, 0.0, 1.651837163344159E9, 0.0, 2022-05-06 12:39:23.344
62.0, -306.69984561624005, -278.370103451889, -260.665417061653, -239.8584836581722, 0.12800000607967377, 0.12800000607967377, 1.0240000486373901, 0.0, 0.0, 0.0, 0.0, 0.0, 1.651837163344159E9, 0.0, 2022-05-06 12:39:23.344
63.0, -294.2347590639256, -161.99937643064186, -215.3079103990458, -214.64781805686653, 0.12800000607967377, 0.12800000607967377, 1.0240000486373901, 0.0, 0.0, 0.0, 0.0, 0.0, 1.6518371633450487E9, 0.0, 2022-05-06 12:39:23.345
63.0, -243.90318546025082, -75.66752585349604, -153.62574042985216, -184.35462841577828, 0.12800000607967377, 0.12800000607967377, 1.0240000486373901, 0.0, 0.0, 0.0, 0.0, 0.0, 1.6518371633450487E9, 0.0, 2022-05-06 12:39:23.345
64.0, -269.04653286235407, -197.21427441341802, -203.8525968347676, -201.2103575160727, 0.12800000607967377, 0.12800000607967377, 1.0240000486373901, 0.0, 0.0, 0.0, 0.0, 0.0, 1.6518371633581336E9, 0.0, 2022-05-06 12:39:23.358
64.0, -332.8006074069999, -301.7108190753497, -279.72768713580444, -263.32261598017067, 0.12800000607967377, 0.12800000607967377, 1.0240000486373901, 0.0, 0.0, 0.0, 0.0, 0.0, 1.6518371633581336E9, 0.0, 2022-05-06 12:39:23.358
65.0, -266.0658325976692, -147.69051920017228, -200.7410000716336, -198.79064224474132, 0.12800000607967377, 0.12800000607967377, 1.0240000486373901, 0.0, 0.0, 0.0, 0.0, 0.0, 1.651837163374168E9, 0.0, 2022-05-06 12:39:23.374
65.0, -204.27894542971626, -39.31943818414584, -117.98075395217165, -156.72798744309694, 0.12800000607967377, 0.12800000607967377, 1.0240000486373901, 0.0, 0.0, 0.0, 0.0, 0.0, 1.651837163374168E9, 0.0, 2022-05-06 12:39:23.374
66.0, -235.73898385697976, -170.4702498302795, -171.0611540232785, -182.66419363580644, 0.12800000607967377, 0.12800000607967377, 1.0240000486373901, 0.0, 0.0, 0.0, 0.0, 0.0, 1.6518371633750572E9, 0.0, 2022-05-06 12:39:23.375
66.0, -302.8253092621453, -259.72296227281913, -245.00645594717935, -221.69004967343062, 0.12800000607967377, 0.12800000607967377, 1.0240000486373901, 0.0, 0.0, 0.0, 0.0, 0.0, 1.6518371633750572E9, 0.0, 2022-05-06 12:39:23.375
67.0, -253.05846055177972, -125.78966505965218, -182.37809128919616, -183.22143872920424, 0.12800000607967377, 0.12800000607967377, 1.0240000486373901, 0.0, 0.0, 0.0, 0.0, 0.0, 1.6518371633881032E9, 0.0, 2022-05-06 12:39:23.388
67.0, -193.52673305710778, -33.24584065610543, -101.82064624363557, -137.82279316708446, 0.12800000607967377, 0.12800000607967377, 1.0240000486373901, 0.0, 0.0, 0.0, 0.0, 0.0, 1.6518371633881032E9, 0.0, 2022-05-06 12:39:23.388
68.0, -238.73464372148737, -171.83157341415063, -176.27457456151024, -178.28851068764925, 0.12800000607967377, 0.12800000607967377, 1.0240000486373901, 0.0, 0.0, 0.0, 0.0, 0.0, 1.6518371634041684E9, 0.0, 2022-05-06 12:39:23.404
68.0, -300.5701495888643, -261.4021773529239, -245.78435513796285, -224.64083073846996, 0.12800000607967377, 0.12800000607967377, 1.0240000486373901, 0.0, 0.0, 0.0, 0.0, 0.0, 1.6518371634041684E9, 0.0, 2022-05-06 12:39:23.404
69.0, -265.56468600360677, -138.92793360399082, -188.0664791218005, -191.55393583048135, 0.12800000607967377, 0.12800000607967377, 1.0240000486373901, 0.0, 0.0, 0.0, 0.0, 0.0, 1.6518371634051173E9, 0.0, 2022-05-06 12:39:23.405
69.0, -203.61324323760346, -41.503539758268744, -119.99282012833282, -152.8534510890022, 0.12800000607967377, 0.12800000607967377, 1.0240000486373901, 0.0, 0.0, 0.0, 0.0, 0.0, 1.6518371634051173E9, 0.0, 2022-05-06 12:39:23.405
70.0, -246.0611077346839, -189.46520170522854, -184.46869536442682, -190.54042294248939, 0.12800000607967377, 0.12800000607967377, 1.0240000486373901, 0.0, 0.0, 0.0, 0.0, 0.0, 1.6518371634341552E9, 0.0, 2022-05-06 12:39:23.434
70.0, -308.18084599869326, -276.7694262708537, -254.18791033839807, -238.22040747758, 0.12800000607967377, 0.12800000607967377, 1.0240000486373901, 0.0, 0.0, 0.0, 0.0, 0.0, 1.6518371634341552E9, 0.0, 2022-05-06 12:39:23.434
71.0, -266.8549514883198, -138.75963810598478, -194.60382424434647, -195.95205817837268, 0.12800000607967377, 0.12800000607967377, 1.0240000486373901, 0.0, 0.0, 0.0, 0.0, 0.0, 1.6518371634350471E9, 0.0, 2022-05-06 12:39:23.435
71.0, -206.34711010521278, -45.1499422150664, -119.52533263387159, -155.63967655599117, 0.12800000607967377, 0.12800000607967377, 1.0240000486373901, 0.0, 0.0, 0.0, 0.0, 0.0, 1.6518371634350471E9, 0.0, 2022-05-06 12:39:23.435
72.0, -256.97039590543136, -197.92111550504342, -192.27386657195166, -206.19564415700734, 0.12800000607967377, 0.12800000607967377, 1.0240000486373901, 0.0, 0.0, 0.0, 0.0, 0.0, 1.6518371634360592E9, 0.0, 2022-05-06 12:39:23.436
72.0, -315.0510422172956, -289.99371251417324, -270.87534394068643, -241.79201193526387, 0.12800000607967377, 0.12800000607967377, 1.0240000486373901, 0.0, 0.0, 0.0, 0.0, 0.0, 1.6518371634360592E9, 0.0, 2022-05-06 12:39:23.436
73.0, -274.8882565931417, -153.33028833335266, -204.3387838290073, -204.00032288301736, 0.12800000607967377, 0.12800000607967377, 1.0240000486373901, 0.0, 0.0, 0.0, 0.0, 0.0, 1.6518371634481547E9, 0.0, 2022-05-06 12:39:23.448
73.0, -215.55100389616564, -60.87622152874246, -136.32870313478634, -163.90859535802156, 0.12800000607967377, 0.12800000607967377, 1.0240000486373901, 0.0, 0.0, 0.0, 0.0, 0.0, 1.6518371634481547E9, 0.0, 2022-05-06 12:39:23.448
74.0, -232.44039209606126, -175.6238319692202, -179.18795662699267, -186.66588658839464, 0.12800000607967377, 0.12800000607967377, 1.0240000486373901, 0.0, 0.0, 0.0, 0.0, 0.0, 1.651837163464115E9, 0.0, 2022-05-06 12:39:23.464
74.0, -296.54227733658627, -271.7018618308939, -247.49722931766883, -231.54842595662922, 0.12800000607967377, 0.12800000607967377, 1.0240000486373901, 0.0, 0.0, 0.0, 0.0, 0.0, 1.651837163464115E9, 0.0, 2022-05-06 12:39:23.464
75.0, -272.04967252677307, -131.38829529331997, -183.75063457293436, -176.77759110555053, 0.12800000607967377, 0.12800000607967377, 1.0240000486373901, 0.0, 0.0, 0.0, 0.0, 0.0, 1.6518371634650743E9, 0.0, 2022-05-06 12:39:23.465
75.0, -200.50912627438083, -36.95208151219413, -112.78229301376268, -148.36931104213, 0.12800000607967377, 0.12800000607967377, 1.0240000486373901, 0.0, 0.0, 0.0, 0.0, 0.0, 1.6518371634650743E9, 0.0, 2022-05-06 12:39:23.465
76.0, -225.51409737812355, -168.4357442543842, -167.0557211707346, -171.87832216359675, 0.12800000607967377, 0.12800000607967377, 1.0240000486373901, 0.0, 0.0, 0.0, 0.0, 0.0, 1.65183716347812E9, 0.0, 2022-05-06 12:39:23.478
76.0, -294.0739433658309, -258.26440129010007, -227.67575955251232, -184.5678027132526, 0.12800000607967377, 0.12800000607967377, 1.0240000486373901, 0.0, 0.0, 0.0, 0.0, 0.0, 1.65183716347812E9, 0.0, 2022-05-06 12:39:23.478
77.0, -264.5810923152603, -131.29105789447203, -194.08771805046126, -192.10744102392346, 0.12800000607967377, 0.12800000607967377, 1.0240000486373901, 0.0, 0.0, 0.0, 0.0, 0.0, 1.6518371634941866E9, 0.0, 2022-05-06 12:39:23.494
77.0, -210.71905315341428, -49.058137668762356, -123.38864928809926, -169.29405129421502, 0.12800000607967377, 0.12800000607967377, 1.0240000486373901, 0.0, 0.0, 0.0, 0.0, 0.0, 1.6518371634941866E9, 0.0, 2022-05-06 12:39:23.494
78.0, -240.7280103978701, -169.68487083958462, -171.8016542145051, -186.5312501899898, 0.12800000607967377, 0.12800000607967377, 1.0240000486373901, 0.0, 0.0, 0.0, 0.0, 0.0, 1.651837163495075E9, 0.0, 2022-05-06 12:39:23.495
78.0, -305.25998413329944, -269.7720734537579, -250.19743708567694, -224.9213232351467, 0.12800000607967377, 0.12800000607967377, 1.0240000486373901, 0.0, 0.0, 0.0, 0.0, 0.0, 1.651837163495075E9, 0.0, 2022-05-06 12:39:23.495
79.0, -254.38238513609394, -121.5560983098112, -174.44202358322218, -176.7850709054619, 0.12800000607967377, 0.12800000607967377, 1.0240000486373901, 0.0, 0.0, 0.0, 0.0, 0.0, 1.651837163508114E9, 0.0, 2022-05-06 12:39:23.508
79.0, -201.83679075865075, -43.096737139392644, -123.5195457865484, -160.20983430184424, 0.12800000607967377, 0.12800000607967377, 1.0240000486373901, 0.0, 0.0, 0.0, 0.0, 0.0, 1.651837163508114E9, 0.0, 2022-05-06 12:39:23.508
80.0, -247.6505652158521, -181.28230060217902, -185.6280643506907, -206.90248524863273, 0.12800000607967377, 0.12800000607967377, 1.0240000486373901, 0.0, 0.0, 0.0, 0.0, 0.0, 1.651837163524116E9, 0.0, 2022-05-06 12:39:23.524
80.0, -306.63252741703764, -266.6978756901808, -249.0679872990586, -238.9983066683635, 0.12800000607967377, 0.12800000607967377, 1.0240000486373901, 0.0, 0.0, 0.0, 0.0, 0.0, 1.651837163524116E9, 0.0, 2022-05-06 12:39:23.524
81.0, -262.09031894477084, -133.7070332658477, -193.14152336167172, -190.17017284687608, 0.12800000607967377, 0.12800000607967377, 1.0240000486373901, 0.0, 0.0, 0.0, 0.0, 0.0, 1.6518371635250692E9, 0.0, 2022-05-06 12:39:23.525
81.0, -194.91423594066873, -41.17816846212372, -97.62821839330718, -145.01836068183184, 0.12800000607967377, 0.12800000607967377, 1.0240000486373901, 0.0, 0.0, 0.0, 0.0, 0.0, 1.6518371635250692E9, 0.0, 2022-05-06 12:39:23.525
82.0, -243.7236702623777, -183.02509398153052, -174.27746798517182, -179.20478617679328, 0.12800000607967377, 0.12800000607967377, 1.0240000486373901, 0.0, 0.0, 0.0, 0.0, 0.0, 1.6518371635381248E9, 0.0, 2022-05-06 12:39:23.538
82.0, -300.9403996844776, -265.5946052032523, -254.22904923791066, -233.23138093668967, 0.12800000607967377, 0.12800000607967377, 1.0240000486373901, 0.0, 0.0, 0.0, 0.0, 0.0, 1.6518371635381248E9, 0.0, 2022-05-06 12:39:23.538
83.0, -250.00296228798106, -118.80353194242343, -177.85655224276707, -186.39287389162928, 0.12800000607967377, 0.12800000607967377, 1.0240000486373901, 0.0, 0.0, 0.0, 0.0, 0.0, 1.6518371635541852E9, 0.0, 2022-05-06 12:39:23.554
83.0, -200.03041908005252, -42.06452475162223, -111.70894172647968, -142.56124641094357, 0.12800000607967377, 0.12800000607967377, 1.0240000486373901, 0.0, 0.0, 0.0, 0.0, 0.0, 1.6518371635541852E9, 0.0, 2022-05-06 12:39:23.554
84.0, -250.2123966854997, -185.7365214494057, -180.0668331165798, -180.9027007566765, 0.12800000607967377, 0.12800000607967377, 1.0240000486373901, 0.0, 0.0, 0.0, 0.0, 0.0, 1.6518371635550773E9, 0.0, 2022-05-06 12:39:23.555
84.0, -297.21545932861045, -260.5457402630709, -227.02127706026658, -200.48481692466885, 0.12800000607967377, 0.12800000607967377, 1.0240000486373901, 0.0, 0.0, 0.0, 0.0, 0.0, 1.6518371635550773E9, 0.0, 2022-05-06 12:39:23.555
85.0, -233.74187728064135, -105.01826070575044, -143.4906115499325, -120.60055387113243, 0.12800000607967377, 0.12800000607967377, 1.0240000486373901, 0.0, 0.0, 0.0, 0.0, 0.0, 1.6518371635681436E9, 0.0, 2022-05-06 12:39:23.568
85.0, -213.81195041676983, -50.05295105697587, -141.72537877084687, -197.36574036162347, 0.12800000607967377, 0.12800000607967377, 1.0240000486373901, 0.0, 0.0, 0.0, 0.0, 0.0, 1.6518371635681436E9, 0.0, 2022-05-06 12:39:23.568
86.0, -265.12337780883536, -207.68225438939407, -216.33264298690483, -243.25805271789432, 0.12800000607967377, 0.12800000607967377, 1.0240000486373901, 0.0, 0.0, 0.0, 0.0, 0.0, 1.6518371635841758E9, 0.0, 2022-05-06 12:39:23.584
86.0, -314.48631732398644, -278.6992146479897, -260.8037933600135, -248.40789495687932, 0.12800000607967377, 0.12800000607967377, 1.0240000486373901, 0.0, 0.0, 0.0, 0.0, 0.0, 1.6518371635841758E9, 0.0, 2022-05-06 12:39:23.584
87.0, -265.9685951988213, -135.69666004227474, -200.29221207695082, -213.33511317241937, 0.12800000607967377, 0.12800000607967377, 1.0240000486373901, 0.0, 0.0, 0.0, 0.0, 0.0, 1.6518371635850947E9, 0.0, 2022-05-06 12:39:23.585
87.0, -212.36086923396215, -55.8236166886054, -128.31409752974287, -165.71870693657547, 0.12800000607967377, 0.12800000607967377, 1.0240000486373901, 0.0, 0.0, 0.0, 0.0, 0.0, 1.6518371635850947E9, 0.0, 2022-05-06 12:39:23.585
88.0, -253.59700614539906, -194.19991504913196, -190.32163879508153, -197.58265455905348, 0.12800000607967377, 0.12800000607967377, 1.0240000486373901, 0.0, 0.0, 0.0, 0.0, 0.0, 1.65183716359812E9, 0.0, 2022-05-06 12:39:23.598
88.0, -305.3048629327677, -273.42969561042264, -252.78918775497004, -234.65254291985184, 0.12800000607967377, 0.12800000607967377, 1.0240000486373901, 0.0, 0.0, 0.0, 0.0, 0.0, 1.65183716359812E9, 0.0, 2022-05-06 12:39:23.598
89.0, -256.45802961150184, -131.24991899495944, -187.09410513332114, -198.0538819534704, 0.12800000607967377, 0.12800000607967377, 1.0240000486373901, 0.0, 0.0, 0.0, 0.0, 0.0, 1.6518371636141303E9, 0.0, 2022-05-06 12:39:23.614
89.0, -194.7758596423082, -36.82492491370067, -107.49781437637284, -136.77936107944697, 0.12800000607967377, 0.12800000607967377, 1.0240000486373901, 0.0, 0.0, 0.0, 0.0, 0.0, 1.6518371636141303E9, 0.0, 2022-05-06 12:39:23.614
90.0, -249.37839899538085, -187.50923402840272, -186.53312013996765, -190.61522094160318, 0.12800000607967377, 0.12800000607967377, 1.0240000486373901, 0.0, 0.0, 0.0, 0.0, 0.0, 1.65183716361505E9, 0.0, 2022-05-06 12:39:23.615
90.0, -304.55314304167405, -258.7057094848715, -240.2119042039849, -218.87016510684043, 0.12800000607967377, 0.12800000607967377, 1.0240000486373901, 0.0, 0.0, 0.0, 0.0, 0.0, 1.65183716361505E9, 0.0, 2022-05-06 12:39:23.615
91.0, -261.61161175044253, -122.67432839656249, -170.6909039276652, -183.81982272211462, 0.12800000607967377, 0.12800000607967377, 1.0240000486373901, 0.0, 0.0, 0.0, 0.0, 0.0, 1.6518371636281667E9, 0.0, 2022-05-06 12:39:23.628
91.0, -197.02353951567784, -43.261292737443, -105.30249310238287, -142.57994591072202, 0.12800000607967377, 0.12800000607967377, 1.0240000486373901, 0.0, 0.0, 0.0, 0.0, 0.0, 1.6518371636281667E9, 0.0, 2022-05-06 12:39:23.628
92.0, -261.8135663480498, -200.75595967145637, -192.04947257461026, -196.35970727354288, 0.12800000607967377, 0.12800000607967377, 1.0240000486373901, 0.0, 0.0, 0.0, 0.0, 0.0, 1.6518371636442268E9, 0.0, 2022-05-06 12:39:23.644
92.0, -311.8609075550921, -268.0255401744507, -260.4859018637799, -234.300992324017, 0.12800000607967377, 0.12800000607967377, 1.0240000486373901, 0.0, 0.0, 0.0, 0.0, 0.0, 1.6518371636442268E9, 0.0, 2022-05-06 12:39:23.644
93.0, -263.39180412935093, -127.13228914374486, -174.57292008167133, -187.8289954746142, 0.12800000607967377, 0.12800000607967377, 1.0240000486373901, 0.0, 0.0, 0.0, 0.0, 0.0, 1.651837163645059E9, 0.0, 2022-05-06 12:39:23.645
93.0, -200.6699419724755, -46.87403609463945, -113.09270471008494, -144.68924948573112, 0.12800000607967377, 0.12800000607967377, 1.0240000486373901, 0.0, 0.0, 0.0, 0.0, 0.0, 1.651837163645059E9, 0.0, 2022-05-06 12:39:23.645
94.0, -252.96870295284316, -198.13054990256205, -188.18989582033828, -193.5697419065982, 0.12800000607967377, 0.12800000607967377, 1.0240000486373901, 0.0, 0.0, 0.0, 0.0, 0.0, 1.6518371636581178E9, 0.0, 2022-05-06 12:39:23.658
94.0, -311.0493492647074, -272.23292762460187, -256.2598149138503, -230.54613276850432, 0.12800000607967377, 0.12800000607967377, 1.0240000486373901, 0.0, 0.0, 0.0, 0.0, 0.0, 1.6518371636581178E9, 0.0, 2022-05-06 12:39:23.658
95.0, -257.1125121037476, -119.72354733152315, -177.1347515513189, -179.4142205743119, 0.12800000607967377, 0.12800000607967377, 1.0240000486373901, 0.0, 0.0, 0.0, 0.0, 0.0, 1.651837163674168E9, 0.0, 2022-05-06 12:39:23.674
95.0, -201.57873766170815, -39.76448627887294, -118.32856464805081, -138.4361367598176, 0.12800000607967377, 0.12800000607967377, 1.0240000486373901, 0.0, 0.0, 0.0, 0.0, 0.0, 1.651837163674168E9, 0.0, 2022-05-06 12:39:23.674
96.0, -267.6665097787045, -202.16964185470715, -204.69407432479784, -213.4734894707799, 0.12800000607967377, 0.12800000607967377, 1.0240000486373901, 0.0, 0.0, 0.0, 0.0, 0.0, 1.6518371636750433E9, 0.0, 2022-05-06 12:39:23.675
96.0, -324.93559780018404, -279.72020733589306, -259.5023081754334, -239.1927814660594, 0.12800000607967377, 0.12800000607967377, 1.0240000486373901, 0.0, 0.0, 0.0, 0.0, 0.0, 1.6518371636750433E9, 0.0, 2022-05-06 12:39:23.675
97.0, -264.3753978176974, -125.46803366346285, -180.64651760971174, -169.84755648765713, 0.12800000607967377, 0.12800000607967377, 1.0240000486373901, 0.0, 0.0, 0.0, 0.0, 0.0, 1.6518371636881175E9, 0.0, 2022-05-06 12:39:23.688
97.0, -214.91522090369835, -58.59488255577162, -129.96339341020212, -173.7482721414417, 0.12800000607967377, 0.12800000607967377, 1.0240000486373901, 0.0, 0.0, 0.0, 0.0, 0.0, 1.6518371636881175E9, 0.0, 2022-05-06 12:39:23.688
98.0, -261.4096571528353, -202.31923785293475, -185.889857347589, -195.85482077952474, 0.12800000607967377, 0.12800000607967377, 1.0240000486373901, 0.0, 0.0, 0.0, 0.0, 0.0, 1.651837163704131E9, 0.0, 2022-05-06 12:39:23.704
98.0, -318.08410108136013, -263.60123852686957, -260.6990761612542, -239.28627896495163, 0.12800000607967377, 0.12800000607967377, 1.0240000486373901, 0.0, 0.0, 0.0, 0.0, 0.0, 1.651837163704131E9, 0.0, 2022-05-06 12:39:23.704
99.0, -263.5488799274899, -125.16136186709628, -183.4439627765678, -198.8729200437665, 0.12800000607967377, 0.12800000607967377, 1.0240000486373901, 0.0, 0.0, 0.0, 0.0, 0.0, 1.6518371637050846E9, 0.0, 2022-05-06 12:39:23.705
99.0, -206.84451679931954, -59.25684484792873, -122.28163890121505, -158.90460921730846, 0.12800000607967377, 0.12800000607967377, 1.0240000486373901, 0.0, 0.0, 0.0, 0.0, 0.0, 1.6518371637050846E9, 0.0, 2022-05-06 12:39:23.705
100.0, -262.064139645081, -203.1906345426105, -192.221507972572, -202.49314320087433, 0.12800000607967377, 0.12800000607967377, 1.0240000486373901, 0.0, 0.0, 0.0, 0.0, 0.0, 1.6518371637191243E9, 0.0, 2022-05-06 12:39:23.719
100.0, -314.3217617259361, -264.19962251977995, -252.04494766378775, -234.143916525878, 0.12800000607967377, 0.12800000607967377, 1.0240000486373901, 0.0, 0.0, 0.0, 0.0, 0.0, 1.6518371637191243E9, 0.0, 2022-05-06 12:39:23.719
0.0, -264.9176833112724, -116.06779512483627, -179.99016516748816, -189.02576346043497, 0.12800000607967377, 0.12800000607967377, 1.0240000486373901, 0.0, 0.0, 0.0, 0.0, 0.0, 1.6518371637201164E9, 0.0, 2022-05-06 12:39:23.720
1.0, -202.56607125001028, -41.04166211374104, -108.9395458092913, -139.48704864736646, 0.12800000607967377, 0.12800000607967377, 1.0240000486373901, 0.0, 0.0, 0.0, 0.0, 0.0, 1.651837163733114E9, 0.0, 2022-05-06 12:39:23.733
1.0, -264.09116542106494, -202.5380220003426, -186.03010359592736, -195.36489388532937, 0.12800000607967377, 0.12800000607967377, 1.0240000486373901, 0.0, 0.0, 0.0, 0.0, 0.0, 1.651837163733114E9, 0.0, 2022-05-06 12:39:23.733
2.0, -317.2351437914185, -267.63472062908113, -254.47401268500835, -233.17528243735433, 0.12800000607967377, 0.12800000607967377, 1.0240000486373901, 0.0, 0.0, 0.0, 0.0, 0.0, 1.6518371637491288E9, 0.0, 2022-05-06 12:39:23.749
2.0, -258.38407808868214, -113.86125415097922, -172.73475925344974, -183.39721402712166, 0.12800000607967377, 0.12800000607967377, 1.0240000486373901, 0.0, 0.0, 0.0, 0.0, 0.0, 1.6518371637491288E9, 0.0, 2022-05-06 12:39:23.749
3.0, -205.2288800184615, -47.717383534647524, -118.84654079191387, -141.880584619008, 0.12800000607967377, 0.12800000607967377, 1.0240000486373901, 0.0, 0.0, 0.0, 0.0, 0.0, 1.6518371637501404E9, 0.0, 2022-05-06 12:39:23.750
3.0, -261.82478604791686, -204.800661473535, -198.69340484589338, -201.79378190916032, 0.12800000607967377, 0.12800000607967377, 1.0240000486373901, 0.0, 0.0, 0.0, 0.0, 0.0, 1.6518371637501404E9, 0.0, 2022-05-06 12:39:23.750
4.0, -315.4624312124215, -261.59104230068624, -255.40150787401944, -237.68186188396066, 0.12800000607967377, 0.12800000607967377, 1.0240000486373901, 0.0, 0.0, 0.0, 0.0, 0.0, 1.6518371637631133E9, 0.0, 2022-05-06 12:39:23.763
4.0, -252.57601345749572, -114.17166584730148, -173.744532241486, -178.78217748180032, 0.12800000607967377, 0.12800000607967377, 1.0240000486373901, 0.0, 0.0, 0.0, 0.0, 0.0, 1.6518371637631133E9, 0.0, 2022-05-06 12:39:23.763
5.0, -198.99446679232642, -48.70471712294966, -105.8279490461573, -135.68731029238552, 0.12800000607967377, 0.12800000607967377, 1.0240000486373901, 0.0, 0.0, 0.0, 0.0, 0.0, 1.6518371637791092E9, 0.0, 2022-05-06 12:39:23.779
5.0, -263.2085490315221, -197.49289696011692, -190.91441293805838, -193.55478230677545, 0.12800000607967377, 0.12800000607967377, 1.0240000486373901, 0.0, 0.0, 0.0, 0.0, 0.0, 1.6518371637791092E9, 0.0, 2022-05-06 12:39:23.779
6.0, -322.2017309325747, -266.9764982368797, -261.96503229625523, -245.0419849967584, 0.12800000607967377, 0.12800000607967377, 1.0240000486373901, 0.0, 0.0, 0.0, 0.0, 0.0, 1.6518371637800584E9, 0.0, 2022-05-06 12:39:23.780
6.0, -264.49507461627945, -116.35576742142439, -170.2664252826944, -180.7568446584046, 0.12800000607967377, 0.12800000607967377, 1.0240000486373901, 0.0, 0.0, 0.0, 0.0, 0.0, 1.6518371637800584E9, 0.0, 2022-05-06 12:39:23.780
7.0, -207.5663174907677, -54.22480945754796, -117.36554040946066, -149.43144262954593, 0.12800000607967377, 0.12800000607967377, 1.0240000486373901, 0.0, 0.0, 0.0, 0.0, 0.0, 1.6518371637931588E9, 0.0, 2022-05-06 12:39:23.793
7.0, -267.636590579059, -208.20397043321282, -195.89595967903733, -210.5825468050316, 0.12800000607967377, 0.12800000607967377, 1.0240000486373901, 0.0, 0.0, 0.0, 0.0, 0.0, 1.6518371637931588E9, 0.0, 2022-05-06 12:39:23.793
8.0, -312.8669406431727, -261.7481180988252, -245.32247749343514, -220.09311239235103, 0.12800000607967377, 0.12800000607967377, 1.0240000486373901, 0.0, 0.0, 0.0, 0.0, 0.0, 1.6518371638091586E9, 0.0, 2022-05-06 12:39:23.809
8.0, -262.53536703949794, -118.34539419785142, -179.46657917369157, -181.36644835118204, 0.12800000607967377, 0.12800000607967377, 1.0240000486373901, 0.0, 0.0, 0.0, 0.0, 0.0, 1.6518371638091586E9, 0.0, 2022-05-06 12:39:23.809
9.0, -211.1977603477426, -53.742362363263965, -126.51333570107818, -155.7817927543074, 0.12800000607967377, 0.12800000607967377, 1.0240000486373901, 0.0, 0.0, 0.0, 0.0, 0.0, 1.651837163810117E9, 0.0, 2022-05-06 12:39:23.810
9.0, -266.87365098809823, -209.6176526164636, -198.37551334965974, -210.45539020653814, 0.12800000607967377, 0.12800000607967377, 1.0240000486373901, 0.0, 0.0, 0.0, 0.0, 0.0, 1.651837163810117E9, 0.0, 2022-05-06 12:39:23.810
10.0, -315.63072671042755, -267.52252363041043, -254.50393188465387, -239.7836856590584, 0.12800000607967377, 0.12800000607967377, 1.0240000486373901, 0.0, 0.0, 0.0, 0.0, 0.0, 1.6518371638231692E9, 0.0, 2022-05-06 12:39:23.823
10.0, -263.7807537247427, -124.81542112119496, -185.6112348008901, -193.33786810934544, 0.12800000607967377, 0.12800000607967377, 1.0240000486373901, 0.0, 0.0, 0.0, 0.0, 0.0, 1.6518371638231692E9, 0.0, 2022-05-06 12:39:23.823
11.0, -213.09014972532168, -53.97797606047243, -119.33646768610924, -149.2930663311854, 0.12800000607967377, 0.12800000607967377, 1.0240000486373901, 0.0, 0.0, 0.0, 0.0, 0.0, 1.6518371638392062E9, 0.0, 2022-05-06 12:39:23.839
11.0, -262.49796803994104, -207.43729094229639, -195.85482077952474, -197.18996506370604, 0.12800000607967377, 0.12800000607967377, 1.0240000486373901, 0.0, 0.0, 0.0, 0.0, 0.0, 1.6518371638392062E9, 0.0, 2022-05-06 12:39:23.839
12.0, -313.3905266369693, -268.33034202083945, -252.3834086097777, -223.78065374866128, 0.12800000607967377, 0.12800000607967377, 1.0240000486373901, 0.0, 0.0, 0.0, 0.0, 0.0, 1.6518371638401475E9, 0.0, 2022-05-06 12:39:23.840
12.0, -250.49662908213213, -102.58919568452984, -155.82667155377567, -145.76260077301413, 0.12800000607967377, 0.12800000607967377, 1.0240000486373901, 0.0, 0.0, 0.0, 0.0, 0.0, 1.6518371638401475E9, 0.0, 2022-05-06 12:39:23.840
13.0, -212.90315472753718, -56.23687563370913, -133.79492091480643, -163.09329716768116, 0.12800000607967377, 0.12800000607967377, 1.0240000486373901, 0.0, 0.0, 0.0, 0.0, 0.0, 1.6518371638531032E9, 0.0, 2022-05-06 12:39:23.853
13.0, -273.8448245055042, -226.31256601866335, -218.55975341051817, -227.2550208074972, 0.12800000607967377, 0.12800000607967377, 1.0240000486373901, 0.0, 0.0, 0.0, 0.0, 0.0, 1.6518371638531032E9, 0.0, 2022-05-06 12:39:23.853
14.0, -297.7128660227172, -258.77863753400743, -250.79395112860948, -225.13075763266534, 0.12800000607967377, 0.12800000607967377, 1.0240000486373901, 0.0, 0.0, 0.0, 0.0, 0.0, 1.651837163869109E9, 0.0, 2022-05-06 12:39:23.869
14.0, -251.9551900648512, -110.73095788806677, -177.72752569429576, -181.3814079510048, 0.12800000607967377, 0.12800000607967377, 1.0240000486373901, 0.0, 0.0, 0.0, 0.0, 0.0, 1.651837163869109E9, 0.0, 2022-05-06 12:39:23.869
15.0, -214.69830670626834, -60.81825307942927, -126.37121950276196, -156.49611364584416, 0.12800000607967377, 0.12800000607967377, 1.0240000486373901, 0.0, 0.0, 0.0, 0.0, 0.0, 1.6518371638700545E9, 0.0, 2022-05-06 12:39:23.870
15.0, -263.45912232855335, -204.25463608000427, -191.23230443429202, -189.4221928557381, 0.12800000607967377, 0.12800000607967377, 1.0240000486373901, 0.0, 0.0, 0.0, 0.0, 0.0, 1.6518371638700545E9, 0.0, 2022-05-06 12:39:23.870
16.0, -309.88250047853217, -264.8933739615604, -254.89288148004562, -223.45154255256057, 0.12800000607967377, 0.12800000607967377, 1.0240000486373901, 0.0, 0.0, 0.0, 0.0, 0.0, 1.6518371638831575E9, 0.0, 2022-05-06 12:39:23.883
16.0, -265.1009384091012, -116.03039612527937, -183.95071922056377, -203.8058480853215, 0.12800000607967377, 0.12800000607967377, 1.0240000486373901, 0.0, 0.0, 0.0, 0.0, 0.0, 1.6518371638831575E9, 0.0, 2022-05-06 12:39:23.883
17.0, -219.91546714445576, -66.46176211256534, -131.2517889449373, -169.66056148987263, 0.12800000607967377, 0.12800000607967377, 1.0240000486373901, 0.0, 0.0, 0.0, 0.0, 0.0, 1.6518371638991227E9, 0.0, 2022-05-06 12:39:23.899
17.0, -279.5930507373996, -228.18999579641968, -220.41848368849605, -224.8839242355898, 0.12800000607967377, 0.12800000607967377, 1.0240000486373901, 0.0, 0.0, 0.0, 0.0, 0.0, 1.6518371638991227E9, 0.0, 2022-05-06 12:39:23.899
18.0, -310.5369829707779, -264.29125006869435, -251.91218121536076, -224.98116163443774, 0.12800000607967377, 0.12800000607967377, 1.0240000486373901, 0.0, 0.0, 0.0, 0.0, 0.0, 1.6518371639000692E9, 0.0, 2022-05-06 12:39:23.900
18.0, -258.1709037912078, -109.8296419987455, -176.31758341100067, -186.20587889384478, 0.12800000607967377, 0.12800000607967377, 1.0240000486373901, 0.0, 0.0, 0.0, 0.0, 0.0, 1.6518371639000692E9, 0.0, 2022-05-06 12:39:23.900
19.0, -216.84874918079004, -60.05157358851284, -125.66437841113657, -157.6629624320194, 0.12800000607967377, 0.12800000607967377, 1.0240000486373901, 0.0, 0.0, 0.0, 0.0, 0.0, 1.6518371639291165E9, 0.0, 2022-05-06 12:39:23.929
19.0, -271.9636548277922, -215.42571724765003, -206.71175035089254, -207.75892233848572, 0.12800000607967377, 0.12800000607967377, 1.0240000486373901, 0.0, 0.0, 0.0, 0.0, 0.0, 1.6518371639291165E9, 0.0, 2022-05-06 12:39:23.929
20.0, -311.9132661544718, -262.13706769421697, -255.25191187579185, -238.91228896938264, 0.12800000607967377, 0.12800000607967377, 1.008000047877431, 0.0, 0.0, 0.0, 0.0, 0.0, 1.6518371639300764E9, 0.0, 2022-05-06 12:39:23.930
20.0, -260.64297766191885, -110.77957658749074, -168.90510169882327, -171.88954186346382, 0.12800000607967377, 0.12800000607967377, 1.008000047877431, 0.0, 0.0, 0.0, 0.0, 0.0, 1.6518371639300764E9, 0.0, 2022-05-06 12:39:23.930
21.0, -208.25819898257032, -55.66093104053289, -116.39316642098129, -144.82388588413596, 0.12800000607967377, 0.12800000607967377, 1.008000047877431, 0.0, 0.0, 0.0, 0.0, 0.0, 1.6518371639310532E9, 0.0, 2022-05-06 12:39:23.931
21.0, -266.8175524887629, -214.2476487616077, -208.22266993299127, -220.33994578942657, 0.12800000607967377, 0.12800000607967377, 1.008000047877431, 0.0, 0.0, 0.0, 0.0, 0.0, 1.6518371639310532E9, 0.0, 2022-05-06 12:39:23.931
22.0, -305.9443858251907, -259.10400883015245, -251.18290072400123, -237.60706388484687, 0.12800000607967377, 0.12800000607967377, 1.008000047877431, 0.0, 0.0, 0.0, 0.0, 0.0, 1.6518371639431121E9, 0.0, 2022-05-06 12:39:23.943
22.0, -254.15425123879686, -107.2752903290093, -170.82741027604789, -187.25679078139365, 0.12800000607967377, 0.12800000607967377, 1.008000047877431, 0.0, 0.0, 0.0, 0.0, 0.0, 1.6518371639431121E9, 0.0, 2022-05-06 12:39:23.943
23.0, -213.8979681157507, -63.12577135208994, -124.51622912473977, -144.30777969025075, 0.12800000607967377, 0.12800000607967377, 1.008000047877431, 0.0, 0.0, 0.0, 0.0, 0.0, 1.6518371639591248E9, 0.0, 2022-05-06 12:39:23.959
23.0, -262.15763714397326, -215.9530431414023, -207.32135404367, -210.13001891039312, 0.12800000607967377, 0.12800000607967377, 1.008000047877431, 0.0, 0.0, 0.0, 0.0, 0.0, 1.6518371639591248E9, 0.0, 2022-05-06 12:39:23.959
24.0, -314.950064918492, -261.5723428009078, -258.66644053533673, -240.15767565462738, 0.12800000607967377, 0.12800000607967377, 1.008000047877431, 0.0, 0.0, 0.0, 0.0, 0.0, 1.6518371639600885E9, 0.0, 2022-05-06 12:39:23.960
24.0, -246.7642089263536, -105.89526724535972, -169.01355879753828, -173.62859534285963, 0.12800000607967377, 0.12800000607967377, 1.008000047877431, 0.0, 0.0, 0.0, 0.0, 0.0, 1.6518371639600885E9, 0.0, 2022-05-06 12:39:23.960
25.0, -207.779491788242, -56.31167363282293, -120.19290477596223, -132.063347235322, 0.12800000607967377, 0.12800000607967377, 1.008000047877431, 0.0, 0.0, 0.0, 0.0, 0.0, 1.6518371639891787E9, 0.0, 2022-05-06 12:39:23.989
25.0, -265.3739511058666, -215.42571724765003, -199.77049603313208, -207.70656373910606, 0.12800000607967377, 0.12800000607967377, 1.008000047877431, 0.0, 0.0, 0.0, 0.0, 0.0, 1.6518371639891787E9, 0.0, 2022-05-06 12:39:23.989
26.0, -322.8749129245989, -263.10196188278496, -260.8655017092824, -246.07045748457313, 0.12800000607967377, 0.12800000607967377, 1.008000047877431, 0.0, 0.0, 0.0, 0.0, 0.0, 1.6518371639901173E9, 0.0, 2022-05-06 12:39:23.990
26.0, -257.05267370445654, -106.91625993326306, -168.84152339957654, -176.07075001392514, 0.12800000607967377, 0.12800000607967377, 1.008000047877431, 0.0, 0.0, 0.0, 0.0, 0.0, 1.6518371639901173E9, 0.0, 2022-05-06 12:39:23.990
27.0, -201.87418975820765, -57.796413915231824, -112.4999305671081, -148.84053843654692, 0.12800000607967377, 0.12800000607967377, 1.008000047877431, 0.0, 0.0, 0.0, 0.0, 0.0, 1.6518371639910536E9, 0.0, 2022-05-06 12:39:23.991
27.0, -282.01650590868667, -227.12786420900375, -213.4024313716218, -219.9210769943893, 0.12800000607967377, 0.12800000607967377, 1.008000047877431, 0.0, 0.0, 0.0, 0.0, 0.0, 1.6518371639910536E9, 0.0, 2022-05-06 12:39:23.991
28.0, -318.11028038104996, -259.18254672922194, -258.31862983945757, -239.42465526331216, 0.12800000607967377, 0.12800000607967377, 1.008000047877431, 0.0, 0.0, 0.0, 0.0, 0.0, 1.6518371640031643E9, 0.0, 2022-05-06 12:39:24.003
28.0, -253.77652134327218, -102.71261238306761, -170.62919557839632, -191.03782963659614, 0.12800000607967377, 0.12800000607967377, 1.008000047877431, 0.0, 0.0, 0.0, 0.0, 0.0, 1.6518371640031643E9, 0.0, 2022-05-06 12:39:24.003
29.0, -202.58103084983304, -50.01742200739682, -106.87886093370616, -141.52903402317315, 0.12800000607967377, 0.12800000607967377, 1.008000047877431, 0.0, 0.0, 0.0, 0.0, 0.0, 1.6518371640191195E9, 0.0, 2022-05-06 12:39:24.019
29.0, -280.9356748214923, -229.00903388671577, -217.96136941760778, -222.37071146536618, 0.12800000607967377, 0.12800000607967377, 1.008000047877431, 0.0, 0.0, 0.0, 0.0, 0.0, 1.6518371640191195E9, 0.0, 2022-05-06 12:39:24.019
30.0, -315.63820651033893, -261.4863251019269, -256.76657135784626, -243.3029315173626, 0.12800000607967377, 0.12800000607967377, 1.0240000486373901, 0.0, 0.0, 0.0, 0.0, 0.0, 1.651837164020052E9, 0.0, 2022-05-06 12:39:24.020
30.0, -249.12782569834962, -102.24138498865068, -165.7074872367084, -177.4208538979292, 0.12800000607967377, 0.12800000607967377, 1.0240000486373901, 0.0, 0.0, 0.0, 0.0, 0.0, 1.651837164020052E9, 0.0, 2022-05-06 12:39:24.020
31.0, -219.69107314711437, -73.76204682607204, -129.38557886704803, -158.8522506179288, 0.12800000607967377, 0.12800000607967377, 1.0240000486373901, 0.0, 0.0, 0.0, 0.0, 0.0, 1.6518371640331433E9, 0.0, 2022-05-06 12:39:24.033
31.0, -266.79137318907306, -221.8134663719684, -200.64189272280782, -195.15545948781073, 0.12800000607967377, 0.12800000607967377, 1.0240000486373901, 0.0, 0.0, 0.0, 0.0, 0.0, 1.6518371640331433E9, 0.0, 2022-05-06 12:39:24.033
32.0, -303.7228852515109, -255.7904574694112, -248.50513235572726, -232.7414540424943, 0.12800000607967377, 0.12800000607967377, 1.0240000486373901, 0.0, 0.0, 0.0, 0.0, 0.0, 1.6518371640491135E9, 0.0, 2022-05-06 12:39:24.049
32.0, -249.93190418882295, -100.68932650703937, -176.7102729063481, -181.91995354462415, 0.12800000607967377, 0.12800000607967377, 1.0240000486373901, 0.0, 0.0, 0.0, 0.0, 0.0, 1.6518371640491135E9, 0.0, 2022-05-06 12:39:24.049
33.0, -218.02307776687667, -66.45428231265396, -118.99239689018577, -151.11813750956208, 0.12800000607967377, 0.12800000607967377, 1.0240000486373901, 0.0, 0.0, 0.0, 0.0, 0.0, 1.6518371640500736E9, 0.0, 2022-05-06 12:39:24.050
33.0, -265.42256980529055, -215.33221974875778, -198.04266225360334, -187.43256607931107, 0.12800000607967377, 0.12800000607967377, 1.0240000486373901, 0.0, 0.0, 0.0, 0.0, 0.0, 1.6518371640500736E9, 0.0, 2022-05-06 12:39:24.050
34.0, -296.0860095419921, -250.87996882759035, -244.88864909857512, -225.97223512269557, 0.12800000607967377, 0.12800000607967377, 1.0240000486373901, 0.0, 0.0, 0.0, 0.0, 0.0, 1.651837164063123E9, 0.0, 2022-05-06 12:39:24.063
34.0, -248.2489492087625, -104.43296636268497, -167.60735641419888, -181.28791045211256, 0.12800000607967377, 0.12800000607967377, 1.0240000486373901, 0.0, 0.0, 0.0, 0.0, 0.0, 1.651837164063123E9, 0.0, 2022-05-06 12:39:24.063
35.0, -213.61747561907396, -73.20854163262993, -131.44252384267747, -166.25351263023913, 0.12800000607967377, 0.12800000607967377, 1.0240000486373901, 0.0, 0.0, 0.0, 0.0, 0.0, 1.6518371640791304E9, 0.0, 2022-05-06 12:39:24.079
35.0, -278.61693684896454, -229.76075377780944, -218.9898419054225, -216.05028054025024, 0.12800000607967377, 0.12800000607967377, 1.0240000486373901, 0.0, 0.0, 0.0, 0.0, 0.0, 1.6518371640791304E9, 0.0, 2022-05-06 12:39:24.079
36.0, -311.99554395349696, -257.72772564645857, -256.02233126666397, -241.64615583699197, 0.12800000607967377, 0.12800000607967377, 1.0240000486373901, 0.0, 0.0, 0.0, 0.0, 0.0, 1.6518371640801773E9, 0.0, 2022-05-06 12:39:24.080
36.0, -246.45005733007565, -103.29977667611092, -169.79893778823316, -190.57782194204628, 0.12800000607967377, 0.12800000607967377, 1.0240000486373901, 0.0, 0.0, 0.0, 0.0, 0.0, 1.6518371640801773E9, 0.0, 2022-05-06 12:39:24.080
37.0, -217.0432239784859, -69.15075018070638, -124.31053462717682, -159.742346807383, 0.12800000607967377, 0.12800000607967377, 1.0240000486373901, 0.0, 0.0, 0.0, 0.0, 0.0, 1.6518371640931752E9, 0.0, 2022-05-06 12:39:24.093
37.0, -279.2676794412546, -230.93134246394038, -209.2436626208946, -212.6918503800407, 0.12800000607967377, 0.12800000607967377, 1.0240000486373901, 0.0, 0.0, 0.0, 0.0, 0.0, 1.6518371640931752E9, 0.0, 2022-05-06 12:39:24.093
38.0, -314.6209537223913, -252.6003228072077, -243.1159365195781, -220.28010739013553, 0.12800000607967377, 0.12800000607967377, 1.0240000486373901, 0.0, 0.0, 0.0, 0.0, 0.0, 1.651837164109159E9, 0.0, 2022-05-06 12:39:24.109
38.0, -243.2075640684925, -98.7894573295489, -157.812558430247, -170.03081158548594, 0.12800000607967377, 0.12800000607967377, 1.0240000486373901, 0.0, 0.0, 0.0, 0.0, 0.0, 1.651837164109159E9, 0.0, 2022-05-06 12:39:24.109
39.0, -214.88156180409715, -75.17198910936713, -127.9120582845062, -156.46245454624295, 0.12800000607967377, 0.12800000607967377, 1.0240000486373901, 0.0, 0.0, 0.0, 0.0, 0.0, 1.651837164110124E9, 0.0, 2022-05-06 12:39:24.110
39.0, -281.3433239166625, -231.62322395574301, -223.7021158495918, -222.63250446226448, 0.12800000607967377, 0.12800000607967377, 1.0240000486373901, 0.0, 0.0, 0.0, 0.0, 0.0, 1.651837164110124E9, 0.0, 2022-05-06 12:39:24.110
40.0, -318.41321227746084, -261.5349438013509, -259.06286993063986, -246.62770257797092, 0.12800000607967377, 0.12800000607967377, 1.0240000486373901, 0.0, 0.0, 0.0, 0.0, 0.0, 1.65183716412315E9, 0.0, 2022-05-06 12:39:24.123
40.0, -232.17859909916297, -87.49869936332107, -149.65209672693163, -155.9239089526236, 0.12800000607967377, 0.12800000607967377, 1.0240000486373901, 0.0, 0.0, 0.0, 0.0, 0.0, 1.65183716412315E9, 0.0, 2022-05-06 12:39:24.123
41.0, -211.75500544114038, -76.35005759540945, -132.60189282894135, -166.71726022474468, 0.12800000607967377, 0.12800000607967377, 1.0240000486373901, 0.0, 0.0, 0.0, 0.0, 0.0, 1.6518371641391344E9, 0.0, 2022-05-06 12:39:24.139
41.0, -279.1517425426282, -229.17358948476613, -211.63719859253615, -220.61295848619193, 0.12800000607967377, 0.12800000607967377, 1.0240000486373901, 0.0, 0.0, 0.0, 0.0, 0.0, 1.6518371641391344E9, 0.0, 2022-05-06 12:39:24.139
42.0, -309.9498186777346, -252.73495920561254, -248.88286225125194, -227.08672530949116, 0.144000006839633, 0.12800000607967377, 1.0240000486373901, 0.0, 0.0, 0.0, 0.0, 0.0, 1.6518371641400797E9, 0.0, 2022-05-06 12:39:24.140
42.0, -245.71703693876043, -96.40340115781873, -161.87782968208194, -170.2290262831375, 0.144000006839633, 0.12800000607967377, 1.0240000486373901, 0.0, 0.0, 0.0, 0.0, 0.0, 1.6518371641400797E9, 0.0, 2022-05-06 12:39:24.140
43.0, -212.64510163059458, -67.46405530069023, -127.56798748858273, -164.02453225664794, 0.144000006839633, 0.12800000607967377, 1.0240000486373901, 0.0, 0.0, 0.0, 0.0, 0.0, 1.6518371641531296E9, 0.0, 2022-05-06 12:39:24.153
43.0, -272.75651361839846, -223.60113855078816, -204.12747948151082, -204.59496697597206, 0.144000006839633, 0.12800000607967377, 1.0240000486373901, 0.0, 0.0, 0.0, 0.0, 0.0, 1.6518371641531296E9, 0.0, 2022-05-06 12:39:24.153
44.0, -309.26541698584333, -249.58970334287733, -247.84317006357014, -223.2159288553521, 0.144000006839633, 0.12800000607967377, 1.0240000486373901, 0.0, 0.0, 0.0, 0.0, 0.0, 1.6518371641691658E9, 0.0, 2022-05-06 12:39:24.169
44.0, -240.63451289897785, -91.4891726160422, -155.58357805665582, -166.49286622740328, 0.144000006839633, 0.12800000607967377, 1.0240000486373901, 0.0, 0.0, 0.0, 0.0, 0.0, 1.6518371641691658E9, 0.0, 2022-05-06 12:39:24.169
45.0, -207.4092416926287, -67.07510570529848, -126.79382819775492, -149.5922583276406, 0.144000006839633, 0.12800000607967377, 1.0240000486373901, 0.0, 0.0, 0.0, 0.0, 0.0, 1.6518371641700535E9, 0.0, 2022-05-06 12:39:24.170
45.0, -269.5626390562393, -231.20435516070575, -216.22231593821198, -220.01083459332585, 0.144000006839633, 0.12800000607967377, 1.0240000486373901, 0.0, 0.0, 0.0, 0.0, 0.0, 1.6518371641700535E9, 0.0, 2022-05-06 12:39:24.170
46.0, -308.13970709918067, -250.39378183335066, -254.50019198469818, -234.891896517016, 0.144000006839633, 0.12800000607967377, 1.0240000486373901, 0.0, 0.0, 0.0, 0.0, 0.0, 1.6518371641831846E9, 0.0, 2022-05-06 12:39:24.183
46.0, -233.5025236834772, -82.98838001675904, -150.6319505153224, -171.62774886656553, 0.144000006839633, 0.12800000607967377, 1.0240000486373901, 0.0, 0.0, 0.0, 0.0, 0.0, 1.6518371641831846E9, 0.0, 2022-05-06 12:39:24.183
47.0, -187.0342667340301, -53.690003763884306, -107.40992672741413, -138.2902806615457, 0.144000006839633, 0.12800000607967377, 1.0240000486373901, 0.0, 0.0, 0.0, 0.0, 0.0, 1.6518371641991124E9, 0.0, 2022-05-06 12:39:24.199
47.0, -274.67882219562307, -224.96994193457067, -213.79512086696923, -213.05836057569832, 0.144000006839633, 0.12800000607967377, 1.0240000486373901, 0.0, 0.0, 0.0, 0.0, 0.0, 1.6518371641991124E9, 0.0, 2022-05-06 12:39:24.199
48.0, -303.99589794827625, -242.49511312693357, -240.6363828489557, -217.61355872172862, 0.144000006839633, 0.12800000607967377, 1.0240000486373901, 0.0, 0.0, 0.0, 0.0, 0.0, 1.6518371642000628E9, 0.0, 2022-05-06 12:39:24.200
48.0, -246.88014582498, -92.21845310740173, -167.9327277103439, -185.22976500540972, 0.144000006839633, 0.12800000607967377, 1.0240000486373901, 0.0, 0.0, 0.0, 0.0, 0.0, 1.6518371642000628E9, 0.0, 2022-05-06 12:39:24.200
49.0, -208.6321889781393, -69.03481328208, -125.52600211277604, -150.6319505153224, 0.144000006839633, 0.12800000607967377, 1.0240000486373901, 0.0, 0.0, 0.0, 0.0, 0.0, 1.651837164213174E9, 0.0, 2022-05-06 12:39:24.213
49.0, -283.05619809636846, -236.19338170159608, -224.94750253483653, -229.21098848432302, 0.144000006839633, 0.12800000607967377, 1.0240000486373901, 0.0, 0.0, 0.0, 0.0, 0.0, 1.651837164213174E9, 0.0, 2022-05-06 12:39:24.213
50.0, -309.77030347986147, -245.8198841875419, -247.03161177318543, -236.17468220181763, 0.144000006839633, 0.12800000607967377, 1.0240000486373901, 0.0, 0.0, 0.0, 0.0, 0.0, 1.6518371642291203E9, 0.0, 2022-05-06 12:39:24.229
50.0, -244.25099615613, -96.61657545529306, -160.93911479320377, -181.9049939448014, 0.144000006839633, 0.12800000607967377, 1.0240000486373901, 0.0, 0.0, 0.0, 0.0, 0.0, 1.6518371642291203E9, 0.0, 2022-05-06 12:39:24.229
51.0, -204.44350102776662, -70.22784136794508, -121.62528645899147, -154.8131586657837, 0.144000006839633, 0.12800000607967377, 1.0240000486373901, 0.0, 0.0, 0.0, 0.0, 0.0, 1.6518371642300577E9, 0.0, 2022-05-06 12:39:24.230
51.0, -267.34861828247085, -219.3638319009915, -207.14557874575257, -200.47359722480178, 0.144000006839633, 0.12800000607967377, 1.0240000486373901, 0.0, 0.0, 0.0, 0.0, 0.0, 1.6518371642300577E9, 0.0, 2022-05-06 12:39:24.230
52.0, -300.3831545910798, -234.2261943249032, -230.52743326872587, -207.49712934158742, 0.144000006839633, 0.12800000607967377, 1.0240000486373901, 0.0, 0.0, 0.0, 0.0, 0.0, 1.6518371642431705E9, 0.0, 2022-05-06 12:39:24.243
52.0, -232.56006889464334, -77.778699378483, -143.22694860305637, -160.6661020964384, 0.144000006839633, 0.12800000607967377, 1.0240000486373901, 0.0, 0.0, 0.0, 0.0, 0.0, 1.6518371642431705E9, 0.0, 2022-05-06 12:39:24.243
53.0, -202.40151565195993, -66.86193140782416, -128.73483627475798, -164.4471409516409, 0.144000006839633, 0.12800000607967377, 1.0240000486373901, 0.0, 0.0, 0.0, 0.0, 0.0, 1.6518371642591062E9, 0.0, 2022-05-06 12:39:24.259
53.0, -278.0335124558769, -234.97043441608548, -222.38567106518894, -220.20156949106604, 0.144000006839633, 0.12800000607967377, 1.0240000486373901, 0.0, 0.0, 0.0, 0.0, 0.0, 1.6518371642591062E9, 0.0, 2022-05-06 12:39:24.259
54.0, -324.6812846031971, -263.5657094772905, -267.55244283005595, -251.0781835252419, 0.144000006839633, 0.12800000607967377, 1.0240000486373901, 0.0, 0.0, 0.0, 0.0, 0.0, 1.6518371642600436E9, 0.0, 2022-05-06 12:39:24.260
54.0, -249.89450518926606, -102.30496328789741, -171.76612516492605, -185.9814848965034, 0.144000006839633, 0.12800000607967377, 1.0240000486373901, 0.0, 0.0, 0.0, 0.0, 0.0, 1.6518371642600436E9, 0.0, 2022-05-06 12:39:24.260
55.0, -206.46678690379485, -87.8577297590673, -136.59984588157386, -157.95467462856323, 0.144000006839633, 0.12800000607967377, 1.0240000486373901, 0.0, 0.0, 0.0, 0.0, 0.0, 1.651837164273168E9, 0.0, 2022-05-06 12:39:24.273
55.0, -262.16885684384033, -226.97826821077615, -209.34463991969824, -191.39312013238668, 0.144000006839633, 0.12800000607967377, 1.0240000486373901, 0.0, 0.0, 0.0, 0.0, 0.0, 1.651837164273168E9, 0.0, 2022-05-06 12:39:24.273
56.0, -304.17915304610506, -244.82881069928408, -247.338283569552, -224.07984574511647, 0.144000006839633, 0.12800000607967377, 1.0240000486373901, 0.0, 0.0, 0.0, 0.0, 0.0, 1.651837164289168E9, 0.0, 2022-05-06 12:39:24.289
56.0, -231.75599040417, -78.13772977422923, -146.08049226924777, -157.28897243645042, 0.144000006839633, 0.12800000607967377, 1.0240000486373901, 0.0, 0.0, 0.0, 0.0, 0.0, 1.651837164289168E9, 0.0, 2022-05-06 12:39:24.289
57.0, -194.17747564939782, -58.929603601805866, -116.18747192341834, -147.02294705808163, 0.144000006839633, 0.12800000607967377, 1.0240000486373901, 0.0, 0.0, 0.0, 0.0, 0.0, 1.651837164290114E9, 0.0, 2022-05-06 12:39:24.290
57.0, -270.46769484551623, -229.36058448255062, -211.48386269435287, -206.36767955496907, 0.144000006839633, 0.12800000607967377, 1.0240000486373901, 0.0, 0.0, 0.0, 0.0, 0.0, 1.651837164290114E9, 0.0, 2022-05-06 12:39:24.290
58.0, -295.0537971542217, -235.97272760421038, -247.62625586614013, -232.35250444710255, 0.144000006839633, 0.12800000607967377, 1.0240000486373901, 0.0, 0.0, 0.0, 0.0, 0.0, 1.6518371643031297E9, 0.0, 2022-05-06 12:39:24.303
58.0, -232.14120009960607, -79.2223007613793, -149.16590973269194, -170.0046322857961, 0.144000006839633, 0.12800000607967377, 1.0240000486373901, 0.0, 0.0, 0.0, 0.0, 0.0, 1.6518371643031297E9, 0.0, 2022-05-06 12:39:24.303
59.0, -197.1506961141713, -63.68675634544343, -107.73903792351484, -139.51696784701198, 0.144000006839633, 0.12800000607967377, 1.0240000486373901, 0.0, 0.0, 0.0, 0.0, 0.0, 1.65183716431916E9, 0.0, 2022-05-06 12:39:24.319
59.0, -263.64237742638215, -218.60463220998645, -200.27164262719452, -206.15076535753906, 0.144000006839633, 0.12800000607967377, 1.0240000486373901, 0.0, 0.0, 0.0, 0.0, 0.0, 1.65183716431916E9, 0.0, 2022-05-06 12:39:24.319
60.0, -303.0571830593981, -236.04752560332417, -248.79310465231538, -234.3383913235739, 0.144000006839633, 0.12800000607967377, 1.0240000486373901, 0.0, 0.0, 0.0, 0.0, 0.0, 1.65183716432004E9, 0.0, 2022-05-06 12:39:24.320
60.0, -240.05108850589022, -83.10057701542974, -159.72738720756024, -168.60964960232377, 0.144000006839633, 0.12800000607967377, 1.0240000486373901, 0.0, 0.0, 0.0, 0.0, 0.0, 1.65183716432004E9, 0.0, 2022-05-06 12:39:24.320
61.0, -203.66186193702742, -70.89728346001357, -120.38363967370242, -148.2197150439024, 0.144000006839633, 0.12800000607967377, 1.0240000486373901, 0.0, 0.0, 0.0, 0.0, 0.0, 1.6518371643331325E9, 0.0, 2022-05-06 12:39:24.333
61.0, -282.72334700031206, -247.88430896308273, -230.04872607439756, -233.6278103319928, 0.144000006839633, 0.12800000607967377, 1.0240000486373901, 0.0, 0.0, 0.0, 0.0, 0.0, 1.6518371643331325E9, 0.0, 2022-05-06 12:39:24.333
62.0, -306.21365862200037, -241.75087303575128, -253.6400149948895, -233.8858634289354, 0.12800000607967377, 0.12800000607967377, 1.0240000486373901, 0.0, 0.0, 0.0, 0.0, 0.0, 1.6518371643491035E9, 0.0, 2022-05-06 12:39:24.349
62.0, -237.23120393930003, -84.6675950968638, -155.15722946170717, -174.73934562969953, 0.12800000607967377, 0.12800000607967377, 1.0240000486373901, 0.0, 0.0, 0.0, 0.0, 0.0, 1.6518371643491035E9, 0.0, 2022-05-06 12:39:24.349
63.0, -207.46160029200837, -75.71053470298648, -122.24984975159168, -153.39947648253292, 0.12800000607967377, 0.12800000607967377, 1.0240000486373901, 0.0, 0.0, 0.0, 0.0, 0.0, 1.6518371643501318E9, 0.0, 2022-05-06 12:39:24.350
63.0, -266.46226199297234, -227.1428238088265, -204.46033057756722, -205.75807586219162, 0.12800000607967377, 0.12800000607967377, 1.0240000486373901, 0.0, 0.0, 0.0, 0.0, 0.0, 1.6518371643501318E9, 0.0, 2022-05-06 12:39:24.350
64.0, -297.32765632728115, -233.36227743513882, -237.4836471863091, -220.3249861896038, 0.12800000607967377, 0.12800000607967377, 1.0240000486373901, 0.0, 0.0, 0.0, 0.0, 0.0, 1.6518371643631704E9, 0.0, 2022-05-06 12:39:24.363
64.0, -239.25448981532827, -83.04821841605008, -154.2633933722973, -170.06073078513145, 0.12800000607967377, 0.12800000607967377, 1.0240000486373901, 0.0, 0.0, 0.0, 0.0, 0.0, 1.6518371643631704E9, 0.0, 2022-05-06 12:39:24.363
65.0, -205.98807970946655, -85.075244192034, -129.00036917161196, -155.50504015758634, 0.12800000607967377, 0.12800000607967377, 1.0240000486373901, 0.0, 0.0, 0.0, 0.0, 0.0, 1.6518371643791616E9, 0.0, 2022-05-06 12:39:24.379
