%OpenBCI Raw EEG Data
%Number of channels = 4
%Sample Rate = 200 Hz
%Board = OpenBCI_GUI$BoardGanglionBLE
Sample Index, EXG Channel 0, EXG Channel 1, EXG Channel 2, EXG Channel 3, Accel Channel 0, Accel Channel 1, Accel Channel 2, Other, Other, Other, Other, Other, Timestamp, Other, Timestamp (Formatted)
0.0, -300.9609691342339, -276.00835662987083, -262.72236203728244, -250.68549402989447, 0.0, 0.0, 0.0, 0.0, 0.0, 0.0, 0.0, 0.0, 1.6518373470536618E9, 0.0, 2022-05-06 12:42:27.053
1.0, -276.43844512477517, -164.66405514907092, -207.1137895961292, -195.67156568169594, 0.0, 0.12800000607967377, 0.0, 0.0, 0.0, 0.0, 0.0, 0.0, 1.651837347066737E9, 0.0, 2022-05-06 12:42:27.066
1.0, -186.82296238653362, -41.677445106208324, -104.3637782135047, -129.10508637037128, 0.0, 0.12800000607967377, 0.0, 0.0, 0.0, 0.0, 0.0, 0.0, 1.651837347066737E9, 0.0, 2022-05-06 12:42:27.066
2.0, -252.44324700906873, -161.20464769005775, -185.6953825498931, -199.8340743323788, 0.12800000607967377, 0.12800000607967377, 0.0, 0.0, 0.0, 0.0, 0.0, 0.0, 1.651837347083645E9, 0.0, 2022-05-06 12:42:27.083
2.0, -312.90620959270746, -268.4948976188898, -250.5489876815118, -234.40196962282062, 0.12800000607967377, 0.12800000607967377, 0.0, 0.0, 0.0, 0.0, 0.0, 0.0, 1.651837347083645E9, 0.0, 2022-05-06 12:42:27.083
3.0, -279.8454939844087, -162.83150417078286, -215.6033624955453, -207.73648293875158, 0.12800000607967377, 0.12800000607967377, 0.0, 0.0, 0.0, 0.0, 0.0, 0.0, 1.651837347084634E9, 0.0, 2022-05-06 12:42:27.084
3.0, -203.89560568425804, -58.30130040924996, -127.55115793878213, -160.815698094666, 0.12800000607967377, 0.12800000607967377, 0.0, 0.0, 0.0, 0.0, 0.0, 0.0, 1.651837347084634E9, 0.0, 2022-05-06 12:42:27.084
4.0, -247.29340477008373, -161.23456688970327, -180.7661944082938, -190.11781424749643, 0.12800000607967377, 0.12800000607967377, 0.0, 0.0, 0.0, 0.0, 0.0, 0.0, 1.6518373470966847E9, 0.0, 2022-05-06 12:42:27.096
4.0, -310.83430501725525, -265.9368060491979, -251.96640976471826, -239.27131936512887, 0.12800000607967377, 0.12800000607967377, 0.0, 0.0, 0.0, 0.0, 0.0, 0.0, 1.6518373470966847E9, 0.0, 2022-05-06 12:42:27.096
5.0, -274.59841434657574, -156.35399744752795, -203.10461684362963, -186.25075769331306, 0.12800000607967377, 0.12800000607967377, 0.0, 0.0, 0.0, 0.0, 0.0, 0.0, 1.6518373471117191E9, 0.0, 2022-05-06 12:42:27.111
5.0, -210.90791810117662, -55.83670633845031, -133.75565196527168, -157.42360883485526, 0.12800000607967377, 0.12800000607967377, 0.0, 0.0, 0.0, 0.0, 0.0, 0.0, 1.6518373471117191E9, 0.0, 2022-05-06 12:42:27.111
6.0, -234.28229282423854, -153.16386278532445, -163.06898781796917, -186.65466688852757, 0.12800000607967377, 0.12800000607967377, 0.0, 0.0, 0.0, 0.0, 0.0, 0.0, 1.651837347112651E9, 0.0, 2022-05-06 12:42:27.112
6.0, -303.82947240024805, -270.9333123899996, -242.08933398174122, -234.60018432047218, 0.12800000607967377, 0.12800000607967377, 0.0, 0.0, 0.0, 0.0, 0.0, 0.0, 1.651837347112651E9, 0.0, 2022-05-06 12:42:27.112
7.0, -253.9317271914333, -144.80144648440182, -183.22330867918208, -171.0106653738767, 0.12800000607967377, 0.12800000607967377, 0.0, 0.0, 0.0, 0.0, 0.0, 0.0, 1.6518373471266913E9, 0.0, 2022-05-06 12:42:27.126
7.0, -209.9168446129188, -64.12432464025915, -132.01659848587587, -162.479953574948, 0.12800000607967377, 0.12800000607967377, 0.0, 0.0, 0.0, 0.0, 0.0, 0.0, 1.6518373471266913E9, 0.0, 2022-05-06 12:42:27.126
8.0, -247.34950326941907, -163.9272948578, -171.53612131765112, -198.4652709485963, 0.12800000607967377, 0.12800000607967377, 0.0, 0.0, 0.0, 0.0, 0.0, 0.0, 1.651837347141693E9, 0.0, 2022-05-06 12:42:27.141
8.0, -313.65044968388975, -273.2707498623058, -261.86218504747376, -253.10520930122584, 0.12800000607967377, 0.12800000607967377, 0.0, 0.0, 0.0, 0.0, 0.0, 0.0, 1.651837347141693E9, 0.0, 2022-05-06 12:42:27.141
9.0, -270.7874562917277, -151.52578660473228, -191.45856838161126, -190.17017284687608, 0.12800000607967377, 0.12800000607967377, 0.0, 0.0, 0.0, 0.0, 0.0, 0.0, 1.651837347142645E9, 0.0, 2022-05-06 12:42:27.142
9.0, -199.84155413229018, -50.71304339915514, -105.42590980092064, -140.04429374076426, 0.12800000607967377, 0.12800000607967377, 0.0, 0.0, 0.0, 0.0, 0.0, 0.0, 1.651837347142645E9, 0.0, 2022-05-06 12:42:27.142
10.0, -247.2709653703496, -175.42374732159078, -186.53686003992334, -199.66577883437276, 0.12800000607967377, 0.12800000607967377, 1.0240000486373901, 0.0, 0.0, 0.0, 0.0, 0.0, 1.6518373471567104E9, 0.0, 2022-05-06 12:42:27.156
10.0, -298.4814154636115, -266.18363944627345, -248.2078103092499, -238.05959177948534, 0.12800000607967377, 0.12800000607967377, 1.0240000486373901, 0.0, 0.0, 0.0, 0.0, 0.0, 1.6518373471567104E9, 0.0, 2022-05-06 12:42:27.156
11.0, -275.3501342376694, -154.28209287207574, -193.31355875963345, -197.29842216242105, 0.12800000607967377, 0.06400000303983688, 1.0240000486373901, 0.0, 0.0, 0.0, 0.0, 0.0, 1.6518373471717389E9, 0.0, 2022-05-06 12:42:27.171
11.0, -187.24557108152658, -35.92921887431294, -105.44834920065477, -138.72036915645003, 0.12800000607967377, 0.06400000303983688, 1.0240000486373901, 0.0, 0.0, 0.0, 0.0, 0.0, 1.6518373471717389E9, 0.0, 2022-05-06 12:42:27.171
12.0, -251.9009615154937, -188.10200817137957, -195.90530942892656, -214.88717165403068, 0.06400000303983688, 0.06400000303983688, 1.0240000486373901, 0.0, 0.0, 0.0, 0.0, 0.0, 1.6518373471726656E9, 0.0, 2022-05-06 12:42:27.172
12.0, -329.4889259962365, -285.2421696204692, -283.28807189362124, -253.76343169342726, 0.06400000303983688, 0.06400000303983688, 1.0240000486373901, 0.0, 0.0, 0.0, 0.0, 0.0, 1.6518373471726656E9, 0.0, 2022-05-06 12:42:27.172
13.0, -260.7458249107003, -129.47533646598458, -175.0329277762212, -178.4904652852565, 0.06400000303983688, 0.06400000303983688, 1.0240000486373901, 0.0, 0.0, 0.0, 0.0, 0.0, 1.6518373471866913E9, 0.0, 2022-05-06 12:42:27.186
13.0, -194.70667149312794, -46.920784844085574, -106.91065008332953, -145.95707557071, 0.06400000303983688, 0.06400000303983688, 1.0240000486373901, 0.0, 0.0, 0.0, 0.0, 0.0, 1.6518373471866913E9, 0.0, 2022-05-06 12:42:27.186
14.0, -259.8744282210246, -198.88413974363357, -193.94934175210074, -210.38059220742434, 0.06400000303983688, 0.06400000303983688, 1.0240000486373901, 0.0, 0.0, 0.0, 0.0, 0.0, 1.6518373472017248E9, 0.0, 2022-05-06 12:42:27.201
14.0, -312.1096109021455, -275.66054593399167, -260.930949958507, -235.3668638113886, 0.06400000303983688, 0.06400000303983688, 1.0240000486373901, 0.0, 0.0, 0.0, 0.0, 0.0, 1.6518373472017248E9, 0.0, 2022-05-06 12:42:27.201
15.0, -254.4889722848311, -125.64941881131381, -181.00554800545797, -168.2281798068434, 0.06400000303983688, 0.06400000303983688, 1.0240000486373901, 0.0, 0.0, 0.0, 0.0, 0.0, 1.6518373472026932E9, 0.0, 2022-05-06 12:42:27.202
15.0, -192.59736791811883, -53.95927656069398, -121.56731800967827, -154.64486316777766, 0.06400000303983688, 0.06400000303983688, 1.0240000486373901, 0.0, 0.0, 0.0, 0.0, 0.0, 1.6518373472026932E9, 0.0, 2022-05-06 12:42:27.202
16.0, -247.43178106844425, -201.01214281842113, -202.91762184584513, -215.97548254113644, 0.06400000303983688, 0.06400000303983688, 1.0240000486373901, 0.0, 0.0, 0.0, 0.0, 0.0, 1.6518373472166984E9, 0.0, 2022-05-06 12:42:27.216
16.0, -324.6083565540612, -279.5687413876876, -264.4875948163681, -259.21994572877884, 0.06400000303983688, 0.06400000303983688, 1.0240000486373901, 0.0, 0.0, 0.0, 0.0, 0.0, 1.6518373472166984E9, 0.0, 2022-05-06 12:42:27.216
17.0, -258.0755363423377, -114.48955734353513, -168.12533255806193, -167.8915888108313, 0.06400000303983688, 0.06400000303983688, 1.0240000486373901, 0.0, 0.0, 0.0, 0.0, 0.0, 1.651837347231706E9, 0.0, 2022-05-06 12:42:27.231
17.0, -193.2817696100101, -42.028995702043176, -108.19343576813117, -127.90083858463913, 0.06400000303983688, 0.06400000303983688, 1.0240000486373901, 0.0, 0.0, 0.0, 0.0, 0.0, 1.651837347231706E9, 0.0, 2022-05-06 12:42:27.231
18.0, -257.0096648549661, -198.44657144881785, -208.80048447614536, -211.86533248983324, 0.06400000303983688, 0.06400000303983688, 1.0240000486373901, 0.0, 0.0, 0.0, 0.0, 0.0, 1.6518373472326424E9, 0.0, 2022-05-06 12:42:27.232
18.0, -314.9930737679824, -272.5788683705032, -267.16910308459774, -234.02797962725163, 0.06400000303983688, 0.06400000303983688, 1.0240000486373901, 0.0, 0.0, 0.0, 0.0, 0.0, 1.6518373472326424E9, 0.0, 2022-05-06 12:42:27.232
19.0, -246.44444748014212, -120.16298557631671, -188.14501702087, -184.15267381817102, 0.06400000303983688, 0.06400000303983688, 1.0240000486373901, 0.0, 0.0, 0.0, 0.0, 0.0, 1.6518373472466946E9, 0.0, 2022-05-06 12:42:27.246
19.0, -221.30483997799456, -60.3619852848351, -123.24279318982735, -148.53386664018035, 0.06400000303983688, 0.06400000303983688, 1.0240000486373901, 0.0, 0.0, 0.0, 0.0, 0.0, 1.6518373472466946E9, 0.0, 2022-05-06 12:42:27.246
20.0, -271.26616348605603, -212.34777958411723, -213.8194302166812, -222.41559026483446, 0.06400000303983688, 0.06400000303983688, 0.5120000243186951, 0.0, 0.0, 0.0, 0.0, 0.0, 1.651837347261716E9, 0.0, 2022-05-06 12:42:27.261
20.0, -331.21301987580955, -292.30684063676745, -281.7771523115225, -271.74487068038434, 0.06400000303983688, 0.06400000303983688, 0.5120000243186951, 0.0, 0.0, 0.0, 0.0, 0.0, 1.651837347261716E9, 0.0, 2022-05-06 12:42:27.261
21.0, -261.57982260081917, -129.63241226412356, -181.12896470399573, -191.73719092831016, 0.06400000303983688, 0.09600000455975533, 0.5120000243186951, 0.0, 0.0, 0.0, 0.0, 0.0, 1.651837347262683E9, 0.0, 2022-05-06 12:42:27.262
21.0, -218.97114240564406, -68.66830308642238, -130.90584819903597, -163.12695626728237, 0.06400000303983688, 0.09600000455975533, 0.5120000243186951, 0.0, 0.0, 0.0, 0.0, 0.0, 1.651837347262683E9, 0.0, 2022-05-06 12:42:27.262
22.0, -275.8400611318648, -218.12592501565814, -214.77684460533783, -229.39424358215183, 0.09600000455975533, 0.09600000455975533, 0.5120000243186951, 0.0, 0.0, 0.0, 0.0, 0.0, 1.6518373472766888E9, 0.0, 2022-05-06 12:42:27.276
22.0, -315.50170016195625, -278.5814077993855, -260.665417061653, -251.73266601748765, 0.09600000455975533, 0.09600000455975533, 0.5120000243186951, 0.0, 0.0, 0.0, 0.0, 0.0, 1.6518373472766888E9, 0.0, 2022-05-06 12:42:27.276
23.0, -261.25445130467415, -120.62673317082226, -180.87465150700882, -184.30226981639862, 0.09600000455975533, 0.09600000455975533, 0.5120000243186951, 0.0, 0.0, 0.0, 0.0, 0.0, 1.651837347291716E9, 0.0, 2022-05-06 12:42:27.291
23.0, -208.32738713175058, -65.63150432240218, -123.38116948818788, -153.72858767863363, 0.09600000455975533, 0.09600000455975533, 0.5120000243186951, 0.0, 0.0, 0.0, 0.0, 0.0, 1.651837347291716E9, 0.0, 2022-05-06 12:42:27.291
24.0, -273.9401919543743, -212.1009461870417, -211.06686384929344, -211.53248139377683, 0.09600000455975533, 0.09600000455975533, 0.5120000243186951, 0.0, 0.0, 0.0, 0.0, 0.0, 1.651837347292709E9, 0.0, 2022-05-06 12:42:27.292
24.0, -328.51281210780144, -277.4669176125899, -265.2991531067528, -250.06093073729426, 0.09600000455975533, 0.09600000455975533, 0.5120000243186951, 0.0, 0.0, 0.0, 0.0, 0.0, 1.651837347292709E9, 0.0, 2022-05-06 12:42:27.292
25.0, -265.66753325238824, -127.75872238632292, -182.75956108467653, -184.29479001648724, 0.09600000455975533, 0.09600000455975533, 0.5120000243186951, 0.0, 0.0, 0.0, 0.0, 0.0, 1.6518373473066895E9, 0.0, 2022-05-06 12:42:27.306
25.0, -202.56794119998813, -50.152058405801654, -115.50120028154925, -137.9873487651348, 0.09600000455975533, 0.09600000455975533, 0.5120000243186951, 0.0, 0.0, 0.0, 0.0, 0.0, 1.6518373473066895E9, 0.0, 2022-05-06 12:42:27.306
26.0, -274.4936971478164, -213.29397427290678, -207.46908009191975, -210.7658019028604, 0.09600000455975533, 0.09600000455975533, 0.5120000243186951, 0.0, 0.0, 0.0, 0.0, 0.0, 1.6518373473216972E9, 0.0, 2022-05-06 12:42:27.321
26.0, -330.02747158985585, -283.2525428440422, -269.2223081602715, -257.55569024849683, 0.09600000455975533, 0.09600000455975533, 0.5120000243186951, 0.0, 0.0, 0.0, 0.0, 0.0, 1.6518373473216972E9, 0.0, 2022-05-06 12:42:27.321
27.0, -246.7847783761099, -109.93061929754913, -160.8736665439792, -167.49515941552818, 0.09600000455975533, 0.09600000455975533, 0.5120000243186951, 0.0, 0.0, 0.0, 0.0, 0.0, 1.6518373473226695E9, 0.0, 2022-05-06 12:42:27.322
27.0, -206.0273486590013, -60.66865708120167, -120.83803751831874, -144.8425853839144, 0.09600000455975533, 0.09600000455975533, 0.5120000243186951, 0.0, 0.0, 0.0, 0.0, 0.0, 1.6518373473226695E9, 0.0, 2022-05-06 12:42:27.322
28.0, -280.2905420791358, -217.82299311924726, -220.13986114179716, -225.29905313067138, 0.09600000455975533, 0.09600000455975533, 0.5120000243186951, 0.0, 0.0, 0.0, 0.0, 0.0, 1.651837347336726E9, 0.0, 2022-05-06 12:42:27.336
28.0, -322.76832577586174, -279.5313423881307, -268.2910730713047, -259.96418581996113, 0.09600000455975533, 0.09600000455975533, 0.5120000243186951, 0.0, 0.0, 0.0, 0.0, 0.0, 1.651837347336726E9, 0.0, 2022-05-06 12:42:27.336
29.0, -243.62456291355193, -115.24875703454018, -168.11037295823917, -170.9283875748515, 0.09600000455975533, 0.09600000455975533, 0.5120000243186951, 0.0, 0.0, 0.0, 0.0, 0.0, 1.6518373473516922E9, 0.0, 2022-05-06 12:42:27.351
29.0, -202.45948410127312, -49.04504801891744, -115.49372048163787, -138.660530757159, 0.09600000455975533, 0.09600000455975533, 0.5120000243186951, 0.0, 0.0, 0.0, 0.0, 0.0, 1.6518373473516922E9, 0.0, 2022-05-06 12:42:27.351
30.0, -273.67465905752033, -211.07247369922698, -205.92076151026413, -216.5888261338696, 0.09600000455975533, 0.09600000455975533, 0.7680000364780426, 0.0, 0.0, 0.0, 0.0, 0.0, 1.6518373473526587E9, 0.0, 2022-05-06 12:42:27.352
30.0, -323.5985835660249, -266.25469754543155, -258.78424738394096, -242.670888424851, 0.09600000455975533, 0.09600000455975533, 0.7680000364780426, 0.0, 0.0, 0.0, 0.0, 0.0, 1.6518373473526587E9, 0.0, 2022-05-06 12:42:27.352
31.0, -262.5634162891656, -119.90119257941842, -176.6261251573451, -188.06834907177836, 0.09600000455975533, 0.09600000455975533, 0.7680000364780426, 0.0, 0.0, 0.0, 0.0, 0.0, 1.6518373473667262E9, 0.0, 2022-05-06 12:42:27.366
31.0, -206.88752564880997, -53.05422077141702, -124.61159657360986, -149.8503114245832, 0.09600000455975533, 0.09600000455975533, 0.7680000364780426, 0.0, 0.0, 0.0, 0.0, 0.0, 1.6518373473667262E9, 0.0, 2022-05-06 12:42:27.366
32.0, -271.8757671788335, -210.90417820122093, -208.72942637698725, -215.98296234104782, 0.11200000531971455, 0.09600000455975533, 0.7680000364780426, 0.0, 0.0, 0.0, 0.0, 0.0, 1.6518373473818727E9, 0.0, 2022-05-06 12:42:27.381
32.0, -318.46744082681835, -274.9724043421447, -264.86532471189275, -247.03535167314112, 0.11200000531971455, 0.09600000455975533, 0.7680000364780426, 0.0, 0.0, 0.0, 0.0, 0.0, 1.6518373473818727E9, 0.0, 2022-05-06 12:42:27.381
33.0, -273.18473216332495, -133.67898401618004, -190.7779065896757, -190.25245064590126, 0.11200000531971455, 0.09600000455975533, 0.7680000364780426, 0.0, 0.0, 0.0, 0.0, 0.0, 1.651837347382665E9, 0.0, 2022-05-06 12:42:27.382
33.0, -213.56698696967214, -62.590965658426285, -123.59060388570651, -154.95527486409992, 0.11200000531971455, 0.09600000455975533, 0.7680000364780426, 0.0, 0.0, 0.0, 0.0, 0.0, 1.651837347382665E9, 0.0, 2022-05-06 12:42:27.382
34.0, -274.47499764803797, -216.64118473324925, -218.36714856280014, -223.98260834626853, 0.11200000531971455, 0.09600000455975533, 0.7680000364780426, 0.0, 0.0, 0.0, 0.0, 0.0, 1.651837347396699E9, 0.0, 2022-05-06 12:42:27.396
34.0, -313.9309421805665, -269.77768330369145, -269.41678295796737, -236.9675409924239, 0.11200000531971455, 0.09600000455975533, 0.7680000364780426, 0.0, 0.0, 0.0, 0.0, 0.0, 1.651837347396699E9, 0.0, 2022-05-06 12:42:27.396
35.0, -250.0459711374715, -108.04196981992573, -164.34803360281512, -163.2989916652441, 0.11200000531971455, 0.09600000455975533, 0.7680000364780426, 0.0, 0.0, 0.0, 0.0, 0.0, 1.6518373474116907E9, 0.0, 2022-05-06 12:42:27.411
35.0, -209.5391147173941, -49.17968441732228, -116.55959196900949, -137.23188897408545, 0.11200000531971455, 0.09600000455975533, 0.7680000364780426, 0.0, 0.0, 0.0, 0.0, 0.0, 1.6518373474116907E9, 0.0, 2022-05-06 12:42:27.411
36.0, -261.8191761979833, -206.59955335222185, -211.05564414942637, -217.12363182753325, 0.11200000531971455, 0.09600000455975533, 0.7680000364780426, 0.0, 0.0, 0.0, 0.0, 0.0, 1.651837347412672E9, 0.0, 2022-05-06 12:42:27.412
36.0, -326.190334235318, -269.07832201197743, -258.79546708380803, -251.83738321624696, 0.11200000531971455, 0.09600000455975533, 0.7680000364780426, 0.0, 0.0, 0.0, 0.0, 0.0, 1.651837347412672E9, 0.0, 2022-05-06 12:42:27.412
37.0, -263.0084643838927, -117.30570201016963, -174.81601357879117, -184.61268151272088, 0.11200000531971455, 0.09600000455975533, 0.7680000364780426, 0.0, 0.0, 0.0, 0.0, 0.0, 1.651837347426715E9, 0.0, 2022-05-06 12:42:27.426
37.0, -208.9482105243951, -55.83296643849462, -120.8529971181415, -147.8532048482448, 0.11200000531971455, 0.09600000455975533, 0.7680000364780426, 0.0, 0.0, 0.0, 0.0, 0.0, 1.651837347426715E9, 0.0, 2022-05-06 12:42:27.426
38.0, -275.73908383306116, -220.08189269248396, -203.62446293747053, -210.08140021096915, 0.11200000531971455, 0.09600000455975533, 0.7680000364780426, 0.0, 0.0, 0.0, 0.0, 0.0, 1.6518373474416883E9, 0.0, 2022-05-06 12:42:27.441
38.0, -324.152088759467, -264.0518964715302, -255.27622122550383, -225.1419773325324, 0.11200000531971455, 0.09600000455975533, 0.7680000364780426, 0.0, 0.0, 0.0, 0.0, 0.0, 1.6518373474416883E9, 0.0, 2022-05-06 12:42:27.441
39.0, -253.0827699014917, -107.17057313024998, -178.2903806376271, -169.83259688783437, 0.11200000531971455, 0.09600000455975533, 0.7680000364780426, 0.0, 0.0, 0.0, 0.0, 0.0, 1.651837347442682E9, 0.0, 2022-05-06 12:42:27.442
39.0, -202.5791608998552, -54.44546355493367, -121.08113101543859, -149.60347802750766, 0.11200000531971455, 0.09600000455975533, 0.7680000364780426, 0.0, 0.0, 0.0, 0.0, 0.0, 1.651837347442682E9, 0.0, 2022-05-06 12:42:27.442
40.0, -284.12393953371793, -223.78065374866128, -220.10620204219595, -223.38796425331384, 0.11200000531971455, 0.09600000455975533, 0.8960000425577164, 0.0, 0.0, 0.0, 0.0, 0.0, 1.6518373474567244E9, 0.0, 2022-05-06 12:42:27.456
40.0, -330.91382787935436, -282.33626735489815, -274.73118079500273, -244.08457060810179, 0.11200000531971455, 0.09600000455975533, 0.8960000425577164, 0.0, 0.0, 0.0, 0.0, 0.0, 1.6518373474567244E9, 0.0, 2022-05-06 12:42:27.456
41.0, -266.4603920429945, -122.62009984720498, -188.31331251887605, -190.36464764457196, 0.11200000531971455, 0.11200000531971455, 0.8960000425577164, 0.0, 0.0, 0.0, 0.0, 0.0, 1.6518373474716916E9, 0.0, 2022-05-06 12:42:27.471
41.0, -208.36478613130748, -52.79616767447442, -116.64934956794605, -154.5139666693285, 0.11200000531971455, 0.11200000531971455, 0.8960000425577164, 0.0, 0.0, 0.0, 0.0, 0.0, 1.6518373474716916E9, 0.0, 2022-05-06 12:42:27.471
42.0, -271.44941858388484, -214.07187346369028, -204.2677257298492, -223.6647168500349, 0.12800000607967377, 0.11200000531971455, 0.8960000425577164, 0.0, 0.0, 0.0, 0.0, 0.0, 1.6518373474726932E9, 0.0, 2022-05-06 12:42:27.472
42.0, -318.95362782105803, -275.8812000313774, -273.87474370514974, -250.1170292366296, 0.12800000607967377, 0.11200000531971455, 0.8960000425577164, 0.0, 0.0, 0.0, 0.0, 0.0, 1.6518373474726932E9, 0.0, 2022-05-06 12:42:27.472
43.0, -253.5278179962188, -112.58594826608896, -175.75098856771365, -166.0403383327648, 0.12800000607967377, 0.11200000531971455, 0.8960000425577164, 0.0, 0.0, 0.0, 0.0, 0.0, 1.651837347486702E9, 0.0, 2022-05-06 12:42:27.486
43.0, -202.3136280030012, -58.29008070938289, -110.57575203990564, -136.97757577709854, 0.12800000607967377, 0.11200000531971455, 0.8960000425577164, 0.0, 0.0, 0.0, 0.0, 0.0, 1.651837347486702E9, 0.0, 2022-05-06 12:42:27.486
44.0, -270.62664059363306, -221.0692262807861, -216.99834517901763, -220.2875871900469, 0.12800000607967377, 0.11200000531971455, 0.8960000425577164, 0.0, 0.0, 0.0, 0.0, 0.0, 1.651837347501695E9, 0.0, 2022-05-06 12:42:27.501
44.0, -336.62839501164854, -273.2744897622615, -254.5880796336569, -248.17228125967085, 0.12800000607967377, 0.11200000531971455, 0.8960000425577164, 0.0, 0.0, 0.0, 0.0, 0.0, 1.651837347501695E9, 0.0, 2022-05-06 12:42:27.501
45.0, -248.194720659405, -111.4602383794263, -167.97573655983433, -151.8511579008773, 0.12800000607967377, 0.11200000531971455, 0.8960000425577164, 0.0, 0.0, 0.0, 0.0, 0.0, 1.6518373475026343E9, 0.0, 2022-05-06 12:42:27.502
45.0, -203.64503238722682, -55.4701961427927, -119.93672162899747, -153.9268023762852, 0.12800000607967377, 0.11200000531971455, 0.8960000425577164, 0.0, 0.0, 0.0, 0.0, 0.0, 1.6518373475026343E9, 0.0, 2022-05-06 12:42:27.502
46.0, -287.97229658812284, -230.42271606996655, -217.95575956767425, -236.27939940057695, 0.12800000607967377, 0.11200000531971455, 0.8960000425577164, 0.0, 0.0, 0.0, 0.0, 0.0, 1.651837347516685E9, 0.0, 2022-05-06 12:42:27.516
46.0, -321.69497448857874, -271.36714078485966, -265.6619234024547, -251.75884531717747, 0.12800000607967377, 0.11200000531971455, 0.8960000425577164, 0.0, 0.0, 0.0, 0.0, 0.0, 1.651837347516685E9, 0.0, 2022-05-06 12:42:27.516
47.0, -257.61552864778787, -116.89431301504374, -179.67788352118805, -185.11008820682764, 0.12800000607967377, 0.11200000531971455, 0.8960000425577164, 0.0, 0.0, 0.0, 0.0, 0.0, 1.6518373475316925E9, 0.0, 2022-05-06 12:42:27.531
47.0, -212.7703882791102, -62.75178135652095, -125.61762966169044, -152.00449379906058, 0.12800000607967377, 0.11200000531971455, 0.8960000425577164, 0.0, 0.0, 0.0, 0.0, 0.0, 1.6518373475316925E9, 0.0, 2022-05-06 12:42:27.531
48.0, -282.26894915569574, -225.26165413111448, -209.8214771640487, -224.82408583629876, 0.12800000607967377, 0.11200000531971455, 0.8960000425577164, 0.0, 0.0, 0.0, 0.0, 0.0, 1.6518373475326827E9, 0.0, 2022-05-06 12:42:27.532
48.0, -323.7070406647399, -271.03428968880326, -258.27188109001145, -238.05211197957397, 0.12800000607967377, 0.11200000531971455, 0.8960000425577164, 0.0, 0.0, 0.0, 0.0, 0.0, 1.6518373475326827E9, 0.0, 2022-05-06 12:42:27.532
49.0, -244.65303540136665, -106.17575974203646, -163.5738743119873, -171.0480643734336, 0.12800000607967377, 0.11200000531971455, 0.8960000425577164, 0.0, 0.0, 0.0, 0.0, 0.0, 1.6518373475467165E9, 0.0, 2022-05-06 12:42:27.546
49.0, -191.63621362950653, -50.462470102123916, -105.25013450300321, -133.15539802238345, 0.12800000607967377, 0.11200000531971455, 0.8960000425577164, 0.0, 0.0, 0.0, 0.0, 0.0, 1.6518373475467165E9, 0.0, 2022-05-06 12:42:27.546
50.0, -276.45340472459793, -210.8032009024173, -204.02089233277366, -193.3154287096113, 0.12800000607967377, 0.11200000531971455, 0.9600000455975533, 0.0, 0.0, 0.0, 0.0, 0.0, 1.65183734756172E9, 0.0, 2022-05-06 12:42:27.561
50.0, -319.5258325142786, -258.76367793418467, -257.5126813990064, -236.5972908968106, 0.12800000607967377, 0.11200000531971455, 0.9600000455975533, 0.0, 0.0, 0.0, 0.0, 0.0, 1.65183734756172E9, 0.0, 2022-05-06 12:42:27.561
51.0, -257.10316235385835, -117.23464391101152, -176.87295855442062, -195.2826160863042, 0.12800000607967377, 0.11200000531971455, 0.9600000455975533, 0.0, 0.0, 0.0, 0.0, 0.0, 1.6518373475626705E9, 0.0, 2022-05-06 12:42:27.562
51.0, -205.79173496179283, -59.12781829945743, -121.08861081534997, -153.83704477734864, 0.12800000607967377, 0.11200000531971455, 0.9600000455975533, 0.0, 0.0, 0.0, 0.0, 0.0, 1.6518373475626705E9, 0.0, 2022-05-06 12:42:27.562
52.0, -277.3248014142737, -217.53876072261482, -210.02717166161165, -215.02180805243552, 0.12800000607967377, 0.11200000531971455, 0.9600000455975533, 0.0, 0.0, 0.0, 0.0, 0.0, 1.6518373475766807E9, 0.0, 2022-05-06 12:42:27.576
52.0, -322.87678287457675, -271.67007268127054, -263.0028545339592, -245.17662139516324, 0.12800000607967377, 0.11200000531971455, 0.9600000455975533, 0.0, 0.0, 0.0, 0.0, 0.0, 1.6518373475766807E9, 0.0, 2022-05-06 12:42:27.576
53.0, -260.4541127141565, -111.40413988009095, -177.9575295415707, -190.0579758482054, 0.12800000607967377, 0.11200000531971455, 0.9600000455975533, 0.0, 0.0, 0.0, 0.0, 0.0, 1.651837347591728E9, 0.0, 2022-05-06 12:42:27.591
53.0, -203.18876459263265, -59.66636389307678, -122.49481319868937, -156.80652534216642, 0.12800000607967377, 0.11200000531971455, 0.9600000455975533, 0.0, 0.0, 0.0, 0.0, 0.0, 1.651837347591728E9, 0.0, 2022-05-06 12:42:27.591
54.0, -273.3081488618627, -215.9193840418011, -208.77804507641122, -208.49942252971232, 0.12800000607967377, 0.11200000531971455, 0.9600000455975533, 0.0, 0.0, 0.0, 0.0, 0.0, 1.6518373475926363E9, 0.0, 2022-05-06 12:42:27.592
54.0, -330.61837578285486, -278.66742549836636, -271.4101496343501, -252.4133278094232, 0.12800000607967377, 0.11200000531971455, 0.9600000455975533, 0.0, 0.0, 0.0, 0.0, 0.0, 1.6518373475926363E9, 0.0, 2022-05-06 12:42:27.592
55.0, -253.51285839639604, -110.8655942864716, -174.19893008610234, -177.69760649465024, 0.12800000607967377, 0.11200000531971455, 0.9600000455975533, 0.0, 0.0, 0.0, 0.0, 0.0, 1.6518373476067135E9, 0.0, 2022-05-06 12:42:27.606
55.0, -205.4663636656478, -59.89075789041817, -122.01610600436106, -149.76803362555802, 0.12800000607967377, 0.11200000531971455, 0.9600000455975533, 0.0, 0.0, 0.0, 0.0, 0.0, 1.6518373476067135E9, 0.0, 2022-05-06 12:42:27.606
56.0, -266.5314501421526, -216.29711393732578, -200.99157336866483, -217.0637934282422, 0.12800000607967377, 0.11200000531971455, 0.9600000455975533, 0.0, 0.0, 0.0, 0.0, 0.0, 1.6518373476217077E9, 0.0, 2022-05-06 12:42:27.621
56.0, -294.61061900947243, -256.2803843636066, -258.38407808868214, -227.31485920678824, 0.12800000607967377, 0.11200000531971455, 0.9600000455975533, 0.0, 0.0, 0.0, 0.0, 0.0, 1.6518373476217077E9, 0.0, 2022-05-06 12:42:27.621
57.0, -232.90974954050034, -99.17466702498496, -151.49025755515322, -151.43602900579572, 0.12800000607967377, 0.11200000531971455, 0.9600000455975533, 0.0, 0.0, 0.0, 0.0, 0.0, 1.6518373476226704E9, 0.0, 2022-05-06 12:42:27.622
57.0, -214.6590377567336, -68.6234242869541, -132.0801767851226, -149.15842993278056, 0.12800000607967377, 0.11200000531971455, 0.9600000455975533, 0.0, 0.0, 0.0, 0.0, 0.0, 1.6518373476226704E9, 0.0, 2022-05-06 12:42:27.622
58.0, -241.7097341362387, -178.98787197936326, -180.7736742082052, -192.77688311599195, 0.12800000607967377, 0.11200000531971455, 0.9600000455975533, 0.0, 0.0, 0.0, 0.0, 0.0, 1.6518373476366937E9, 0.0, 2022-05-06 12:42:27.636
58.0, -313.960861380212, -261.1983528053388, -250.52280838182196, -235.53889920935035, 0.12800000607967377, 0.11200000531971455, 0.9600000455975533, 0.0, 0.0, 0.0, 0.0, 0.0, 1.6518373476366937E9, 0.0, 2022-05-06 12:42:27.636
59.0, -274.6881719455123, -140.8820313308388, -196.00628672773018, -198.5737280473113, 0.12800000607967377, 0.11200000531971455, 0.9600000455975533, 0.0, 0.0, 0.0, 0.0, 0.0, 1.651837347651739E9, 0.0, 2022-05-06 12:42:27.651
59.0, -219.53212739899755, -67.46405530069023, -123.35125028854236, -154.1063175741583, 0.12800000607967377, 0.11200000531971455, 0.9600000455975533, 0.0, 0.0, 0.0, 0.0, 0.0, 1.651837347651739E9, 0.0, 2022-05-06 12:42:27.651
60.0, -254.94150017946959, -189.43715245556086, -199.4469946869649, -203.68243138678372, 0.12800000607967377, 0.11200000531971455, 0.9920000471174717, 0.0, 0.0, 0.0, 0.0, 0.0, 1.6518373476526902E9, 0.0, 2022-05-06 12:42:27.652
60.0, -317.27441274095327, -273.18099226336926, -261.4358364525251, -247.77585186436772, 0.12800000607967377, 0.11200000531971455, 0.9920000471174717, 0.0, 0.0, 0.0, 0.0, 0.0, 1.6518373476526902E9, 0.0, 2022-05-06 12:42:27.652
61.0, -264.43336626701057, -128.3234472796321, -175.9492032653652, -177.43581349775195, 0.12800000607967377, 0.11200000531971455, 0.9920000471174717, 0.0, 0.0, 0.0, 0.0, 0.0, 1.6518373476666973E9, 0.0, 2022-05-06 12:42:27.666
61.0, -206.40133865457028, -59.99921498913318, -118.79231224255636, -147.4455557530746, 0.12800000607967377, 0.11200000531971455, 0.9920000471174717, 0.0, 0.0, 0.0, 0.0, 0.0, 1.6518373476666973E9, 0.0, 2022-05-06 12:42:27.666
62.0, -267.37292763218284, -198.44283154886216, -210.3824621574022, -208.4695033300668, 0.12800000607967377, 0.11200000531971455, 0.9920000471174717, 0.0, 0.0, 0.0, 0.0, 0.0, 1.6518373476987123E9, 0.0, 2022-05-06 12:42:27.698
62.0, -316.68724844790995, -264.452065766789, -254.5132816345431, -247.58885686658323, 0.12800000607967377, 0.11200000531971455, 0.9920000471174717, 0.0, 0.0, 0.0, 0.0, 0.0, 1.6518373476987123E9, 0.0, 2022-05-06 12:42:27.698
63.0, -266.44169254321605, -131.97358963638544, -187.95054222317412, -187.58216207753867, 0.12800000607967377, 0.11200000531971455, 0.9920000471174717, 0.0, 0.0, 0.0, 0.0, 0.0, 1.651837347699698E9, 0.0, 2022-05-06 12:42:27.699
63.0, -209.57277381699532, -65.9568756185472, -130.97690629819408, -158.75875311903656, 0.12800000607967377, 0.11200000531971455, 0.9920000471174717, 0.0, 0.0, 0.0, 0.0, 0.0, 1.651837347699698E9, 0.0, 2022-05-06 12:42:27.699
64.0, -264.4670253666118, -197.0553286653012, -199.79854528279975, -212.07476688735187, 0.12800000607967377, 0.11200000531971455, 0.9920000471174717, 0.0, 0.0, 0.0, 0.0, 0.0, 1.6518373477006333E9, 0.0, 2022-05-06 12:42:27.700
64.0, -316.13000335451216, -266.07518234755844, -255.67265062080696, -234.517906521447, 0.12800000607967377, 0.11200000531971455, 0.9920000471174717, 0.0, 0.0, 0.0, 0.0, 0.0, 1.6518373477006333E9, 0.0, 2022-05-06 12:42:27.700
65.0, -253.827009992674, -125.93365120794624, -176.22221596213058, -177.83224289305508, 0.12800000607967377, 0.11200000531971455, 0.9920000471174717, 0.0, 0.0, 0.0, 0.0, 0.0, 1.6518373477016363E9, 0.0, 2022-05-06 12:42:27.701
65.0, -211.16597119811922, -62.92381675448269, -124.8210309711285, -150.85634451266378, 0.12800000607967377, 0.11200000531971455, 0.9920000471174717, 0.0, 0.0, 0.0, 0.0, 0.0, 1.6518373477016363E9, 0.0, 2022-05-06 12:42:27.701
66.0, -255.87273526843637, -195.3200150858611, -202.72688694810495, -210.9864560002461, 0.12800000607967377, 0.11200000531971455, 0.9920000471174717, 0.0, 0.0, 0.0, 0.0, 0.0, 1.6518373477116897E9, 0.0, 2022-05-06 12:42:27.711
66.0, -304.68216959014535, -264.9382527610287, -252.3254401604645, -229.09879148565233, 0.12800000607967377, 0.11200000531971455, 0.9920000471174717, 0.0, 0.0, 0.0, 0.0, 0.0, 1.6518373477116897E9, 0.0, 2022-05-06 12:42:27.711
67.0, -240.4456479512155, -118.66328569408506, -155.73878390481696, -160.58382429741323, 0.12800000607967377, 0.11200000531971455, 0.9920000471174717, 0.0, 0.0, 0.0, 0.0, 0.0, 1.6518373477267396E9, 0.0, 2022-05-06 12:42:27.726
67.0, -200.29408202692866, -56.06858013570309, -118.28368584858254, -141.97034221794456, 0.12800000607967377, 0.11200000531971455, 0.9920000471174717, 0.0, 0.0, 0.0, 0.0, 0.0, 1.6518373477267396E9, 0.0, 2022-05-06 12:42:27.726
68.0, -265.1252477588132, -200.34270072635263, -207.08761029643938, -220.28384729009122, 0.12800000607967377, 0.11200000531971455, 0.9920000471174717, 0.0, 0.0, 0.0, 0.0, 0.0, 1.6518373477417517E9, 0.0, 2022-05-06 12:42:27.741
68.0, -292.987502428703, -250.1880873357877, -245.47394344164059, -223.26080765482038, 0.12800000607967377, 0.11200000531971455, 0.9920000471174717, 0.0, 0.0, 0.0, 0.0, 0.0, 1.6518373477417517E9, 0.0, 2022-05-06 12:42:27.741
69.0, -256.31778336316347, -124.28809522744268, -165.51488238899037, -164.61543644964695, 0.12800000607967377, 0.11200000531971455, 0.9920000471174717, 0.0, 0.0, 0.0, 0.0, 0.0, 1.6518373477426577E9, 0.0, 2022-05-06 12:42:27.742
69.0, -206.27418205607682, -55.739468939602375, -109.5173603524454, -146.39090396557003, 0.12800000607967377, 0.11200000531971455, 0.9920000471174717, 0.0, 0.0, 0.0, 0.0, 0.0, 1.6518373477426577E9, 0.0, 2022-05-06 12:42:27.742
70.0, -271.59153478220105, -205.8777526607737, -205.8197842114605, -219.96221589390188, 0.12800000607967377, 0.11200000531971455, 1.008000047877431, 0.0, 0.0, 0.0, 0.0, 0.0, 1.6518373477566893E9, 0.0, 2022-05-06 12:42:27.756
70.0, -310.7482873182744, -268.7604305157438, -254.05327393999323, -245.78996498789638, 0.12800000607967377, 0.11200000531971455, 1.008000047877431, 0.0, 0.0, 0.0, 0.0, 0.0, 1.6518373477566893E9, 0.0, 2022-05-06 12:42:27.756
71.0, -256.5384374605492, -127.59042688831687, -183.2906268783845, -181.44872615020722, 0.12800000607967377, 0.11200000531971455, 1.008000047877431, 0.0, 0.0, 0.0, 0.0, 0.0, 1.6518373477717307E9, 0.0, 2022-05-06 12:42:27.771
71.0, -201.82744100876153, -53.16267787013203, -116.14072317397222, -149.177129432559, 0.12800000607967377, 0.11200000531971455, 1.008000047877431, 0.0, 0.0, 0.0, 0.0, 0.0, 1.6518373477717307E9, 0.0, 2022-05-06 12:42:27.771
72.0, -265.1589068584144, -198.92527864314616, -196.24190042493865, -207.55322784092277, 0.12800000607967377, 0.11200000531971455, 1.008000047877431, 0.0, 0.0, 0.0, 0.0, 0.0, 1.6518373477726514E9, 0.0, 2022-05-06 12:42:27.772
72.0, -319.8923427099362, -265.73485145159066, -249.99922238802537, -245.3336971933022, 0.12800000607967377, 0.11200000531971455, 1.008000047877431, 0.0, 0.0, 0.0, 0.0, 0.0, 1.6518373477726514E9, 0.0, 2022-05-06 12:42:27.772
73.0, -258.59164253622293, -132.9160444252193, -184.37893776549026, -194.62813359405845, 0.12800000607967377, 0.11200000531971455, 1.008000047877431, 0.0, 0.0, 0.0, 0.0, 0.0, 1.6518373477866883E9, 0.0, 2022-05-06 12:42:27.786
73.0, -208.44332403037697, -68.08861859329045, -127.18464774312451, -149.84283162467182, 0.12800000607967377, 0.11200000531971455, 1.008000047877431, 0.0, 0.0, 0.0, 0.0, 0.0, 1.6518373477866883E9, 0.0, 2022-05-06 12:42:27.786
74.0, -259.84450902137905, -194.88244679104537, -194.64870304381475, -200.0210693301633, 0.12800000607967377, 0.11200000531971455, 1.008000047877431, 0.0, 0.0, 0.0, 0.0, 0.0, 1.651837347801705E9, 0.0, 2022-05-06 12:42:27.801
74.0, -310.46405492164195, -260.7159057110548, -249.8384066899307, -235.2958057122305, 0.12800000607967377, 0.11200000531971455, 1.008000047877431, 0.0, 0.0, 0.0, 0.0, 0.0, 1.651837347801705E9, 0.0, 2022-05-06 12:42:27.801
75.0, -256.05973026622087, -123.51393593661487, -177.89395124232396, -183.40095392707735, 0.12800000607967377, 0.11200000531971455, 1.008000047877431, 0.0, 0.0, 0.0, 0.0, 0.0, 1.6518373478026557E9, 0.0, 2022-05-06 12:42:27.802
75.0, -191.71101162862033, -57.08957282360643, -114.53630609298125, -139.10931875184178, 0.12800000607967377, 0.11200000531971455, 1.008000047877431, 0.0, 0.0, 0.0, 0.0, 0.0, 1.6518373478026557E9, 0.0, 2022-05-06 12:42:27.802
76.0, -260.44289301428944, -204.32943407911807, -211.31369724636897, -211.63719859253615, 0.12800000607967377, 0.11200000531971455, 1.008000047877431, 0.0, 0.0, 0.0, 0.0, 0.0, 1.6518373478166854E9, 0.0, 2022-05-06 12:42:27.816
76.0, -310.0825851261616, -261.5723428009078, -252.55731395771727, -244.38376260455698, 0.12800000607967377, 0.11200000531971455, 1.008000047877431, 0.0, 0.0, 0.0, 0.0, 0.0, 1.6518373478166854E9, 0.0, 2022-05-06 12:42:27.816
77.0, -249.71685994137079, -117.66473240591586, -165.34658689098433, -169.2304729949683, 0.12800000607967377, 0.11200000531971455, 1.008000047877431, 0.0, 0.0, 0.0, 0.0, 0.0, 1.6518373478316972E9, 0.0, 2022-05-06 12:42:27.831
77.0, -207.62428594008088, -60.4367832839489, -130.01575200958177, -150.27666001953185, 0.12800000607967377, 0.11200000531971455, 1.008000047877431, 0.0, 0.0, 0.0, 0.0, 0.0, 1.6518373478316972E9, 0.0, 2022-05-06 12:42:27.831
78.0, -251.81120391655713, -196.56540177110583, -197.5172063098289, -209.45309701841325, 0.12800000607967377, 0.11200000531971455, 1.008000047877431, 0.0, 0.0, 0.0, 0.0, 0.0, 1.6518373478326545E9, 0.0, 2022-05-06 12:42:27.832
78.0, -314.6976216714829, -260.3119965158403, -251.53258136985824, -226.1405306207016, 0.12800000607967377, 0.11200000531971455, 1.008000047877431, 0.0, 0.0, 0.0, 0.0, 0.0, 1.6518373478326545E9, 0.0, 2022-05-06 12:42:27.832
79.0, -255.8615155685693, -125.53722181264311, -178.42127713607624, -178.7485183821991, 0.12800000607967377, 0.11200000531971455, 1.008000047877431, 0.0, 0.0, 0.0, 0.0, 0.0, 1.651837347846696E9, 0.0, 2022-05-06 12:42:27.846
79.0, -204.4715502774343, -67.11624460481107, -126.43666775198653, -157.8910963293165, 0.12800000607967377, 0.11200000531971455, 1.008000047877431, 0.0, 0.0, 0.0, 0.0, 0.0, 1.651837347846696E9, 0.0, 2022-05-06 12:42:27.846
80.0, -272.9715578658506, -204.58748717606068, -209.1894340715371, -226.2153286198154, 0.12800000607967377, 0.11200000531971455, 1.008000047877431, 0.0, 0.0, 0.0, 0.0, 0.0, 1.651837347861714E9, 0.0, 2022-05-06 12:42:27.861
80.0, -319.17802181839943, -264.9307729611173, -258.12228509178385, -245.12426279578358, 0.12800000607967377, 0.11200000531971455, 1.008000047877431, 0.0, 0.0, 0.0, 0.0, 0.0, 1.651837347861714E9, 0.0, 2022-05-06 12:42:27.861
81.0, -247.83943016361445, -116.43430532049388, -162.92687161965296, -173.98014593869448, 0.12800000607967377, 0.12800000607967377, 1.008000047877431, 0.0, 0.0, 0.0, 0.0, 0.0, 1.6518373478626812E9, 0.0, 2022-05-06 12:42:27.862
81.0, -197.08150796499103, -58.48829540703446, -112.12781052151695, -143.219468803145, 0.12800000607967377, 0.12800000607967377, 1.008000047877431, 0.0, 0.0, 0.0, 0.0, 0.0, 1.6518373478626812E9, 0.0, 2022-05-06 12:42:27.862
82.0, -266.8007229389623, -205.00261607114226, -217.88096156856045, -211.23702929727733, 0.12800000607967377, 0.12800000607967377, 1.008000047877431, 0.0, 0.0, 0.0, 0.0, 0.0, 1.6518373478766885E9, 0.0, 2022-05-06 12:42:27.876
82.0, -311.2868329118937, -253.98408579081297, -257.34064600104466, -235.2584067126736, 0.12800000607967377, 0.12800000607967377, 1.008000047877431, 0.0, 0.0, 0.0, 0.0, 0.0, 1.6518373478766885E9, 0.0, 2022-05-06 12:42:27.876
83.0, -251.1903805239126, -115.0542822368443, -158.30809517437592, -179.4179604742676, 0.12800000607967377, 0.12800000607967377, 1.008000047877431, 0.0, 0.0, 0.0, 0.0, 0.0, 1.6518373478917167E9, 0.0, 2022-05-06 12:42:27.891
83.0, -198.4316118489951, -62.542346959002316, -124.77241227170452, -158.04817212745547, 0.12800000607967377, 0.12800000607967377, 1.008000047877431, 0.0, 0.0, 0.0, 0.0, 0.0, 1.6518373478917167E9, 0.0, 2022-05-06 12:42:27.891
84.0, -265.59647515323013, -206.97354334779084, -202.83908394677565, -202.1378527050838, 0.12800000607967377, 0.12800000607967377, 1.008000047877431, 0.0, 0.0, 0.0, 0.0, 0.0, 1.65183734789265E9, 0.0, 2022-05-06 12:42:27.892
84.0, -308.2275947481394, -256.72543245833367, -256.2822543135844, -244.99336629733443, 0.12800000607967377, 0.12800000607967377, 1.008000047877431, 0.0, 0.0, 0.0, 0.0, 0.0, 1.65183734789265E9, 0.0, 2022-05-06 12:42:27.892
85.0, -259.47799882572144, -125.20063081663102, -174.59161958144978, -192.6422467175871, 0.12800000607967377, 0.12800000607967377, 1.008000047877431, 0.0, 0.0, 0.0, 0.0, 0.0, 1.6518373479066813E9, 0.0, 2022-05-06 12:42:27.906
85.0, -206.27792195603251, -63.436183048412204, -120.09379742713645, -158.90086931735277, 0.12800000607967377, 0.12800000607967377, 1.008000047877431, 0.0, 0.0, 0.0, 0.0, 0.0, 1.6518373479066813E9, 0.0, 2022-05-06 12:42:27.906
86.0, -258.5205844370648, -202.870873096399, -205.741246312391, -218.79910700768232, 0.12800000607967377, 0.12800000607967377, 1.008000047877431, 0.0, 0.0, 0.0, 0.0, 0.0, 1.651837347921754E9, 0.0, 2022-05-06 12:42:27.921
86.0, -310.5089337211102, -264.36978796776384, -256.19249671464786, -243.20943401847035, 0.12800000607967377, 0.12800000607967377, 1.008000047877431, 0.0, 0.0, 0.0, 0.0, 0.0, 1.651837347921754E9, 0.0, 2022-05-06 12:42:27.921
87.0, -253.92050749156624, -114.57931494247168, -155.60414750641212, -170.7862713765353, 0.12800000607967377, 0.12800000607967377, 1.008000047877431, 0.0, 0.0, 0.0, 0.0, 0.0, 1.6518373479226477E9, 0.0, 2022-05-06 12:42:27.922
87.0, -205.95629055984318, -61.798106867820024, -122.82392439479008, -144.8425853839144, 0.12800000607967377, 0.12800000607967377, 1.008000047877431, 0.0, 0.0, 0.0, 0.0, 0.0, 1.6518373479226477E9, 0.0, 2022-05-06 12:42:27.922
88.0, -265.22248515766114, -202.2837088033557, -203.2990916413255, -210.5788069050759, 0.12800000607967377, 0.12800000607967377, 1.008000047877431, 0.0, 0.0, 0.0, 0.0, 0.0, 1.6518373479366837E9, 0.0, 2022-05-06 12:42:27.936
88.0, -316.87798334565014, -261.84535549767315, -252.512435158249, -237.7753593828529, 0.12800000607967377, 0.12800000607967377, 1.008000047877431, 0.0, 0.0, 0.0, 0.0, 0.0, 1.6518373479366837E9, 0.0, 2022-05-06 12:42:27.936
89.0, -252.9743128027767, -121.68138495832682, -174.01941488822922, -184.50422441400588, 0.12800000607967377, 0.12800000607967377, 1.008000047877431, 0.0, 0.0, 0.0, 0.0, 0.0, 1.6518373479516935E9, 0.0, 2022-05-06 12:42:27.951
89.0, -200.6867715222761, -60.72475558053702, -119.58143113320693, -144.8799843834713, 0.12800000607967377, 0.12800000607967377, 1.008000047877431, 0.0, 0.0, 0.0, 0.0, 0.0, 1.6518373479516935E9, 0.0, 2022-05-06 12:42:27.951
90.0, -244.94848749786615, -195.4284721845761, -190.97986118728295, -206.58833365235478, 0.12800000607967377, 0.12800000607967377, 1.0240000486373901, 0.0, 0.0, 0.0, 0.0, 0.0, 1.65183734795265E9, 0.0, 2022-05-06 12:42:27.952
90.0, -331.06716377753764, -266.33323544450104, -261.9257633467205, -253.01545170228928, 0.12800000607967377, 0.12800000607967377, 1.0240000486373901, 0.0, 0.0, 0.0, 0.0, 0.0, 1.65183734795265E9, 0.0, 2022-05-06 12:42:27.952
91.0, -250.98842592630535, -126.0234088068828, -180.4034241125919, -185.7907499987632, 0.12800000607967377, 0.12800000607967377, 1.0240000486373901, 0.0, 0.0, 0.0, 0.0, 0.0, 1.6518373479666896E9, 0.0, 2022-05-06 12:42:27.966
91.0, -209.8457865137607, -81.36900333594531, -138.8980144043453, -167.27076541818678, 0.12800000607967377, 0.12800000607967377, 1.0240000486373901, 0.0, 0.0, 0.0, 0.0, 0.0, 1.6518373479666896E9, 0.0, 2022-05-06 12:42:27.966
92.0, -275.55208883527666, -212.68063068017364, -212.51046523218974, -213.13315857481211, 0.144000006839633, 0.12800000607967377, 1.0240000486373901, 0.0, 0.0, 0.0, 0.0, 0.0, 1.6518373479817045E9, 0.0, 2022-05-06 12:42:27.981
92.0, -311.72440120670944, -261.17217350564897, -254.33002653671429, -237.21811428945512, 0.144000006839633, 0.12800000607967377, 1.0240000486373901, 0.0, 0.0, 0.0, 0.0, 0.0, 1.6518373479817045E9, 0.0, 2022-05-06 12:42:27.981
93.0, -246.54916467890143, -114.91590593848377, -171.42018441902474, -173.17980734817684, 0.144000006839633, 0.12800000607967377, 1.0240000486373901, 0.0, 0.0, 0.0, 0.0, 0.0, 1.6518373479826925E9, 0.0, 2022-05-06 12:42:27.982
93.0, -197.6873717578128, -63.47732194792479, -124.36850307649001, -147.7372679496184, 0.144000006839633, 0.12800000607967377, 1.0240000486373901, 0.0, 0.0, 0.0, 0.0, 0.0, 1.6518373479826925E9, 0.0, 2022-05-06 12:42:27.982
94.0, -255.61094227153808, -199.34788733813912, -197.1095572146587, -214.14667146280408, 0.144000006839633, 0.12800000607967377, 1.0240000486373901, 0.0, 0.0, 0.0, 0.0, 0.0, 1.6518373479967136E9, 0.0, 2022-05-06 12:42:27.996
94.0, -315.7073946595192, -262.6718733878806, -258.38033818872645, -245.8198841875419, 0.144000006839633, 0.12800000607967377, 1.0240000486373901, 0.0, 0.0, 0.0, 0.0, 0.0, 1.6518373479967136E9, 0.0, 2022-05-06 12:42:27.996
95.0, -249.99735243804753, -109.85956119839102, -166.19928408088163, -168.86770269926637, 0.144000006839633, 0.12800000607967377, 1.0240000486373901, 0.0, 0.0, 0.0, 0.0, 0.0, 1.6518373480117264E9, 0.0, 2022-05-06 12:42:28.011
95.0, -200.43993812520057, -61.11370517592877, -119.41687553515658, -141.9179836185649, 0.144000006839633, 0.12800000607967377, 1.0240000486373901, 0.0, 0.0, 0.0, 0.0, 0.0, 1.6518373480117264E9, 0.0, 2022-05-06 12:42:28.011
96.0, -253.1613078005612, -198.91779884323478, -195.82303162990138, -199.18333174008876, 0.144000006839633, 0.12800000607967377, 1.0240000486373901, 0.0, 0.0, 0.0, 0.0, 0.0, 1.6518373480126476E9, 0.0, 2022-05-06 12:42:28.012
96.0, -310.3368983231485, -261.8191761979833, -241.34135399060324, -237.95861448068172, 0.144000006839633, 0.12800000607967377, 1.0240000486373901, 0.0, 0.0, 0.0, 0.0, 0.0, 1.6518373480126476E9, 0.0, 2022-05-06 12:42:28.012
97.0, -245.1541819954291, -112.95993826165795, -166.5433548768051, -173.90534793958068, 0.144000006839633, 0.12800000607967377, 1.0240000486373901, 0.0, 0.0, 0.0, 0.0, 0.0, 1.651837348026687E9, 0.0, 2022-05-06 12:42:28.026
97.0, -195.8660404793918, -53.719922963529825, -120.45282782288268, -138.33141956105828, 0.144000006839633, 0.12800000607967377, 1.0240000486373901, 0.0, 0.0, 0.0, 0.0, 0.0, 1.651837348026687E9, 0.0, 2022-05-06 12:42:28.026
98.0, -261.92389339674264, -202.7212770981714, -202.9699804452248, -207.31387424375862, 0.144000006839633, 0.12800000607967377, 1.0240000486373901, 0.0, 0.0, 0.0, 0.0, 0.0, 1.6518373480417266E9, 0.0, 2022-05-06 12:42:28.041
98.0, -312.6668559955433, -256.5309576606378, -249.31108079617843, -229.45034208148718, 0.144000006839633, 0.12800000607967377, 1.0240000486373901, 0.0, 0.0, 0.0, 0.0, 0.0, 1.6518373480417266E9, 0.0, 2022-05-06 12:42:28.041
99.0, -232.6255171438679, -103.01554427947849, -156.3857865971513, -161.79181198310107, 0.144000006839633, 0.12800000607967377, 1.0240000486373901, 0.0, 0.0, 0.0, 0.0, 0.0, 1.651837348042664E9, 0.0, 2022-05-06 12:42:28.042
99.0, -200.65685232263058, -66.74225460924208, -127.55489783873782, -175.16943412460387, 0.144000006839633, 0.12800000607967377, 1.0240000486373901, 0.0, 0.0, 0.0, 0.0, 0.0, 1.651837348042664E9, 0.0, 2022-05-06 12:42:28.042
100.0, -276.99943011812866, -216.8094802312553, -219.02537095500156, -231.53720625676215, 0.144000006839633, 0.12800000607967377, 1.0240000486373901, 0.0, 0.0, 0.0, 0.0, 0.0, 1.6518373480566833E9, 0.0, 2022-05-06 12:42:28.056
100.0, -319.0433854199946, -265.62265445291996, -263.4329430288635, -249.14091534819454, 0.144000006839633, 0.12800000607967377, 1.0240000486373901, 0.0, 0.0, 0.0, 0.0, 0.0, 1.6518373480566833E9, 0.0, 2022-05-06 12:42:28.056
0.0, -258.1278949417174, -123.77759888349101, -173.83054994046688, -182.2378450408578, 0.144000006839633, 0.12800000607967377, 1.0240000486373901, 0.0, 0.0, 0.0, 0.0, 0.0, 1.6518373480576615E9, 0.0, 2022-05-06 12:42:28.057
1.0, -197.0515887653455, -59.31294334726408, -114.68777204118669, -140.86333183106035, 0.144000006839633, 0.11200000531971455, 1.0240000486373901, 0.0, 0.0, 0.0, 0.0, 0.0, 1.6518373480717175E9, 0.0, 2022-05-06 12:42:28.071
1.0, -258.02317774295807, -204.5182990268804, -203.96292388346046, -209.40447831898928, 0.144000006839633, 0.11200000531971455, 1.0240000486373901, 0.0, 0.0, 0.0, 0.0, 0.0, 1.6518373480717175E9, 0.0, 2022-05-06 12:42:28.071
2.0, -304.6634700903669, -251.08753327513114, -246.62770257797092, -232.58063834439963, 0.12800000607967377, 0.11200000531971455, 1.0240000486373901, 0.0, 0.0, 0.0, 0.0, 0.0, 1.651837348086706E9, 0.0, 2022-05-06 12:42:28.086
2.0, -242.16600193083286, -106.51796058798209, -163.32891086488962, -166.28717172984034, 0.12800000607967377, 0.11200000531971455, 1.0240000486373901, 0.0, 0.0, 0.0, 0.0, 0.0, 1.651837348086706E9, 0.0, 2022-05-06 12:42:28.086
3.0, -201.36743331421167, -55.82735658856109, -114.63167354185134, -143.05865310505033, 0.12800000607967377, 0.11200000531971455, 1.0240000486373901, 0.0, 0.0, 0.0, 0.0, 0.0, 1.6518373480876596E9, 0.0, 2022-05-06 12:42:28.087
3.0, -274.5460557471961, -216.0521504902281, -214.9208307536319, -221.57411277480423, 0.12800000607967377, 0.11200000531971455, 1.0240000486373901, 0.0, 0.0, 0.0, 0.0, 0.0, 1.6518373480876596E9, 0.0, 2022-05-06 12:42:28.087
4.0, -310.0339664267376, -254.3973447359167, -249.5672639431432, -238.5569984735921, 0.12800000607967377, 0.11200000531971455, 1.0240000486373901, 0.0, 0.0, 0.0, 0.0, 0.0, 1.6518373481017275E9, 0.0, 2022-05-06 12:42:28.101
4.0, -244.60815660189837, -107.94660237105563, -161.23082698974758, -163.97965345717967, 0.12800000607967377, 0.11200000531971455, 1.0240000486373901, 0.0, 0.0, 0.0, 0.0, 0.0, 1.6518373481017275E9, 0.0, 2022-05-06 12:42:28.101
5.0, -197.89306625537574, -58.8604154526256, -110.32330879289657, -142.71458230912685, 0.12800000607967377, 0.11200000531971455, 1.0240000486373901, 0.0, 0.0, 0.0, 0.0, 0.0, 1.651837348116691E9, 0.0, 2022-05-06 12:42:28.116
5.0, -254.65726778283715, -201.64231596095487, -204.90911857225, -204.1686183810234, 0.12800000607967377, 0.11200000531971455, 1.0240000486373901, 0.0, 0.0, 0.0, 0.0, 0.0, 1.651837348116691E9, 0.0, 2022-05-06 12:42:28.116
6.0, -320.09803720749915, -261.97812194610015, -262.95610578451306, -241.68355483654886, 0.12800000607967377, 0.11200000531971455, 1.0240000486373901, 0.0, 0.0, 0.0, 0.0, 0.0, 1.651837348117652E9, 0.0, 2022-05-06 12:42:28.117
6.0, -240.99541324470192, -104.19922261545435, -168.75176580064, -175.24423212371767, 0.12800000607967377, 0.11200000531971455, 1.0240000486373901, 0.0, 0.0, 0.0, 0.0, 0.0, 1.651837348117652E9, 0.0, 2022-05-06 12:42:28.117
7.0, -200.9523044191301, -58.781877553556114, -121.54300865996629, -150.0709655219689, 0.12800000607967377, 0.11200000531971455, 1.0240000486373901, 0.0, 0.0, 0.0, 0.0, 0.0, 1.6518373481317115E9, 0.0, 2022-05-06 12:42:28.131
7.0, -272.85188106726855, -213.4865791206248, -211.8391531901434, -216.42801043577492, 0.12800000607967377, 0.11200000531971455, 1.0240000486373901, 0.0, 0.0, 0.0, 0.0, 0.0, 1.6518373481317115E9, 0.0, 2022-05-06 12:42:28.131
8.0, -306.67553626652807, -262.42690994078293, -253.50537859648466, -244.50343940313905, 0.12800000607967377, 0.11200000531971455, 1.0240000486373901, 0.0, 0.0, 0.0, 0.0, 0.0, 1.6518373481467228E9, 0.0, 2022-05-06 12:42:28.146
8.0, -234.7423005187884, -112.72993441438302, -171.70254686567932, -177.35353569872677, 0.12800000607967377, 0.11200000531971455, 1.0240000486373901, 0.0, 0.0, 0.0, 0.0, 0.0, 1.6518373481467228E9, 0.0, 2022-05-06 12:42:28.146
9.0, -222.42680996470153, -72.17445929488167, -125.05477471835911, -152.4794610934332, 0.12800000607967377, 0.11200000531971455, 1.0240000486373901, 0.0, 0.0, 0.0, 0.0, 0.0, 1.6518373481476717E9, 0.0, 2022-05-06 12:42:28.147
9.0, -272.33577487338334, -218.3035702635534, -210.5825468050316, -228.4368291934952, 0.12800000607967377, 0.11200000531971455, 1.0240000486373901, 0.0, 0.0, 0.0, 0.0, 0.0, 1.6518373481476717E9, 0.0, 2022-05-06 12:42:28.147
10.0, -321.3322041928768, -256.16631741495803, -260.8318426096812, -236.51127319782972, 0.12800000607967377, 0.11200000531971455, 1.0240000486373901, 0.0, 0.0, 0.0, 0.0, 0.0, 1.651837348161678E9, 0.0, 2022-05-06 12:42:28.161
10.0, -261.96129239629954, -118.34726414782926, -170.2664252826944, -174.79544412903488, 0.12800000607967377, 0.11200000531971455, 1.0240000486373901, 0.0, 0.0, 0.0, 0.0, 0.0, 1.651837348161678E9, 0.0, 2022-05-06 12:42:28.161
11.0, -216.6972832325846, -75.84704105136916, -132.75148882716894, -170.6703344779089, 0.12800000607967377, 0.12800000607967377, 1.0240000486373901, 0.0, 0.0, 0.0, 0.0, 0.0, 1.6518373481766927E9, 0.0, 2022-05-06 12:42:28.176
11.0, -274.1346667520702, -226.85672146221623, -219.93977649416775, -226.0694725215435, 0.12800000607967377, 0.12800000607967377, 1.0240000486373901, 0.0, 0.0, 0.0, 0.0, 0.0, 1.6518373481766927E9, 0.0, 2022-05-06 12:42:28.176
12.0, -301.31625963002443, -253.02106155222282, -248.4565136563033, -232.79007274191827, 0.144000006839633, 0.12800000607967377, 1.0240000486373901, 0.0, 0.0, 0.0, 0.0, 0.0, 1.6518373481776495E9, 0.0, 2022-05-06 12:42:28.177
12.0, -267.9114732258022, -124.58167737396434, -173.38550184573978, -172.3794687576592, 0.144000006839633, 0.12800000607967377, 1.0240000486373901, 0.0, 0.0, 0.0, 0.0, 0.0, 1.6518373481776495E9, 0.0, 2022-05-06 12:42:28.177
13.0, -220.81491308379918, -82.36194677418098, -141.8431856194511, -164.25640605390072, 0.144000006839633, 0.12800000607967377, 1.0240000486373901, 0.0, 0.0, 0.0, 0.0, 0.0, 1.6518373481917017E9, 0.0, 2022-05-06 12:42:28.191
13.0, -275.63062673434615, -215.52108469652012, -219.4348900001496, -222.06029976904392, 0.144000006839633, 0.12800000607967377, 1.0240000486373901, 0.0, 0.0, 0.0, 0.0, 0.0, 1.6518373481917017E9, 0.0, 2022-05-06 12:42:28.191
14.0, -317.663362336345, -257.927810294088, -265.5029776543379, -236.95258139260113, 0.144000006839633, 0.12800000607967377, 1.0240000486373901, 0.0, 0.0, 0.0, 0.0, 0.0, 1.6518373482066991E9, 0.0, 2022-05-06 12:42:28.206
14.0, -249.06611734908074, -113.98654079949483, -167.8616696111858, -177.51809129677713, 0.144000006839633, 0.12800000607967377, 1.0240000486373901, 0.0, 0.0, 0.0, 0.0, 0.0, 1.6518373482066991E9, 0.0, 2022-05-06 12:42:28.206
15.0, -205.87027286086231, -69.88190062204376, -127.1341590937227, -154.8468177653849, 0.144000006839633, 0.12800000607967377, 1.0240000486373901, 0.0, 0.0, 0.0, 0.0, 0.0, 1.6518373482076373E9, 0.0, 2022-05-06 12:42:28.207
15.0, -291.3943050475791, -229.0857018358074, -222.98405505809933, -220.11181189212948, 0.144000006839633, 0.12800000607967377, 1.0240000486373901, 0.0, 0.0, 0.0, 0.0, 0.0, 1.6518373482076373E9, 0.0, 2022-05-06 12:42:28.207
16.0, -311.1185374138877, -259.37889147689566, -263.99579797219485, -247.40560176875442, 0.144000006839633, 0.12800000607967377, 1.0240000486373901, 0.0, 0.0, 0.0, 0.0, 0.0, 1.651837348221707E9, 0.0, 2022-05-06 12:42:28.221
16.0, -249.8926352392882, -111.9258559239097, -163.39248916413635, -176.29140411131084, 0.144000006839633, 0.12800000607967377, 1.0240000486373901, 0.0, 0.0, 0.0, 0.0, 0.0, 1.651837348221707E9, 0.0, 2022-05-06 12:42:28.221
17.0, -210.2534356089309, -72.15575979510322, -128.04669468291104, -154.15867617353797, 0.144000006839633, 0.12800000607967377, 1.0240000486373901, 0.0, 0.0, 0.0, 0.0, 0.0, 1.6518373482367003E9, 0.0, 2022-05-06 12:42:28.236
17.0, -270.3087490973994, -218.3035702635534, -218.6195918098092, -226.09565182123333, 0.144000006839633, 0.12800000607967377, 1.0240000486373901, 0.0, 0.0, 0.0, 0.0, 0.0, 1.6518373482367003E9, 0.0, 2022-05-06 12:42:28.236
18.0, -317.09863744303584, -260.60183876240626, -252.95187340304255, -240.39702925179154, 0.144000006839633, 0.12800000607967377, 1.0240000486373901, 0.0, 0.0, 0.0, 0.0, 0.0, 1.6518373482516885E9, 0.0, 2022-05-06 12:42:28.251
18.0, -252.69382030609995, -114.64476319169626, -168.93876079842448, -181.54222364909947, 0.144000006839633, 0.12800000607967377, 1.0240000486373901, 0.0, 0.0, 0.0, 0.0, 0.0, 1.6518373482516885E9, 0.0, 2022-05-06 12:42:28.251
19.0, -208.48446292988956, -64.51140428567305, -117.25708331074566, -138.768987855874, 0.144000006839633, 0.12800000607967377, 1.0240000486373901, 0.0, 0.0, 0.0, 0.0, 0.0, 1.6518373482526264E9, 0.0, 2022-05-06 12:42:28.252
19.0, -266.44543244317174, -211.0406845496036, -215.85580574255437, -215.19758335035294, 0.144000006839633, 0.12800000607967377, 1.0240000486373901, 0.0, 0.0, 0.0, 0.0, 0.0, 1.6518373482526264E9, 0.0, 2022-05-06 12:42:28.252
20.0, -313.42231578659266, -253.52968794619665, -255.43142707366496, -245.64410888962448, 0.144000006839633, 0.12800000607967377, 1.0240000486373901, 0.0, 0.0, 0.0, 0.0, 0.0, 1.6518373482667224E9, 0.0, 2022-05-06 12:42:28.266
20.0, -246.75485917646438, -103.069772828836, -159.49925331026316, -165.5952902380377, 0.144000006839633, 0.12800000607967377, 1.0240000486373901, 0.0, 0.0, 0.0, 0.0, 0.0, 1.6518373482667224E9, 0.0, 2022-05-06 12:42:28.266
21.0, -202.22387040406466, -67.68657934805378, -127.50066928938031, -154.39802977070212, 0.144000006839633, 0.12800000607967377, 1.0240000486373901, 0.0, 0.0, 0.0, 0.0, 0.0, 1.6518373482676563E9, 0.0, 2022-05-06 12:42:28.267
21.0, -285.8031546138227, -222.11826821835712, -220.1043320922181, -217.4751824233681, 0.144000006839633, 0.12800000607967377, 1.0240000486373901, 0.0, 0.0, 0.0, 0.0, 0.0, 1.6518373482676563E9, 0.0, 2022-05-06 12:42:28.267
22.0, -317.1509960424155, -247.45609041815624, -248.03390496131033, -230.3292185710743, 0.12800000607967377, 0.12800000607967377, 1.0240000486373901, 0.0, 0.0, 0.0, 0.0, 0.0, 1.651837348281752E9, 0.0, 2022-05-06 12:42:28.281
22.0, -246.50054597947747, -114.2969524958171, -170.42724098078907, -183.77868382260203, 0.12800000607967377, 0.12800000607967377, 1.0240000486373901, 0.0, 0.0, 0.0, 0.0, 0.0, 1.651837348281752E9, 0.0, 2022-05-06 12:42:28.281
23.0, -210.11131941061467, -62.798530105967075, -122.94547114335, -153.4480951819569, 0.12800000607967377, 0.12800000607967377, 1.0240000486373901, 0.0, 0.0, 0.0, 0.0, 0.0, 1.6518373482967052E9, 0.0, 2022-05-06 12:42:28.296
23.0, -280.51867597643286, -220.07254294259474, -219.8500188952312, -217.68461682088673, 0.12800000607967377, 0.12800000607967377, 1.0240000486373901, 0.0, 0.0, 0.0, 0.0, 0.0, 1.6518373482967052E9, 0.0, 2022-05-06 12:42:28.296
24.0, -319.20420111808926, -250.2909345845692, -254.51889148447663, -240.35589035227895, 0.12800000607967377, 0.12800000607967377, 1.0240000486373901, 0.0, 0.0, 0.0, 0.0, 0.0, 1.651837348297645E9, 0.0, 2022-05-06 12:42:28.297
24.0, -256.76657135784626, -117.45342805841938, -167.0426315208897, -173.38924174569547, 0.12800000607967377, 0.12800000607967377, 1.0240000486373901, 0.0, 0.0, 0.0, 0.0, 0.0, 1.651837348297645E9, 0.0, 2022-05-06 12:42:28.297
25.0, -204.8044013734907, -66.02980366768315, -120.79128876887262, -150.4748747171834, 0.12800000607967377, 0.12800000607967377, 1.0240000486373901, 0.0, 0.0, 0.0, 0.0, 0.0, 1.6518373483117137E9, 0.0, 2022-05-06 12:42:28.311
25.0, -272.88928006682545, -217.162900777068, -211.78679459076375, -215.0255479523912, 0.12800000607967377, 0.12800000607967377, 1.0240000486373901, 0.0, 0.0, 0.0, 0.0, 0.0, 1.6518373483117137E9, 0.0, 2022-05-06 12:42:28.311
26.0, -317.7755593350157, -255.40711772395298, -254.13742168899626, -240.50922625046223, 0.12800000607967377, 0.12800000607967377, 1.0240000486373901, 0.0, 0.0, 0.0, 0.0, 0.0, 1.6518373483267057E9, 0.0, 2022-05-06 12:42:28.326
26.0, -247.51405886746943, -105.41095020109788, -164.41722175199538, -174.05494393780828, 0.12800000607967377, 0.12800000607967377, 1.0240000486373901, 0.0, 0.0, 0.0, 0.0, 0.0, 1.6518373483267057E9, 0.0, 2022-05-06 12:42:28.326
27.0, -193.5734818065539, -65.52117727370933, -117.38423990923911, -146.02065386995673, 0.12800000607967377, 0.12800000607967377, 1.0240000486373901, 0.0, 0.0, 0.0, 0.0, 0.0, 1.6518373483276489E9, 0.0, 2022-05-06 12:42:28.327
27.0, -255.36036897450686, -204.86984962271526, -202.03313550632447, -197.51159645989537, 0.12800000607967377, 0.12800000607967377, 1.0240000486373901, 0.0, 0.0, 0.0, 0.0, 0.0, 1.6518373483276489E9, 0.0, 2022-05-06 12:42:28.327
28.0, -327.58531691879034, -256.11769871553406, -253.66993419453502, -242.3754363283515, 0.12800000607967377, 0.12800000607967377, 1.0240000486373901, 0.0, 0.0, 0.0, 0.0, 0.0, 1.6518373483417192E9, 0.0, 2022-05-06 12:42:28.341
28.0, -242.39787572808564, -104.97712180623785, -159.43567501101643, -164.88096934650093, 0.12800000607967377, 0.12800000607967377, 1.0240000486373901, 0.0, 0.0, 0.0, 0.0, 0.0, 1.6518373483417192E9, 0.0, 2022-05-06 12:42:28.341
29.0, -212.22436288557947, -67.34998835204169, -116.95041151437908, -136.622285281308, 0.12800000607967377, 0.12800000607967377, 1.0240000486373901, 0.0, 0.0, 0.0, 0.0, 0.0, 1.651837348356728E9, 0.0, 2022-05-06 12:42:28.356
29.0, -270.5256632948294, -206.72110010078177, -200.58579422347248, -204.0975602818653, 0.12800000607967377, 0.12800000607967377, 1.0240000486373901, 0.0, 0.0, 0.0, 0.0, 0.0, 1.651837348356728E9, 0.0, 2022-05-06 12:42:28.356
30.0, -318.8975293217227, -254.3599457363598, -248.0039857616648, -250.6331354305148, 0.12800000607967377, 0.12800000607967377, 1.0240000486373901, 0.0, 0.0, 0.0, 0.0, 0.0, 1.6518373483576906E9, 0.0, 2022-05-06 12:42:28.357
30.0, -262.35772179160267, -116.65308946790174, -173.50891854427755, -182.14434754196554, 0.12800000607967377, 0.12800000607967377, 1.0240000486373901, 0.0, 0.0, 0.0, 0.0, 0.0, 1.6518373483576906E9, 0.0, 2022-05-06 12:42:28.357
31.0, -202.01443600654602, -59.48871864518151, -122.16383205261081, -157.32263153605163, 0.12800000607967377, 0.11200000531971455, 1.0240000486373901, 0.0, 0.0, 0.0, 0.0, 0.0, 1.6518373483716953E9, 0.0, 2022-05-06 12:42:28.371
31.0, -273.9514116542414, -230.23385112220421, -230.78174646571279, -226.97826821077615, 0.12800000607967377, 0.11200000531971455, 1.0240000486373901, 0.0, 0.0, 0.0, 0.0, 0.0, 1.6518373483716953E9, 0.0, 2022-05-06 12:42:28.371
32.0, -329.7170598935336, -271.87015732889995, -261.99121159594506, -255.1584143768996, 0.144000006839633, 0.11200000531971455, 1.0240000486373901, 0.0, 0.0, 0.0, 0.0, 0.0, 1.6518373483866997E9, 0.0, 2022-05-06 12:42:28.386
32.0, -250.09084993693978, -103.2904269262217, -157.38994973525405, -164.38730255234987, 0.144000006839633, 0.11200000531971455, 1.0240000486373901, 0.0, 0.0, 0.0, 0.0, 0.0, 1.6518373483866997E9, 0.0, 2022-05-06 12:42:28.386
33.0, -207.67664453946054, -70.44288561539724, -124.70322412252426, -145.85983817186207, 0.144000006839633, 0.11200000531971455, 1.0240000486373901, 0.0, 0.0, 0.0, 0.0, 0.0, 1.6518373483876648E9, 0.0, 2022-05-06 12:42:28.387
33.0, -285.96771021187305, -226.14988037059084, -227.99178109876812, -225.30279303062707, 0.144000006839633, 0.11200000531971455, 1.0240000486373901, 0.0, 0.0, 0.0, 0.0, 0.0, 1.6518373483876648E9, 0.0, 2022-05-06 12:42:28.387
34.0, -316.0664250552654, -256.0728199160658, -250.46483993250877, -244.5221389029175, 0.144000006839633, 0.11200000531971455, 1.0240000486373901, 0.0, 0.0, 0.0, 0.0, 0.0, 1.6518373484017084E9, 0.0, 2022-05-06 12:42:28.401
34.0, -240.65508234873414, -96.6932434043847, -149.09111173357815, -162.68564807251096, 0.144000006839633, 0.11200000531971455, 1.0240000486373901, 0.0, 0.0, 0.0, 0.0, 0.0, 1.6518373484017084E9, 0.0, 2022-05-06 12:42:28.401
35.0, -201.30385501496494, -71.09362820768729, -130.03258155938238, -151.7800998017192, 0.144000006839633, 0.11200000531971455, 1.0240000486373901, 0.0, 0.0, 0.0, 0.0, 0.0, 1.6518373484167027E9, 0.0, 2022-05-06 12:42:28.416
35.0, -284.9953362233937, -223.0158442077227, -212.70680997986346, -218.79536710772663, 0.144000006839633, 0.11200000531971455, 1.0240000486373901, 0.0, 0.0, 0.0, 0.0, 0.0, 1.6518373484167027E9, 0.0, 2022-05-06 12:42:28.416
36.0, -316.35065745189786, -251.01647517597303, -261.47510540205985, -228.17503619659692, 0.144000006839633, 0.11200000531971455, 1.0240000486373901, 0.0, 0.0, 0.0, 0.0, 0.0, 1.6518373484176748E9, 0.0, 2022-05-06 12:42:28.417
36.0, -249.03619814943522, -106.8844707836397, -160.12755650281906, -173.1237088488415, 0.144000006839633, 0.11200000531971455, 1.0240000486373901, 0.0, 0.0, 0.0, 0.0, 0.0, 1.6518373484176748E9, 0.0, 2022-05-06 12:42:28.417
37.0, -206.67061145137995, -76.9091726387851, -129.94282396044582, -156.88132334128022, 0.144000006839633, 0.11200000531971455, 1.0240000486373901, 0.0, 0.0, 0.0, 0.0, 0.0, 1.6518373484317367E9, 0.0, 2022-05-06 12:42:28.431
37.0, -281.74536316189915, -226.71086536394432, -220.70645598508418, -224.2967599425465, 0.144000006839633, 0.11200000531971455, 1.0240000486373901, 0.0, 0.0, 0.0, 0.0, 0.0, 1.6518373484317367E9, 0.0, 2022-05-06 12:42:28.431
38.0, -318.1981680300087, -249.8010076903738, -255.34914927463979, -239.5966906612739, 0.144000006839633, 0.11200000531971455, 1.0240000486373901, 0.0, 0.0, 0.0, 0.0, 0.0, 1.6518373484467595E9, 0.0, 2022-05-06 12:42:28.446
38.0, -229.8542512767017, -90.20077708130702, -151.21537490841, -150.19438222050667, 0.144000006839633, 0.11200000531971455, 1.0240000486373901, 0.0, 0.0, 0.0, 0.0, 0.0, 1.6518373484467595E9, 0.0, 2022-05-06 12:42:28.446
39.0, -204.426671477966, -64.54506338527426, -125.41006521414965, -148.57126563973725, 0.144000006839633, 0.11200000531971455, 1.0240000486373901, 0.0, 0.0, 0.0, 0.0, 0.0, 1.651837348447653E9, 0.0, 2022-05-06 12:42:28.447
39.0, -279.4303650893271, -214.58236980764195, -204.41545177809894, -221.72370877303183, 0.144000006839633, 0.11200000531971455, 1.0240000486373901, 0.0, 0.0, 0.0, 0.0, 0.0, 1.651837348447653E9, 0.0, 2022-05-06 12:42:28.447
40.0, -311.6271638078615, -247.08584032254294, -250.72663292940706, -234.5141666214913, 0.144000006839633, 0.11200000531971455, 1.0240000486373901, 0.0, 0.0, 0.0, 0.0, 0.0, 1.651837348461692E9, 0.0, 2022-05-06 12:42:28.461
40.0, -263.0944820828736, -115.98364737583324, -166.55270462669432, -175.20683312416077, 0.144000006839633, 0.11200000531971455, 1.0240000486373901, 0.0, 0.0, 0.0, 0.0, 0.0, 1.651837348461692E9, 0.0, 2022-05-06 12:42:28.461
41.0, -209.15764492191374, -69.11148123117164, -122.15635225269943, -138.27532106172293, 0.144000006839633, 0.12800000607967377, 1.0240000486373901, 0.0, 0.0, 0.0, 0.0, 0.0, 1.6518373484766896E9, 0.0, 2022-05-06 12:42:28.476
41.0, -283.33482064306736, -228.92488613771275, -222.92795655876398, -226.7763136131689, 0.144000006839633, 0.12800000607967377, 1.0240000486373901, 0.0, 0.0, 0.0, 0.0, 0.0, 1.6518373484766896E9, 0.0, 2022-05-06 12:42:28.476
42.0, -308.2126351483166, -248.31252750800923, -247.23730627074838, -246.27615198213607, 0.144000006839633, 0.12800000607967377, 1.0240000486373901, 0.0, 0.0, 0.0, 0.0, 0.0, 1.6518373484776552E9, 0.0, 2022-05-06 12:42:28.477
42.0, -245.51695229113102, -100.5827393583022, -166.6312425257638, -167.48019981570542, 0.144000006839633, 0.12800000607967377, 1.0240000486373901, 0.0, 0.0, 0.0, 0.0, 0.0, 1.6518373484776552E9, 0.0, 2022-05-06 12:42:28.477
43.0, -202.70257759839296, -69.69864552421495, -119.242970187217, -144.49851458799094, 0.144000006839633, 0.12800000607967377, 1.0240000486373901, 0.0, 0.0, 0.0, 0.0, 0.0, 1.6518373484917367E9, 0.0, 2022-05-06 12:42:28.491
43.0, -279.48272368870676, -224.54920318955556, -221.15898387972265, -224.8502651359886, 0.144000006839633, 0.12800000607967377, 1.0240000486373901, 0.0, 0.0, 0.0, 0.0, 0.0, 1.6518373484917367E9, 0.0, 2022-05-06 12:42:28.491
44.0, -317.24449354130775, -250.2834547846578, -249.8552362397313, -234.5216464214027, 0.144000006839633, 0.12800000607967377, 1.0240000486373901, 0.0, 0.0, 0.0, 0.0, 0.0, 1.651837348506714E9, 0.0, 2022-05-06 12:42:28.506
44.0, -245.29629819374532, -94.29970743274316, -169.40250839293003, -158.73257381934673, 0.144000006839633, 0.12800000607967377, 1.0240000486373901, 0.0, 0.0, 0.0, 0.0, 0.0, 1.651837348506714E9, 0.0, 2022-05-06 12:42:28.506
45.0, -213.90357796568424, -74.36978056887165, -132.8449863260612, -165.36341644078493, 0.144000006839633, 0.12800000607967377, 1.0240000486373901, 0.0, 0.0, 0.0, 0.0, 0.0, 1.6518373485076532E9, 0.0, 2022-05-06 12:42:28.507
45.0, -270.36484759673476, -226.32565566850826, -216.93663682974875, -222.45672916434705, 0.144000006839633, 0.12800000607967377, 1.0240000486373901, 0.0, 0.0, 0.0, 0.0, 0.0, 1.6518373485076532E9, 0.0, 2022-05-06 12:42:28.507
46.0, -311.6271638078615, -244.64742555143312, -239.66400886047632, -230.23946097213775, 0.144000006839633, 0.12800000607967377, 1.0240000486373901, 0.0, 0.0, 0.0, 0.0, 0.0, 1.6518373485216901E9, 0.0, 2022-05-06 12:42:28.521
46.0, -255.3416694747284, -104.59191211080179, -157.47596743423492, -170.97700627427548, 0.144000006839633, 0.12800000607967377, 1.0240000486373901, 0.0, 0.0, 0.0, 0.0, 0.0, 1.6518373485216901E9, 0.0, 2022-05-06 12:42:28.521
47.0, -210.6947438037023, -77.16348583577201, -129.19110406935215, -150.54219291638583, 0.144000006839633, 0.12800000607967377, 1.0240000486373901, 0.0, 0.0, 0.0, 0.0, 0.0, 1.6518373485366917E9, 0.0, 2022-05-06 12:42:28.536
47.0, -273.88783335499465, -222.08086921880022, -214.18781036231667, -225.82263912446797, 0.144000006839633, 0.12800000607967377, 1.0240000486373901, 0.0, 0.0, 0.0, 0.0, 0.0, 1.6518373485366917E9, 0.0, 2022-05-06 12:42:28.536
48.0, -310.897883316502, -248.9894493999891, -257.7875640457496, -233.7362674307078, 0.144000006839633, 0.12800000607967377, 1.0240000486373901, 0.0, 0.0, 0.0, 0.0, 0.0, 1.651837348537696E9, 0.0, 2022-05-06 12:42:28.537
48.0, -230.38905697036535, -97.25422839773819, -151.64546340331435, -163.1568754669279, 0.144000006839633, 0.12800000607967377, 1.0240000486373901, 0.0, 0.0, 0.0, 0.0, 0.0, 1.651837348537696E9, 0.0, 2022-05-06 12:42:28.537
49.0, -210.74336250312626, -77.3504808335565, -128.11775278206915, -149.26314713153988, 0.144000006839633, 0.12800000607967377, 1.0240000486373901, 0.0, 0.0, 0.0, 0.0, 0.0, 1.6518373485517387E9, 0.0, 2022-05-06 12:42:28.551
49.0, -282.6242396514863, -229.23155793407932, -229.850511376746, -230.94256216380745, 0.144000006839633, 0.12800000607967377, 1.0240000486373901, 0.0, 0.0, 0.0, 0.0, 0.0, 1.6518373485517387E9, 0.0, 2022-05-06 12:42:28.551
50.0, -302.5953054148704, -245.23832974443212, -241.24224664177746, -232.90226974058896, 0.144000006839633, 0.12800000607967377, 1.0240000486373901, 0.0, 0.0, 0.0, 0.0, 0.0, 1.651837348566685E9, 0.0, 2022-05-06 12:42:28.566
50.0, -241.5638780379668, -98.50335498293862, -148.477768140845, -153.09280468616635, 0.144000006839633, 0.12800000607967377, 1.0240000486373901, 0.0, 0.0, 0.0, 0.0, 0.0, 1.651837348566685E9, 0.0, 2022-05-06 12:42:28.566
51.0, -203.84698698483407, -76.56510184286162, -123.14368584100157, -153.2162213847041, 0.144000006839633, 0.11200000531971455, 1.0240000486373901, 0.0, 0.0, 0.0, 0.0, 0.0, 1.651837348567643E9, 0.0, 2022-05-06 12:42:28.567
51.0, -272.3095955736935, -228.4573986432515, -218.60837210994214, -222.12761796824634, 0.144000006839633, 0.11200000531971455, 1.0240000486373901, 0.0, 0.0, 0.0, 0.0, 0.0, 1.651837348567643E9, 0.0, 2022-05-06 12:42:28.567
52.0, -317.02009954396635, -248.31626740796492, -249.27929164655507, -227.27372030727565, 0.144000006839633, 0.11200000531971455, 1.0240000486373901, 0.0, 0.0, 0.0, 0.0, 0.0, 1.651837348581704E9, 0.0, 2022-05-06 12:42:28.581
52.0, -240.7859788471833, -95.28330112108961, -148.57126563973725, -158.39598282333463, 0.144000006839633, 0.11200000531971455, 1.0240000486373901, 0.0, 0.0, 0.0, 0.0, 0.0, 1.651837348581704E9, 0.0, 2022-05-06 12:42:28.581
53.0, -208.37600583117455, -73.73025767644867, -136.42033068370074, -155.3666638592258, 0.144000006839633, 0.11200000531971455, 1.0240000486373901, 0.0, 0.0, 0.0, 0.0, 0.0, 1.651837348596695E9, 0.0, 2022-05-06 12:42:28.596
53.0, -275.3950130371377, -220.73824513470754, -214.30000736098737, -212.08224668726325, 0.144000006839633, 0.11200000531971455, 1.0240000486373901, 0.0, 0.0, 0.0, 0.0, 0.0, 1.651837348596695E9, 0.0, 2022-05-06 12:42:28.596
54.0, -303.7359749013558, -243.77976876171306, -252.46568640880287, -229.21472838427871, 0.144000006839633, 0.11200000531971455, 1.0240000486373901, 0.0, 0.0, 0.0, 0.0, 0.0, 1.6518373485976462E9, 0.0, 2022-05-06 12:42:28.597
54.0, -239.21522086579353, -103.45124262431636, -168.2319197067991, -172.76093855313957, 0.144000006839633, 0.11200000531971455, 1.0240000486373901, 0.0, 0.0, 0.0, 0.0, 0.0, 1.6518373485976462E9, 0.0, 2022-05-06 12:42:28.597
55.0, -209.61017281655222, -78.49115032004192, -123.97394363116473, -158.75501321908087, 0.144000006839633, 0.11200000531971455, 1.0240000486373901, 0.0, 0.0, 0.0, 0.0, 0.0, 1.6518373486116862E9, 0.0, 2022-05-06 12:42:28.611
55.0, -271.6925120810047, -225.9367060731165, -217.72201582044363, -221.91444367077202, 0.144000006839633, 0.11200000531971455, 1.0240000486373901, 0.0, 0.0, 0.0, 0.0, 0.0, 1.6518373486116862E9, 0.0, 2022-05-06 12:42:28.611
56.0, -315.9280487569049, -254.0644936398603, -259.24612502846867, -256.347702562809, 0.144000006839633, 0.11200000531971455, 1.0240000486373901, 0.0, 0.0, 0.0, 0.0, 0.0, 1.6518373486276941E9, 0.0, 2022-05-06 12:42:28.627
56.0, -248.5275717554614, -99.14287787536159, -163.51590586267412, -170.24398588296026, 0.144000006839633, 0.11200000531971455, 1.0240000486373901, 0.0, 0.0, 0.0, 0.0, 0.0, 1.6518373486276941E9, 0.0, 2022-05-06 12:42:28.627
57.0, -209.5802536169067, -73.04959588451311, -117.38423990923911, -149.34916483052075, 0.144000006839633, 0.11200000531971455, 1.0240000486373901, 0.0, 0.0, 0.0, 0.0, 0.0, 1.651837348628661E9, 0.0, 2022-05-06 12:42:28.628
57.0, -274.17954555153847, -222.59697541268542, -217.50510162301362, -220.30254678986967, 0.144000006839633, 0.11200000531971455, 1.0240000486373901, 0.0, 0.0, 0.0, 0.0, 0.0, 1.651837348628661E9, 0.0, 2022-05-06 12:42:28.628
58.0, -308.8858171403408, -243.8396071610041, -247.2709653703496, -236.90770259313285, 0.144000006839633, 0.11200000531971455, 1.0240000486373901, 0.0, 0.0, 0.0, 0.0, 0.0, 1.651837348641714E9, 0.0, 2022-05-06 12:42:28.641
58.0, -236.77306619472802, -96.14347811089829, -164.89966884627938, -161.84417058248073, 0.144000006839633, 0.11200000531971455, 1.0240000486373901, 0.0, 0.0, 0.0, 0.0, 0.0, 1.651837348641714E9, 0.0, 2022-05-06 12:42:28.641
59.0, -213.81382036674768, -85.30150813935325, -136.45024988334626, -163.06337796803564, 0.144000006839633, 0.11200000531971455, 1.0240000486373901, 0.0, 0.0, 0.0, 0.0, 0.0, 1.6518373486577027E9, 0.0, 2022-05-06 12:42:28.657
59.0, -274.66947244573385, -221.50118472566828, -213.92975726537406, -221.1440242798999, 0.144000006839633, 0.11200000531971455, 1.0240000486373901, 0.0, 0.0, 0.0, 0.0, 0.0, 1.6518373486577027E9, 0.0, 2022-05-06 12:42:28.657
60.0, -306.26788717135787, -248.45838360628113, -249.09229664877057, -233.35105773527175, 0.144000006839633, 0.11200000531971455, 1.0240000486373901, 0.0, 0.0, 0.0, 0.0, 0.0, 1.6518373486586285E9, 0.0, 2022-05-06 12:42:28.658
60.0, -236.556151997298, -96.2855943092145, -155.06747186277062, -166.17497473116964, 0.144000006839633, 0.11200000531971455, 1.0240000486373901, 0.0, 0.0, 0.0, 0.0, 0.0, 1.6518373486586285E9, 0.0, 2022-05-06 12:42:28.658
61.0, -204.58748717606068, -75.06166206067428, -126.0608078064397, -152.3298650952056, 0.144000006839633, 0.12800000607967377, 1.0240000486373901, 0.0, 0.0, 0.0, 0.0, 0.0, 1.6518373486716936E9, 0.0, 2022-05-06 12:42:28.671
61.0, -276.00835662987083, -226.9464790611528, -206.5434548528865, -218.9973217053339, 0.144000006839633, 0.12800000607967377, 1.0240000486373901, 0.0, 0.0, 0.0, 0.0, 0.0, 1.6518373486716936E9, 0.0, 2022-05-06 12:42:28.671
62.0, -312.7827928941697, -248.78749480238184, -259.11148863006383, -241.35070374049246, 0.144000006839633, 0.12800000607967377, 1.0240000486373901, 0.0, 0.0, 0.0, 0.0, 0.0, 1.6518373486866856E9, 0.0, 2022-05-06 12:42:28.686
62.0, -237.1096571907401, -90.70940347528085, -151.89977660030127, -164.27510555367917, 0.144000006839633, 0.12800000607967377, 1.0240000486373901, 0.0, 0.0, 0.0, 0.0, 0.0, 1.6518373486866856E9, 0.0, 2022-05-06 12:42:28.686
63.0, -203.11396659351885, -74.17530577117577, -120.11062697693706, -147.23986125551164, 0.144000006839633, 0.12800000607967377, 1.0240000486373901, 0.0, 0.0, 0.0, 0.0, 0.0, 1.6518373486876557E9, 0.0, 2022-05-06 12:42:28.687
63.0, -267.48138473089784, -228.04600964812562, -220.8784913830459, -217.01891462877393, 0.144000006839633, 0.12800000607967377, 1.0240000486373901, 0.0, 0.0, 0.0, 0.0, 0.0, 1.6518373486876557E9, 0.0, 2022-05-06 12:42:28.687
64.0, -302.3185528181493, -241.56574798794463, -245.782485187985, -231.5895648561418, 0.144000006839633, 0.12800000607967377, 1.0240000486373901, 0.0, 0.0, 0.0, 0.0, 0.0, 1.651837348701689E9, 0.0, 2022-05-06 12:42:28.701
64.0, -243.81155791133642, -90.58598677674308, -148.39549034181982, -164.86226984672248, 0.144000006839633, 0.12800000607967377, 1.0240000486373901, 0.0, 0.0, 0.0, 0.0, 0.0, 1.651837348701689E9, 0.0, 2022-05-06 12:42:28.701
65.0, -212.23932248540223, -83.52505566040054, -126.99952269531786, -153.57899168040603, 0.144000006839633, 0.12800000607967377, 1.0240000486373901, 0.0, 0.0, 0.0, 0.0, 0.0, 1.6518373487167113E9, 0.0, 2022-05-06 12:42:28.716
65.0, -278.45425120089203, -227.13721395889297, -221.85834517143667, -206.26296235620975, 0.144000006839633, 0.12800000607967377, 1.0240000486373901, 0.0, 0.0, 0.0, 0.0, 0.0, 1.6518373487167113E9, 0.0, 2022-05-06 12:42:28.716
66.0, -313.09694449044764, -246.12094613397494, -247.70105386525393, -247.54771796707064, 0.144000006839633, 0.12800000607967377, 1.0240000486373901, 0.0, 0.0, 0.0, 0.0, 0.0, 1.6518373487176552E9, 0.0, 2022-05-06 12:42:28.717
66.0, -222.69234286155552, -84.32539425091818, -140.5865792343393, -158.24264692515135, 0.144000006839633, 0.12800000607967377, 1.0240000486373901, 0.0, 0.0, 0.0, 0.0, 0.0, 1.6518373487176552E9, 0.0, 2022-05-06 12:42:28.717
67.0, -209.75976881477982, -83.19594446429983, -130.23079625703394, -151.57440530415624, 0.144000006839633, 0.12800000607967377, 1.0240000486373901, 0.0, 0.0, 0.0, 0.0, 0.0, 1.651837348731711E9, 0.0, 2022-05-06 12:42:28.731
67.0, -278.82450129650533, -233.88025357900187, -230.19832207262516, -236.32427820004523, 0.144000006839633, 0.12800000607967377, 1.0240000486373901, 0.0, 0.0, 0.0, 0.0, 0.0, 1.651837348731711E9, 0.0, 2022-05-06 12:42:28.731
68.0, -313.6242703841999, -252.41145785944536, -257.28641745168716, -246.42574798036367, 0.144000006839633, 0.12800000607967377, 1.0240000486373901, 0.0, 0.0, 0.0, 0.0, 0.0, 1.6518373487476947E9, 0.0, 2022-05-06 12:42:28.747
68.0, -231.9261558521539, -92.02210835972801, -157.004740039818, -163.73655996005982, 0.144000006839633, 0.12800000607967377, 1.0240000486373901, 0.0, 0.0, 0.0, 0.0, 0.0, 1.6518373487476947E9, 0.0, 2022-05-06 12:42:28.747
69.0, -191.81198892742395, -66.26541736489162, -117.84798750374466, -146.27496706694365, 0.144000006839633, 0.12800000607967377, 1.0240000486373901, 0.0, 0.0, 0.0, 0.0, 0.0, 1.6518373487486315E9, 0.0, 2022-05-06 12:42:28.748
69.0, -285.100053422153, -224.13781419442967, -229.49148098099977, -226.05077302176505, 0.144000006839633, 0.12800000607967377, 1.0240000486373901, 0.0, 0.0, 0.0, 0.0, 0.0, 1.6518373487486315E9, 0.0, 2022-05-06 12:42:28.748
70.0, -303.0029545100406, -233.39780648471788, -239.61539016105235, -217.12737172748893, 0.144000006839633, 0.12800000607967377, 1.0240000486373901, 0.0, 0.0, 0.0, 0.0, 0.0, 1.6518373487616923E9, 0.0, 2022-05-06 12:42:28.761
70.0, -239.95198115706444, -93.77238153899089, -155.49756035767496, -161.93766808137298, 0.144000006839633, 0.12800000607967377, 1.0240000486373901, 0.0, 0.0, 0.0, 0.0, 0.0, 1.6518373487616923E9, 0.0, 2022-05-06 12:42:28.761
71.0, -202.11167340539396, -79.76645620493218, -127.68392438720912, -153.5528123807162, 0.144000006839633, 0.12800000607967377, 1.0240000486373901, 0.0, 0.0, 0.0, 0.0, 0.0, 1.651837348776683E9, 0.0, 2022-05-06 12:42:28.776
71.0, -278.3570138020441, -228.22552484599873, -215.89694464206696, -221.4020773768425, 0.144000006839633, 0.12800000607967377, 1.0240000486373901, 0.0, 0.0, 0.0, 0.0, 0.0, 1.651837348776683E9, 0.0, 2022-05-06 12:42:28.776
72.0, -310.9203227162361, -245.4365444420837, -246.8969753747806, -239.3386375643313, 0.12800000607967377, 0.12800000607967377, 1.0240000486373901, 0.0, 0.0, 0.0, 0.0, 0.0, 1.651837348777642E9, 0.0, 2022-05-06 12:42:28.777
72.0, -236.16346250195056, -91.90243156114593, -162.21442067809403, -168.75550570059568, 0.12800000607967377, 0.12800000607967377, 1.0240000486373901, 0.0, 0.0, 0.0, 0.0, 0.0, 1.651837348777642E9, 0.0, 2022-05-06 12:42:28.777
73.0, -192.96761801373214, -79.97215070249513, -126.36373970285058, -153.79590587783605, 0.12800000607967377, 0.12800000607967377, 1.0240000486373901, 0.0, 0.0, 0.0, 0.0, 0.0, 1.6518373487917428E9, 0.0, 2022-05-06 12:42:28.791
73.0, -277.8334278082475, -225.19246598193422, -215.04798735212535, -218.97114240564406, 0.12800000607967377, 0.12800000607967377, 1.0240000486373901, 0.0, 0.0, 0.0, 0.0, 0.0, 1.6518373487917428E9, 0.0, 2022-05-06 12:42:28.791
74.0, -302.5167675158009, -236.59542094683275, -239.3386375643313, -227.46071530506015, 0.12800000607967377, 0.12800000607967377, 1.0240000486373901, 0.0, 0.0, 0.0, 0.0, 0.0, 1.6518373488067172E9, 0.0, 2022-05-06 12:42:28.806
74.0, -234.09903772640973, -88.36448620306328, -145.05201978143305, -155.00763346347958, 0.12800000607967377, 0.12800000607967377, 1.0240000486373901, 0.0, 0.0, 0.0, 0.0, 0.0, 1.6518373488067172E9, 0.0, 2022-05-06 12:42:28.806
75.0, -199.74431673344225, -72.82520188717172, -117.45903790835291, -143.34288550168276, 0.12800000607967377, 0.12800000607967377, 1.0240000486373901, 0.0, 0.0, 0.0, 0.0, 0.0, 1.6518373488077097E9, 0.0, 2022-05-06 12:42:28.807
75.0, -268.77539011556655, -221.61338172433898, -222.82697925996035, -219.35635210108012, 0.12800000607967377, 0.12800000607967377, 1.0240000486373901, 0.0, 0.0, 0.0, 0.0, 0.0, 1.6518373488077097E9, 0.0, 2022-05-06 12:42:28.807
76.0, -301.89968402311206, -235.9484182544984, -240.53166565019637, -225.8450785242021, 0.12800000607967377, 0.12800000607967377, 1.0240000486373901, 0.0, 0.0, 0.0, 0.0, 0.0, 1.651837348821691E9, 0.0, 2022-05-06 12:42:28.821
76.0, -237.49112698622048, -97.85261239064857, -159.67502860818058, -170.95830677449703, 0.12800000607967377, 0.12800000607967377, 1.0240000486373901, 0.0, 0.0, 0.0, 0.0, 0.0, 1.651837348821691E9, 0.0, 2022-05-06 12:42:28.821
77.0, -206.04978805873543, -74.96816456178203, -127.71010368689895, -153.17508248519152, 0.12800000607967377, 0.12800000607967377, 1.0240000486373901, 0.0, 0.0, 0.0, 0.0, 0.0, 1.6518373488376892E9, 0.0, 2022-05-06 12:42:28.837
77.0, -275.282816038467, -228.9061866379343, -212.6170523809269, -221.60403197444975, 0.12800000607967377, 0.12800000607967377, 1.0240000486373901, 0.0, 0.0, 0.0, 0.0, 0.0, 1.6518373488376892E9, 0.0, 2022-05-06 12:42:28.837
78.0, -313.0707651907578, -247.4336510184221, -259.3097033277154, -227.0381066100672, 0.12800000607967377, 0.12800000607967377, 1.0240000486373901, 0.0, 0.0, 0.0, 0.0, 0.0, 1.651837348838669E9, 0.0, 2022-05-06 12:42:28.838
78.0, -219.45732939988375, -82.74341656966135, -153.60517098009586, -156.68684854358435, 0.12800000607967377, 0.12800000607967377, 1.0240000486373901, 0.0, 0.0, 0.0, 0.0, 0.0, 1.651837348838669E9, 0.0, 2022-05-06 12:42:28.838
79.0, -198.89535944350064, -66.72542505944148, -117.32814140990376, -148.33939184248447, 0.12800000607967377, 0.12800000607967377, 1.0240000486373901, 0.0, 0.0, 0.0, 0.0, 0.0, 1.6518373488516774E9, 0.0, 2022-05-06 12:42:28.851
79.0, -275.48851053602993, -226.55004966584966, -215.79222744330764, -220.70645598508418, 0.12800000607967377, 0.12800000607967377, 1.0240000486373901, 0.0, 0.0, 0.0, 0.0, 0.0, 1.6518373488516774E9, 0.0, 2022-05-06 12:42:28.851
80.0, -313.4110960867256, -247.5047091175802, -249.4139280449599, -228.73228128999472, 0.12800000607967377, 0.12800000607967377, 1.0240000486373901, 0.0, 0.0, 0.0, 0.0, 0.0, 1.6518373488666873E9, 0.0, 2022-05-06 12:42:28.866
80.0, -235.25092691276222, -83.97384365508333, -144.992181382142, -163.28403206542134, 0.12800000607967377, 0.12800000607967377, 1.0240000486373901, 0.0, 0.0, 0.0, 0.0, 0.0, 1.6518373488666873E9, 0.0, 2022-05-06 12:42:28.866
81.0, -204.48650987725705, -77.54495563125238, -127.55302788875997, -151.24529410805553, 0.12800000607967377, 0.12800000607967377, 1.0240000486373901, 0.0, 0.0, 0.0, 0.0, 0.0, 1.651837348867652E9, 0.0, 2022-05-06 12:42:28.867
81.0, -262.84016888588667, -221.6844398234971, -227.02688691020012, -213.07332017552108, 0.12800000607967377, 0.12800000607967377, 1.0240000486373901, 0.0, 0.0, 0.0, 0.0, 0.0, 1.651837348867652E9, 0.0, 2022-05-06 12:42:28.867
82.0, -300.6318579381332, -233.58854138245806, -238.26902617700398, -230.64711006730795, 0.12800000607967377, 0.12800000607967377, 1.0240000486373901, 0.0, 0.0, 0.0, 0.0, 0.0, 1.65183734888175E9, 0.0, 2022-05-06 12:42:28.881
82.0, -246.3359903814271, -95.45907641900703, -162.4874333748594, -175.99221211485565, 0.12800000607967377, 0.12800000607967377, 1.0240000486373901, 0.0, 0.0, 0.0, 0.0, 0.0, 1.65183734888175E9, 0.0, 2022-05-06 12:42:28.881
83.0, -208.25632903259248, -85.49598293704912, -134.14647151064128, -158.47078082244843, 0.12800000607967377, 0.12800000607967377, 1.0240000486373901, 0.0, 0.0, 0.0, 0.0, 0.0, 1.6518373488967087E9, 0.0, 2022-05-06 12:42:28.896
83.0, -281.70796416234225, -230.1665329230018, -220.68027668539435, -219.41993040032685, 0.12800000607967377, 0.12800000607967377, 1.0240000486373901, 0.0, 0.0, 0.0, 0.0, 0.0, 1.6518373488967087E9, 0.0, 2022-05-06 12:42:28.896
84.0, -297.0340741807595, -248.12553251022473, -251.17916082404554, -235.5164598096162, 0.12800000607967377, 0.12800000607967377, 1.0240000486373901, 0.0, 0.0, 0.0, 0.0, 0.0, 1.6518373488976355E9, 0.0, 2022-05-06 12:42:28.897
84.0, -243.24683301802725, -102.89025763096288, -165.07170424424112, -165.2287800423801, 0.12800000607967377, 0.12800000607967377, 1.0240000486373901, 0.0, 0.0, 0.0, 0.0, 0.0, 1.6518373488976355E9, 0.0, 2022-05-06 12:42:28.897
85.0, -208.2077103331685, -87.8745593088679, -132.11944573465735, -151.84367810096592, 0.12800000607967377, 0.12800000607967377, 1.0240000486373901, 0.0, 0.0, 0.0, 0.0, 0.0, 1.6518373489117436E9, 0.0, 2022-05-06 12:42:28.911
85.0, -278.7310037976131, -237.2386837392114, -218.98610200546682, -226.48834131658077, 0.12800000607967377, 0.12800000607967377, 1.0240000486373901, 0.0, 0.0, 0.0, 0.0, 0.0, 1.6518373489117436E9, 0.0, 2022-05-06 12:42:28.911
86.0, -301.67529002577066, -235.37247366132215, -239.10302386712283, -232.0682720504701, 0.12800000607967377, 0.12800000607967377, 1.0240000486373901, 0.0, 0.0, 0.0, 0.0, 0.0, 1.6518373489266834E9, 0.0, 2022-05-06 12:42:28.926
86.0, -223.8891108473763, -79.27278941078112, -139.05696015246212, -161.27944568917155, 0.12800000607967377, 0.12800000607967377, 1.0240000486373901, 0.0, 0.0, 0.0, 0.0, 0.0, 1.6518373489266834E9, 0.0, 2022-05-06 12:42:28.926
87.0, -203.08030749391764, -75.28979595797136, -124.50874932482839, -152.9619081877172, 0.12800000607967377, 0.12800000607967377, 1.0240000486373901, 0.0, 0.0, 0.0, 0.0, 0.0, 1.651837348927692E9, 0.0, 2022-05-06 12:42:28.927
87.0, -277.0966675169766, -231.29224280966446, -222.0266406694427, -217.02265452872962, 0.12800000607967377, 0.12800000607967377, 1.0240000486373901, 0.0, 0.0, 0.0, 0.0, 0.0, 1.651837348927692E9, 0.0, 2022-05-06 12:42:28.927
88.0, -296.63390488550067, -235.13685996411368, -245.65158868953586, -230.61719086766243, 0.12800000607967377, 0.12800000607967377, 1.0240000486373901, 0.0, 0.0, 0.0, 0.0, 0.0, 1.6518373489417272E9, 0.0, 2022-05-06 12:42:28.941
88.0, -228.42934939358383, -87.78106180997565, -147.7709270492196, -168.43761420436203, 0.12800000607967377, 0.12800000607967377, 1.0240000486373901, 0.0, 0.0, 0.0, 0.0, 0.0, 1.6518373489417272E9, 0.0, 2022-05-06 12:42:28.941
89.0, -209.0304883234203, -86.40477862628177, -133.24141572136432, -157.63678313232958, 0.12800000607967377, 0.12800000607967377, 1.0240000486373901, 0.0, 0.0, 0.0, 0.0, 0.0, 1.6518373489566824E9, 0.0, 2022-05-06 12:42:28.956
89.0, -283.30864134337753, -237.01054984191433, -231.83265835326165, -226.53696001600474, 0.12800000607967377, 0.12800000607967377, 1.0240000486373901, 0.0, 0.0, 0.0, 0.0, 0.0, 1.6518373489566824E9, 0.0, 2022-05-06 12:42:28.956
90.0, -299.693143049255, -225.48417817847803, -230.43393576983362, -222.68486306164414, 0.12800000607967377, 0.12800000607967377, 1.0240000486373901, 0.0, 0.0, 0.0, 0.0, 0.0, 1.6518373489576719E9, 0.0, 2022-05-06 12:42:28.957
90.0, -218.46625591162592, -77.88154662726447, -141.52529412321746, -151.27521330770105, 0.12800000607967377, 0.12800000607967377, 1.0240000486373901, 0.0, 0.0, 0.0, 0.0, 0.0, 1.6518373489576719E9, 0.0, 2022-05-06 12:42:28.957
91.0, -207.56818744074553, -80.81362819252536, -125.92991130799055, -154.13249687384814, 0.12800000607967377, 0.12800000607967377, 1.0240000486373901, 0.0, 0.0, 0.0, 0.0, 0.0, 1.651837348971688E9, 0.0, 2022-05-06 12:42:28.971
91.0, -279.93151168338954, -231.58769490616396, -225.71792192570865, -218.89260450657457, 0.12800000607967377, 0.12800000607967377, 1.0240000486373901, 0.0, 0.0, 0.0, 0.0, 0.0, 1.651837348971688E9, 0.0, 2022-05-06 12:42:28.971
92.0, -289.18776407372206, -222.1220081183128, -226.13305082079023, -206.03856835886836, 0.144000006839633, 0.12800000607967377, 1.0240000486373901, 0.0, 0.0, 0.0, 0.0, 0.0, 1.651837348986683E9, 0.0, 2022-05-06 12:42:28.986
92.0, -231.9635548517108, -83.13610606500879, -153.53411288093776, -162.3378373766318, 0.144000006839633, 0.12800000607967377, 1.0240000486373901, 0.0, 0.0, 0.0, 0.0, 0.0, 1.651837348986683E9, 0.0, 2022-05-06 12:42:28.986
93.0, -198.47275074850768, -77.5000768317841, -124.0973603297025, -155.13852996192873, 0.144000006839633, 0.12800000607967377, 1.0240000486373901, 0.0, 0.0, 0.0, 0.0, 0.0, 1.6518373489876573E9, 0.0, 2022-05-06 12:42:28.987
93.0, -281.4237317657098, -235.86240055551752, -222.16875686775893, -230.57979186810553, 0.144000006839633, 0.12800000607967377, 1.0240000486373901, 0.0, 0.0, 0.0, 0.0, 0.0, 1.6518373489876573E9, 0.0, 2022-05-06 12:42:28.987
94.0, -302.804739812389, -241.8425005846657, -237.8164982823655, -230.23946097213775, 0.144000006839633, 0.12800000607967377, 1.0240000486373901, 0.0, 0.0, 0.0, 0.0, 0.0, 1.651837349001747E9, 0.0, 2022-05-06 12:42:29.001
94.0, -230.5910115679726, -84.41515184985474, -150.84138491284102, -155.36292395927012, 0.144000006839633, 0.12800000607967377, 1.0240000486373901, 0.0, 0.0, 0.0, 0.0, 0.0, 1.651837349001747E9, 0.0, 2022-05-06 12:42:29.001
95.0, -209.78594811446965, -91.56210066517815, -141.63375122193247, -157.69662153162062, 0.144000006839633, 0.12800000607967377, 1.0240000486373901, 0.0, 0.0, 0.0, 0.0, 0.0, 1.6518373490166898E9, 0.0, 2022-05-06 12:42:29.016
95.0, -279.8342742845416, -236.36728704953566, -228.08901849761605, -233.64276993181556, 0.144000006839633, 0.12800000607967377, 1.0240000486373901, 0.0, 0.0, 0.0, 0.0, 0.0, 1.6518373490166898E9, 0.0, 2022-05-06 12:42:29.016
96.0, -307.19912226032466, -239.21709081577137, -234.35335092339665, -230.4825544692576, 0.144000006839633, 0.12800000607967377, 1.0240000486373901, 0.0, 0.0, 0.0, 0.0, 0.0, 1.6518373490176556E9, 0.0, 2022-05-06 12:42:29.017
96.0, -218.23064221441746, -81.21005758782849, -147.19498245604336, -149.39778352994472, 0.144000006839633, 0.12800000607967377, 1.0240000486373901, 0.0, 0.0, 0.0, 0.0, 0.0, 1.6518373490176556E9, 0.0, 2022-05-06 12:42:29.017
97.0, -210.49652910605073, -82.7995150689967, -130.27567505650222, -154.00534027535468, 0.144000006839633, 0.12800000607967377, 1.0240000486373901, 0.0, 0.0, 0.0, 0.0, 0.0, 1.6518373490317132E9, 0.0, 2022-05-06 12:42:29.031
97.0, -274.77418964449316, -230.61906081764027, -220.49702158756554, -224.37155794166028, 0.144000006839633, 0.12800000607967377, 1.0240000486373901, 0.0, 0.0, 0.0, 0.0, 0.0, 1.6518373490317132E9, 0.0, 2022-05-06 12:42:29.031
98.0, -303.1001919088885, -238.59252752317116, -247.75715236458927, -235.4454017104581, 0.144000006839633, 0.12800000607967377, 1.0240000486373901, 0.0, 0.0, 0.0, 0.0, 0.0, 1.6518373490466864E9, 0.0, 2022-05-06 12:42:29.046
98.0, -213.2827545730397, -83.29318186314777, -143.60467849858105, -161.43278158735484, 0.144000006839633, 0.12800000607967377, 1.0240000486373901, 0.0, 0.0, 0.0, 0.0, 0.0, 1.6518373490466864E9, 0.0, 2022-05-06 12:42:29.046
99.0, -213.73902236763388, -89.15360509371385, -132.97588282451034, -163.56826446205378, 0.144000006839633, 0.12800000607967377, 1.0240000486373901, 0.0, 0.0, 0.0, 0.0, 0.0, 1.6518373490476506E9, 0.0, 2022-05-06 12:42:29.047
99.0, -289.56175406929106, -228.2741435454227, -214.9208307536319, -205.174651469104, 0.144000006839633, 0.12800000607967377, 1.0240000486373901, 0.0, 0.0, 0.0, 0.0, 0.0, 1.6518373490476506E9, 0.0, 2022-05-06 12:42:29.047
100.0, -307.89848355203867, -230.31986882118508, -243.46000731550157, -229.38676378224045, 0.144000006839633, 0.12800000607967377, 1.0240000486373901, 0.0, 0.0, 0.0, 0.0, 0.0, 1.6518373490616813E9, 0.0, 2022-05-06 12:42:29.061
100.0, -230.46759486943483, -84.04864165419713, -147.12392435688525, -172.09523636102676, 0.144000006839633, 0.12800000607967377, 1.0240000486373901, 0.0, 0.0, 0.0, 0.0, 0.0, 1.6518373490616813E9, 0.0, 2022-05-06 12:42:29.061
0.0, -193.53795275697485, -74.62222381588072, -124.71818372234702, -144.82388588413596, 0.144000006839633, 0.12800000607967377, 1.0240000486373901, 0.0, 0.0, 0.0, 0.0, 0.0, 1.651837349062672E9, 0.0, 2022-05-06 12:42:29.062
1.0, -282.5662712021731, -238.2652862770483, -225.6206845268607, -220.1753901913762, 0.144000006839633, 0.11200000531971455, 1.0240000486373901, 0.0, 0.0, 0.0, 0.0, 0.0, 1.6518373490767033E9, 0.0, 2022-05-06 12:42:29.076
1.0, -310.0620156764053, -241.42550173960626, -253.7148129940033, -237.5247860858217, 0.144000006839633, 0.11200000531971455, 1.0240000486373901, 0.0, 0.0, 0.0, 0.0, 0.0, 1.6518373490767033E9, 0.0, 2022-05-06 12:42:29.076
2.0, -231.30346250953153, -87.3004846656695, -155.90146955288947, -163.7029008604586, 0.144000006839633, 0.11200000531971455, 1.0240000486373901, 0.0, 0.0, 0.0, 0.0, 0.0, 1.6518373490917072E9, 0.0, 2022-05-06 12:42:29.091
2.0, -204.43976112781093, -88.29155815392733, -122.14139265287668, -144.97722178231925, 0.144000006839633, 0.11200000531971455, 1.0240000486373901, 0.0, 0.0, 0.0, 0.0, 0.0, 1.6518373490917072E9, 0.0, 2022-05-06 12:42:29.091
3.0, -269.12133086146787, -223.38048445340246, -221.01312778145075, -216.71972263231874, 0.144000006839633, 0.11200000531971455, 1.0240000486373901, 0.0, 0.0, 0.0, 0.0, 0.0, 1.6518373490927E9, 0.0, 2022-05-06 12:42:29.092
3.0, -313.9889106298797, -237.4462481867522, -249.71685994137079, -235.68849520757794, 0.144000006839633, 0.11200000531971455, 1.0240000486373901, 0.0, 0.0, 0.0, 0.0, 0.0, 1.6518373490927E9, 0.0, 2022-05-06 12:42:29.092
4.0, -236.0157364537008, -89.49206603970379, -157.16929563786834, -169.84381658770144, 0.144000006839633, 0.11200000531971455, 1.0240000486373901, 0.0, 0.0, 0.0, 0.0, 0.0, 1.6518373491067493E9, 0.0, 2022-05-06 12:42:29.106
4.0, -210.44604045664892, -91.68364741373807, -136.5512271821499, -155.97626755200326, 0.144000006839633, 0.11200000531971455, 1.0240000486373901, 0.0, 0.0, 0.0, 0.0, 0.0, 1.6518373491067493E9, 0.0, 2022-05-06 12:42:29.106
5.0, -293.1240087770857, -245.5281719909981, -234.0018003275618, -227.50185420457274, 0.144000006839633, 0.11200000531971455, 1.0240000486373901, 0.0, 0.0, 0.0, 0.0, 0.0, 1.6518373491217375E9, 0.0, 2022-05-06 12:42:29.121
5.0, -306.0827621235512, -239.0057864682749, -251.69152711797506, -236.65712929610163, 0.144000006839633, 0.11200000531971455, 1.0240000486373901, 0.0, 0.0, 0.0, 0.0, 0.0, 1.6518373491217375E9, 0.0, 2022-05-06 12:42:29.121
6.0, -242.41844517784193, -93.80417068861425, -148.6311040390283, -166.1151363318786, 0.144000006839633, 0.11200000531971455, 1.0240000486373901, 0.0, 0.0, 0.0, 0.0, 0.0, 1.6518373491226456E9, 0.0, 2022-05-06 12:42:29.122
6.0, -219.7172524468042, -95.07573667354882, -143.02125410549343, -163.87493625842035, 0.144000006839633, 0.11200000531971455, 1.0240000486373901, 0.0, 0.0, 0.0, 0.0, 0.0, 1.6518373491226456E9, 0.0, 2022-05-06 12:42:29.122
7.0, -277.31919156434014, -229.01651368662715, -221.1776833795011, -229.71961487829685, 0.144000006839633, 0.11200000531971455, 1.0240000486373901, 0.0, 0.0, 0.0, 0.0, 0.0, 1.6518373491366844E9, 0.0, 2022-05-06 12:42:29.136
7.0, -314.14972632797435, -236.94884149264544, -247.4916194677353, -237.31909158825874, 0.144000006839633, 0.11200000531971455, 1.0240000486373901, 0.0, 0.0, 0.0, 0.0, 0.0, 1.6518373491366844E9, 0.0, 2022-05-06 12:42:29.136
8.0, -225.4168599792756, -88.32147735357285, -143.9898881940171, -160.81195819471031, 0.144000006839633, 0.11200000531971455, 1.0240000486373901, 0.0, 0.0, 0.0, 0.0, 0.0, 1.651837349151686E9, 0.0, 2022-05-06 12:42:29.151
8.0, -210.62929555447772, -87.61089636199176, -140.79975353181362, -166.99027292151004, 0.144000006839633, 0.11200000531971455, 1.0240000486373901, 0.0, 0.0, 0.0, 0.0, 0.0, 1.651837349151686E9, 0.0, 2022-05-06 12:42:29.151
9.0, -292.8996147797443, -242.14356253109872, -231.39135015849024, -226.63419741485268, 0.144000006839633, 0.11200000531971455, 1.0240000486373901, 0.0, 0.0, 0.0, 0.0, 0.0, 1.6518373491526468E9, 0.0, 2022-05-06 12:42:29.152
9.0, -318.6824850742705, -245.22150019463152, -257.8922812445089, -238.32138477638364, 0.144000006839633, 0.11200000531971455, 1.0240000486373901, 0.0, 0.0, 0.0, 0.0, 0.0, 1.6518373491526468E9, 0.0, 2022-05-06 12:42:29.152
10.0, -238.5813078233041, -90.16898793168366, -138.9522429537028, -163.31021136511117, 0.144000006839633, 0.11200000531971455, 1.0240000486373901, 0.0, 0.0, 0.0, 0.0, 0.0, 1.651837349166681E9, 0.0, 2022-05-06 12:42:29.166
10.0, -205.5579912145622, -86.47770667541772, -124.71444382239133, -151.46220830548555, 0.144000006839633, 0.11200000531971455, 1.0240000486373901, 0.0, 0.0, 0.0, 0.0, 0.0, 1.651837349166681E9, 0.0, 2022-05-06 12:42:29.166
11.0, -275.9616078804247, -229.80189267732203, -213.0321812760085, -214.34862606041133, 0.144000006839633, 0.11200000531971455, 1.0240000486373901, 0.0, 0.0, 0.0, 0.0, 0.0, 1.6518373491817553E9, 0.0, 2022-05-06 12:42:29.181
11.0, -312.15261975163594, -233.91204272862524, -246.68380107730627, -235.58003810886294, 0.144000006839633, 0.11200000531971455, 1.0240000486373901, 0.0, 0.0, 0.0, 0.0, 0.0, 1.6518373491817553E9, 0.0, 2022-05-06 12:42:29.181
12.0, -230.45076531963423, -87.15836846735328, -146.48440146446228, -160.31081160064787, 0.144000006839633, 0.11200000531971455, 1.0240000486373901, 0.0, 0.0, 0.0, 0.0, 0.0, 1.6518373491826584E9, 0.0, 2022-05-06 12:42:29.182
12.0, -203.003639544826, -86.3019313775003, -133.8435396142304, -151.21163500845432, 0.144000006839633, 0.11200000531971455, 1.0240000486373901, 0.0, 0.0, 0.0, 0.0, 0.0, 1.6518373491826584E9, 0.0, 2022-05-06 12:42:29.182
13.0, -289.4065482211299, -233.17154253739864, -214.86473225429654, -221.7012693732977, 0.144000006839633, 0.11200000531971455, 1.0240000486373901, 0.0, 0.0, 0.0, 0.0, 0.0, 1.6518373491966736E9, 0.0, 2022-05-06 12:42:29.196
13.0, -308.0574293001555, -236.72070759534836, -241.54517853818834, -232.97332783974707, 0.144000006839633, 0.11200000531971455, 1.0240000486373901, 0.0, 0.0, 0.0, 0.0, 0.0, 1.6518373491966736E9, 0.0, 2022-05-06 12:42:29.196
14.0, -224.54546328959987, -70.7738667614758, -135.83690629061311, -150.64317021518946, 0.144000006839633, 0.11200000531971455, 1.0240000486373901, 0.0, 0.0, 0.0, 0.0, 0.0, 1.6518373492117E9, 0.0, 2022-05-06 12:42:29.211
14.0, -201.27954566525295, -78.62017686851323, -122.24984975159168, -143.1371910041198, 0.144000006839633, 0.11200000531971455, 1.0240000486373901, 0.0, 0.0, 0.0, 0.0, 0.0, 1.6518373492117E9, 0.0, 2022-05-06 12:42:29.211
15.0, -290.1470484123565, -247.06527087278664, -228.7023620903492, -225.22799503151327, 0.144000006839633, 0.11200000531971455, 1.0240000486373901, 0.0, 0.0, 0.0, 0.0, 0.0, 1.6518373492126744E9, 0.0, 2022-05-06 12:42:29.212
15.0, -298.3561288150959, -232.06079225055873, -237.53974568564445, -216.33825283683836, 0.144000006839633, 0.11200000531971455, 1.0240000486373901, 0.0, 0.0, 0.0, 0.0, 0.0, 1.6518373492126744E9, 0.0, 2022-05-06 12:42:29.212
16.0, -226.63606736483052, -79.31953816022724, -146.85465156007558, -157.39742953516543, 0.144000006839633, 0.11200000531971455, 1.0240000486373901, 0.0, 0.0, 0.0, 0.0, 0.0, 1.651837349226696E9, 0.0, 2022-05-06 12:42:29.226
16.0, -217.6416079713963, -91.75844541285187, -126.45349730178714, -160.57260459754616, 0.144000006839633, 0.11200000531971455, 1.0240000486373901, 0.0, 0.0, 0.0, 0.0, 0.0, 1.651837349226696E9, 0.0, 2022-05-06 12:42:29.226
17.0, -289.14475522423163, -248.80058445222676, -238.94594806898385, -230.69572876673192, 0.144000006839633, 0.11200000531971455, 1.0240000486373901, 0.0, 0.0, 0.0, 0.0, 0.0, 1.6518373492416885E9, 0.0, 2022-05-06 12:42:29.241
17.0, -307.7208383041434, -232.9658480398357, -244.0471716085449, -236.79550559446216, 0.144000006839633, 0.11200000531971455, 1.0240000486373901, 0.0, 0.0, 0.0, 0.0, 0.0, 1.6518373492416885E9, 0.0, 2022-05-06 12:42:29.241
18.0, -228.85382803855464, -82.85748351830989, -142.66970350965858, -158.21646762546152, 0.144000006839633, 0.11200000531971455, 1.0240000486373901, 0.0, 0.0, 0.0, 0.0, 0.0, 1.6518373492426972E9, 0.0, 2022-05-06 12:42:29.242
18.0, -209.4474871684797, -89.85483633540571, -136.10991898737848, -148.85549803636968, 0.144000006839633, 0.11200000531971455, 1.0240000486373901, 0.0, 0.0, 0.0, 0.0, 0.0, 1.6518373492426972E9, 0.0, 2022-05-06 12:42:29.242
19.0, -287.28228504629806, -234.83953791763633, -221.89200427103788, -222.57266606297344, 0.144000006839633, 0.11200000531971455, 1.0240000486373901, 0.0, 0.0, 0.0, 0.0, 0.0, 1.6518373492567053E9, 0.0, 2022-05-06 12:42:29.256
19.0, -300.44299299037084, -226.05451292172074, -233.13414353784174, -226.97078841086477, 0.144000006839633, 0.11200000531971455, 1.0240000486373901, 0.0, 0.0, 0.0, 0.0, 0.0, 1.6518373492567053E9, 0.0, 2022-05-06 12:42:29.256
20.0, -240.3951593018137, -93.98742578644305, -153.893143276684, -170.40480158105493, 0.144000006839633, 0.11200000531971455, 1.0240000486373901, 0.0, 0.0, 0.0, 0.0, 0.0, 1.6518373492726824E9, 0.0, 2022-05-06 12:42:29.272
20.0, -215.13213510112837, -95.16175437252969, -136.38667158409953, -164.42844145186245, 0.144000006839633, 0.11200000531971455, 1.0240000486373901, 0.0, 0.0, 0.0, 0.0, 0.0, 1.6518373492726824E9, 0.0, 2022-05-06 12:42:29.272
21.0, -286.13413575990126, -240.76727934740484, -232.1430700495839, -231.17069606110454, 0.144000006839633, 0.12800000607967377, 1.0240000486373901, 0.0, 0.0, 0.0, 0.0, 0.0, 1.651837349273714E9, 0.0, 2022-05-06 12:42:29.273
21.0, -301.7145589753054, -223.22714855521917, -236.39159639924765, -222.4791685640812, 0.144000006839633, 0.12800000607967377, 1.0240000486373901, 0.0, 0.0, 0.0, 0.0, 0.0, 1.651837349273714E9, 0.0, 2022-05-06 12:42:29.273
22.0, -229.4559519314207, -74.71198141481727, -138.6941898567602, -150.94610211160034, 0.144000006839633, 0.12800000607967377, 1.0240000486373901, 0.0, 0.0, 0.0, 0.0, 0.0, 1.6518373492866898E9, 0.0, 2022-05-06 12:42:29.286
22.0, -218.21381266461685, -96.57917645573616, -135.1712040985003, -155.47512095794082, 0.144000006839633, 0.12800000607967377, 1.0240000486373901, 0.0, 0.0, 0.0, 0.0, 0.0, 1.6518373492866898E9, 0.0, 2022-05-06 12:42:29.286
23.0, -280.3410307285376, -234.28603272419423, -217.61355872172862, -208.8360135257244, 0.144000006839633, 0.12800000607967377, 1.0240000486373901, 0.0, 0.0, 0.0, 0.0, 0.0, 1.651837349302743E9, 0.0, 2022-05-06 12:42:29.302
23.0, -295.92519384389743, -222.78958026040345, -232.7751131420955, -217.45648292358965, 0.144000006839633, 0.12800000607967377, 1.0240000486373901, 0.0, 0.0, 0.0, 0.0, 0.0, 1.651837349302743E9, 0.0, 2022-05-06 12:42:29.302
24.0, -223.00462450785562, -68.45886868890375, -150.407556517981, -143.87021139543504, 0.144000006839633, 0.12800000607967377, 1.0240000486373901, 0.0, 0.0, 0.0, 0.0, 0.0, 1.651837349303657E9, 0.0, 2022-05-06 12:42:29.303
24.0, -217.29005737556145, -95.44972666911781, -137.16457077488303, -160.34821060020477, 0.144000006839633, 0.12800000607967377, 1.0240000486373901, 0.0, 0.0, 0.0, 0.0, 0.0, 1.651837349303657E9, 0.0, 2022-05-06 12:42:29.303
25.0, -289.88525541545823, -246.10037668421865, -229.56627898011357, -230.9650015635416, 0.144000006839633, 0.12800000607967377, 1.0240000486373901, 0.0, 0.0, 0.0, 0.0, 0.0, 1.6518373493167183E9, 0.0, 2022-05-06 12:42:29.316
25.0, -300.29713689209893, -222.6250246623531, -230.4451554697007, -218.20446291472763, 0.144000006839633, 0.12800000607967377, 1.0240000486373901, 0.0, 0.0, 0.0, 0.0, 0.0, 1.6518373493167183E9, 0.0, 2022-05-06 12:42:29.316
26.0, -218.35218896297738, -76.15932269766927, -139.83485934324563, -160.49780659843236, 0.144000006839633, 0.12800000607967377, 1.0240000486373901, 0.0, 0.0, 0.0, 0.0, 0.0, 1.6518373493327055E9, 0.0, 2022-05-06 12:42:29.332
26.0, -208.8229238758795, -86.77315877191722, -130.22705635707825, -158.42964192293584, 0.144000006839633, 0.12800000607967377, 1.0240000486373901, 0.0, 0.0, 0.0, 0.0, 0.0, 1.6518373493327055E9, 0.0, 2022-05-06 12:42:29.332
27.0, -304.11557474685833, -243.84147711098194, -230.44889536965638, -229.60367797967046, 0.144000006839633, 0.12800000607967377, 1.0240000486373901, 0.0, 0.0, 0.0, 0.0, 0.0, 1.6518373493336372E9, 0.0, 2022-05-06 12:42:29.333
27.0, -292.99311227863654, -214.81985345482826, -229.98888767510653, -205.95629055984318, 0.144000006839633, 0.12800000607967377, 1.0240000486373901, 0.0, 0.0, 0.0, 0.0, 0.0, 1.6518373493336372E9, 0.0, 2022-05-06 12:42:29.333
28.0, -236.44208504864946, -82.42365512344986, -151.68286240287125, -172.02417826186866, 0.144000006839633, 0.12800000607967377, 1.0240000486373901, 0.0, 0.0, 0.0, 0.0, 0.0, 1.651837349346732E9, 0.0, 2022-05-06 12:42:29.346
28.0, -223.54691000143066, -104.43296636268497, -139.31127334944904, -171.09668307285756, 0.144000006839633, 0.12800000607967377, 1.0240000486373901, 0.0, 0.0, 0.0, 0.0, 0.0, 1.651837349346732E9, 0.0, 2022-05-06 12:42:29.346
29.0, -289.95257361466065, -244.9634470976889, -238.72529397159815, -233.41463603451848, 0.144000006839633, 0.12800000607967377, 1.0240000486373901, 0.0, 0.0, 0.0, 0.0, 0.0, 1.6518373493627193E9, 0.0, 2022-05-06 12:42:29.362
29.0, -292.43586718523875, -224.21074224356562, -234.54034592118114, -216.19239673856646, 0.144000006839633, 0.12800000607967377, 1.0240000486373901, 0.0, 0.0, 0.0, 0.0, 0.0, 1.6518373493627193E9, 0.0, 2022-05-06 12:42:29.362
30.0, -224.459445590619, -65.38093102537096, -126.32260080333799, -148.08881854545325, 0.144000006839633, 0.12800000607967377, 1.0240000486373901, 0.0, 0.0, 0.0, 0.0, 0.0, 1.651837349363674E9, 0.0, 2022-05-06 12:42:29.363
30.0, -220.29319703998044, -95.72273936588317, -138.30150036141276, -163.05963806807995, 0.144000006839633, 0.12800000607967377, 1.0240000486373901, 0.0, 0.0, 0.0, 0.0, 0.0, 1.651837349363674E9, 0.0, 2022-05-06 12:42:29.363
31.0, -278.5159595501609, -233.89708312880248, -232.2178680486977, -223.5487799514085, 0.144000006839633, 0.12800000607967377, 1.0240000486373901, 0.0, 0.0, 0.0, 0.0, 0.0, 1.6518373493766866E9, 0.0, 2022-05-06 12:42:29.376
31.0, -293.35962247429416, -230.75182726606727, -250.32272373419255, -225.55710622761399, 0.144000006839633, 0.12800000607967377, 1.0240000486373901, 0.0, 0.0, 0.0, 0.0, 0.0, 1.6518373493766866E9, 0.0, 2022-05-06 12:42:29.376
32.0, -239.73319700965658, -76.89608298894018, -143.49248149991035, -161.26822598930448, 0.12800000607967377, 0.12800000607967377, 1.0240000486373901, 0.0, 0.0, 0.0, 0.0, 0.0, 1.6518373493926902E9, 0.0, 2022-05-06 12:42:29.392
32.0, -224.2013924936764, -98.19855313654989, -141.83196591958404, -166.1188762318343, 0.12800000607967377, 0.12800000607967377, 1.0240000486373901, 0.0, 0.0, 0.0, 0.0, 0.0, 1.6518373493926902E9, 0.0, 2022-05-06 12:42:29.392
33.0, -291.47097299667075, -240.9654940450564, -220.5830392865464, -222.3295725658536, 0.12800000607967377, 0.12800000607967377, 1.0240000486373901, 0.0, 0.0, 0.0, 0.0, 0.0, 1.6518373493936517E9, 0.0, 2022-05-06 12:42:29.393
33.0, -300.8282026858069, -227.61031130328774, -251.75510541722178, -219.8425390953198, 0.12800000607967377, 0.12800000607967377, 1.0240000486373901, 0.0, 0.0, 0.0, 0.0, 0.0, 1.6518373493936517E9, 0.0, 2022-05-06 12:42:29.393
34.0, -229.02212353656068, -74.35669091902673, -143.23442840296775, -156.80652534216642, 0.12800000607967377, 0.12800000607967377, 1.0240000486373901, 0.0, 0.0, 0.0, 0.0, 0.0, 1.6518373494067276E9, 0.0, 2022-05-06 12:42:29.406
34.0, -212.6413617306389, -89.18165434338152, -125.24176971614361, -145.53072697576135, 0.12800000607967377, 0.12800000607967377, 1.0240000486373901, 0.0, 0.0, 0.0, 0.0, 0.0, 1.6518373494067276E9, 0.0, 2022-05-06 12:42:29.406
35.0, -273.7363674067892, -229.54009968042374, -223.20470915548503, -211.22206969745457, 0.12800000607967377, 0.12800000607967377, 1.0240000486373901, 0.0, 0.0, 0.0, 0.0, 0.0, 1.6518373494227536E9, 0.0, 2022-05-06 12:42:29.422
35.0, -308.63337389333174, -232.16924934927374, -253.35578259825706, -233.71008813101798, 0.12800000607967377, 0.12800000607967377, 1.0240000486373901, 0.0, 0.0, 0.0, 0.0, 0.0, 1.6518373494227536E9, 0.0, 2022-05-06 12:42:29.422
36.0, -228.7229315401055, -73.04398603457958, -138.3650786606595, -162.87638297025114, 0.12800000607967377, 0.12800000607967377, 1.0240000486373901, 0.0, 0.0, 0.0, 0.0, 0.0, 1.6518373494236512E9, 0.0, 2022-05-06 12:42:29.423
36.0, -230.00571722490713, -101.57942269649357, -136.7270024800673, -172.95167345087975, 0.12800000607967377, 0.12800000607967377, 1.0240000486373901, 0.0, 0.0, 0.0, 0.0, 0.0, 1.6518373494236512E9, 0.0, 2022-05-06 12:42:29.423
37.0, -289.64964171824977, -250.27410503476858, -225.00734093412757, -228.3358518946916, 0.12800000607967377, 0.12800000607967377, 1.0240000486373901, 0.0, 0.0, 0.0, 0.0, 0.0, 1.6518373494366884E9, 0.0, 2022-05-06 12:42:29.436
37.0, -310.2041318747215, -238.8524505700916, -251.72892611753196, -230.59849136788398, 0.12800000607967377, 0.12800000607967377, 1.0240000486373901, 0.0, 0.0, 0.0, 0.0, 0.0, 1.6518373494366884E9, 0.0, 2022-05-06 12:42:29.436
38.0, -221.89387422101572, -71.31615225505084, -152.50938029307872, -148.71338183805346, 0.12800000607967377, 0.12800000607967377, 1.0240000486373901, 0.0, 0.0, 0.0, 0.0, 0.0, 1.651837349452696E9, 0.0, 2022-05-06 12:42:29.452
38.0, -213.81195041676983, -98.68474013078958, -142.6248247101903, -166.6686415253207, 0.12800000607967377, 0.12800000607967377, 1.0240000486373901, 0.0, 0.0, 0.0, 0.0, 0.0, 1.651837349452696E9, 0.0, 2022-05-06 12:42:29.452
39.0, -299.1527275056578, -249.18205424770713, -241.06273144390434, -243.06731782015413, 0.12800000607967377, 0.12800000607967377, 1.0240000486373901, 0.0, 0.0, 0.0, 0.0, 0.0, 1.651837349453706E9, 0.0, 2022-05-06 12:42:29.453
39.0, -297.33139622723684, -224.8128661364317, -241.24224664177746, -230.52743326872587, 0.12800000607967377, 0.12800000607967377, 1.0240000486373901, 0.0, 0.0, 0.0, 0.0, 0.0, 1.651837349453706E9, 0.0, 2022-05-06 12:42:29.453
40.0, -234.56465527089313, -83.49700641073287, -152.89458998851478, -167.94394741021097, 0.12800000607967377, 0.12800000607967377, 1.0240000486373901, 0.0, 0.0, 0.0, 0.0, 0.0, 1.6518373494666991E9, 0.0, 2022-05-06 12:42:29.466
40.0, -214.70204660622403, -92.74203910119832, -130.57486705295742, -155.11983046215028, 0.12800000607967377, 0.12800000607967377, 1.0240000486373901, 0.0, 0.0, 0.0, 0.0, 0.0, 1.6518373494666991E9, 0.0, 2022-05-06 12:42:29.466
41.0, -289.72443971736357, -247.5626775668934, -239.28627896495163, -217.57241982221603, 0.12800000607967377, 0.12800000607967377, 1.0240000486373901, 0.0, 0.0, 0.0, 0.0, 0.0, 1.651837349482684E9, 0.0, 2022-05-06 12:42:29.482
41.0, -311.4682180597447, -233.0369061389938, -253.4567598970607, -236.52623279765248, 0.12800000607967377, 0.12800000607967377, 1.0240000486373901, 0.0, 0.0, 0.0, 0.0, 0.0, 1.651837349482684E9, 0.0, 2022-05-06 12:42:29.482
42.0, -219.309603351634, -69.90994987171143, -138.1743437629193, -147.6624699505046, 0.12800000607967377, 0.12800000607967377, 1.0240000486373901, 0.0, 0.0, 0.0, 0.0, 0.0, 1.651837349497697E9, 0.0, 2022-05-06 12:42:29.497
42.0, -204.94090772187337, -94.76906487718225, -132.3587993318215, -161.02887239214033, 0.12800000607967377, 0.12800000607967377, 1.0240000486373901, 0.0, 0.0, 0.0, 0.0, 0.0, 1.651837349497697E9, 0.0, 2022-05-06 12:42:29.497
43.0, -290.66315460624173, -245.16540169529617, -232.6329969437793, -230.78548636566848, 0.12800000607967377, 0.12800000607967377, 1.0240000486373901, 0.0, 0.0, 0.0, 0.0, 0.0, 1.6518373494986348E9, 0.0, 2022-05-06 12:42:29.498
43.0, -304.28761014482006, -226.17418972030282, -238.64675607252866, -226.86607121210545, 0.12800000607967377, 0.12800000607967377, 1.0240000486373901, 0.0, 0.0, 0.0, 0.0, 0.0, 1.6518373494986348E9, 0.0, 2022-05-06 12:42:29.498
44.0, -225.88434747373685, -70.50833386462182, -132.29148113261908, -146.34976506605744, 0.12800000607967377, 0.12800000607967377, 1.0240000486373901, 0.0, 0.0, 0.0, 0.0, 0.0, 1.6518373495127058E9, 0.0, 2022-05-06 12:42:29.512
44.0, -208.7855248763226, -92.84675629995763, -130.2494957568124, -148.8143591368571, 0.12800000607967377, 0.12800000607967377, 1.0240000486373901, 0.0, 0.0, 0.0, 0.0, 0.0, 1.6518373495127058E9, 0.0, 2022-05-06 12:42:29.512
45.0, -290.13956861244515, -249.5597841432318, -228.80707928910851, -227.5130739044398, 0.12800000607967377, 0.12800000607967377, 1.0240000486373901, 0.0, 0.0, 0.0, 0.0, 0.0, 1.6518373495136507E9, 0.0, 2022-05-06 12:42:29.513
45.0, -294.83688295679167, -213.6978834681213, -219.6555440975353, -205.14473226945847, 0.12800000607967377, 0.12800000607967377, 1.0240000486373901, 0.0, 0.0, 0.0, 0.0, 0.0, 1.6518373495136507E9, 0.0, 2022-05-06 12:42:29.513
46.0, -223.95081919664517, -73.50399372912943, -137.3253864729777, -153.24988048430532, 0.12800000607967377, 0.12800000607967377, 1.0240000486373901, 0.0, 0.0, 0.0, 0.0, 0.0, 1.6518373495266843E9, 0.0, 2022-05-06 12:42:29.526
46.0, -204.450980827678, -92.05389750935137, -131.86887243762612, -147.1837627561763, 0.12800000607967377, 0.12800000607967377, 1.0240000486373901, 0.0, 0.0, 0.0, 0.0, 0.0, 1.6518373495266843E9, 0.0, 2022-05-06 12:42:29.526
47.0, -283.50124619109556, -237.895036181435, -227.41583650559187, -213.58942636940628, 0.12800000607967377, 0.12800000607967377, 1.0240000486373901, 0.0, 0.0, 0.0, 0.0, 0.0, 1.6518373495427449E9, 0.0, 2022-05-06 12:42:29.542
47.0, -304.85607493808493, -223.31316625420004, -239.32367796450853, -224.26310084294528, 0.12800000607967377, 0.12800000607967377, 1.0240000486373901, 0.0, 0.0, 0.0, 0.0, 0.0, 1.6518373495427449E9, 0.0, 2022-05-06 12:42:29.542
48.0, -219.46293924981728, -66.00549431797117, -132.04464773554355, -154.09509787429124, 0.12800000607967377, 0.12800000607967377, 1.0240000486373901, 0.0, 0.0, 0.0, 0.0, 0.0, 1.6518373495436323E9, 0.0, 2022-05-06 12:42:29.543
48.0, -208.87528247525916, -92.80935730040073, -123.73085013404489, -149.12851073313504, 0.12800000607967377, 0.12800000607967377, 1.0240000486373901, 0.0, 0.0, 0.0, 0.0, 0.0, 1.6518373495436323E9, 0.0, 2022-05-06 12:42:29.543
49.0, -287.4431007443927, -252.6414617067203, -232.1468099495396, -229.4802612811327, 0.12800000607967377, 0.12800000607967377, 1.0240000486373901, 0.0, 0.0, 0.0, 0.0, 0.0, 1.6518373495566947E9, 0.0, 2022-05-06 12:42:29.556
49.0, -290.2293262113817, -220.3661250891164, -234.39822972286493, -217.52754102274776, 0.12800000607967377, 0.12800000607967377, 1.0240000486373901, 0.0, 0.0, 0.0, 0.0, 0.0, 1.6518373495566947E9, 0.0, 2022-05-06 12:42:29.556
50.0, -227.28680995712057, -75.20190830901265, -141.34951882530004, -160.10137720312923, 0.12800000607967377, 0.12800000607967377, 1.0240000486373901, 0.0, 0.0, 0.0, 0.0, 0.0, 1.6518373495727444E9, 0.0, 2022-05-06 12:42:29.572
50.0, -217.33867607498541, -98.66978053096682, -136.23333568591624, -159.6675488082692, 0.12800000607967377, 0.12800000607967377, 1.0240000486373901, 0.0, 0.0, 0.0, 0.0, 0.0, 1.6518373495727444E9, 0.0, 2022-05-06 12:42:29.572
51.0, -288.40051513304934, -247.99650596175343, -234.98539401590824, -234.6637626197189, 0.12800000607967377, 0.12800000607967377, 1.0240000486373901, 0.0, 0.0, 0.0, 0.0, 0.0, 1.651837349573656E9, 0.0, 2022-05-06 12:42:29.573
51.0, -307.2122119101696, -224.04618664551526, -234.6637626197189, -238.38496307563037, 0.12800000607967377, 0.12800000607967377, 1.0240000486373901, 0.0, 0.0, 0.0, 0.0, 0.0, 1.651837349573656E9, 0.0, 2022-05-06 12:42:29.573
52.0, -234.81522856792435, -86.39916877634823, -158.34736412391067, -170.33000358194113, 0.12800000607967377, 0.12800000607967377, 1.0240000486373901, 0.0, 0.0, 0.0, 0.0, 0.0, 1.6518373495867584E9, 0.0, 2022-05-06 12:42:29.586
52.0, -216.50093848491088, -105.96632534451783, -144.27412059064955, -167.92150801047683, 0.12800000607967377, 0.12800000607967377, 1.0240000486373901, 0.0, 0.0, 0.0, 0.0, 0.0, 1.6518373495867584E9, 0.0, 2022-05-06 12:42:29.586
53.0, -277.88017655769363, -240.4119888516143, -226.6678565144539, -221.64891077391803, 0.12800000607967377, 0.12800000607967377, 1.0240000486373901, 0.0, 0.0, 0.0, 0.0, 0.0, 1.651837349602698E9, 0.0, 2022-05-06 12:42:29.602
53.0, -291.13064210070297, -213.653004668653, -232.42730244621634, -213.34259297233075, 0.12800000607967377, 0.12800000607967377, 1.0240000486373901, 0.0, 0.0, 0.0, 0.0, 0.0, 1.651837349602698E9, 0.0, 2022-05-06 12:42:29.602
54.0, -232.8742204909213, -76.40241619478911, -146.89579045958817, -155.9239089526236, 0.12800000607967377, 0.12800000607967377, 1.0240000486373901, 0.0, 0.0, 0.0, 0.0, 0.0, 1.6518373496036465E9, 0.0, 2022-05-06 12:42:29.603
54.0, -207.72339328890666, -93.69945348985493, -130.12981895823032, -156.6344899442047, 0.12800000607967377, 0.12800000607967377, 1.0240000486373901, 0.0, 0.0, 0.0, 0.0, 0.0, 1.6518373496036465E9, 0.0, 2022-05-06 12:42:29.603
55.0, -287.1887875474058, -250.92484762705863, -235.27710621245205, -232.16176954936236, 0.12800000607967377, 0.12800000607967377, 1.0240000486373901, 0.0, 0.0, 0.0, 0.0, 0.0, 1.651837349616689E9, 0.0, 2022-05-06 12:42:29.616
55.0, -307.10375481145456, -226.58183881547302, -247.7496725646779, -218.1782836150378, 0.12800000607967377, 0.12800000607967377, 1.0240000486373901, 0.0, 0.0, 0.0, 0.0, 0.0, 1.651837349616689E9, 0.0, 2022-05-06 12:42:29.616
56.0, -228.46861834311858, -73.22350123245269, -141.15504402760416, -146.61155806295574, 0.12800000607967377, 0.12800000607967377, 1.0240000486373901, 0.0, 0.0, 0.0, 0.0, 0.0, 1.6518373496326928E9, 0.0, 2022-05-06 12:42:29.632
56.0, -204.3724429286085, -95.89477476384491, -134.74485550355166, -160.2584530012682, 0.12800000607967377, 0.12800000607967377, 1.0240000486373901, 0.0, 0.0, 0.0, 0.0, 0.0, 1.6518373496326928E9, 0.0, 2022-05-06 12:42:29.632
57.0, -281.32462441688403, -240.84207734651864, -211.72321629151702, -214.33740636054426, 0.12800000607967377, 0.12800000607967377, 1.0240000486373901, 0.0, 0.0, 0.0, 0.0, 0.0, 1.6518373496336238E9, 0.0, 2022-05-06 12:42:29.633
57.0, -302.92628656094894, -218.76170800812542, -232.6703959433362, -209.2848015204072, 0.12800000607967377, 0.12800000607967377, 1.0240000486373901, 0.0, 0.0, 0.0, 0.0, 0.0, 1.6518373496336238E9, 0.0, 2022-05-06 12:42:29.633
58.0, -220.98133863182738, -67.83804529625922, -136.78310097940266, -165.6738281371072, 0.12800000607967377, 0.12800000607967377, 1.0240000486373901, 0.0, 0.0, 0.0, 0.0, 0.0, 1.6518373496466928E9, 0.0, 2022-05-06 12:42:29.646
58.0, -214.83294310467318, -102.828549281694, -143.64207749813795, -168.4151748046279, 0.12800000607967377, 0.12800000607967377, 1.0240000486373901, 0.0, 0.0, 0.0, 0.0, 0.0, 1.6518373496466928E9, 0.0, 2022-05-06 12:42:29.646
59.0, -294.5937894596718, -250.7827314287424, -241.97900693304837, -243.80033821146935, 0.12800000607967377, 0.12800000607967377, 1.0240000486373901, 0.0, 0.0, 0.0, 0.0, 0.0, 1.6518373496616812E9, 0.0, 2022-05-06 12:42:29.661
59.0, -304.650380440522, -219.90985729452223, -230.63589036744088, -215.53417434636503, 0.12800000607967377, 0.12800000607967377, 1.0240000486373901, 0.0, 0.0, 0.0, 0.0, 0.0, 1.6518373496616812E9, 0.0, 2022-05-06 12:42:29.661
60.0, -226.44159256713465, -73.50773362908512, -154.15493627358228, -165.21382044255733, 0.12800000607967377, 0.12800000607967377, 1.0240000486373901, 0.0, 0.0, 0.0, 0.0, 0.0, 1.6518373496626751E9, 0.0, 2022-05-06 12:42:29.662
60.0, -217.03574417857453, -99.21954582445323, -142.31815291382372, -165.5578912384808, 0.12800000607967377, 0.12800000607967377, 1.0240000486373901, 0.0, 0.0, 0.0, 0.0, 0.0, 1.6518373496626751E9, 0.0, 2022-05-06 12:42:29.662
61.0, -288.5725505310111, -248.53879145532846, -240.258652953431, -229.02399348653853, 0.12800000607967377, 0.12800000607967377, 1.0240000486373901, 0.0, 0.0, 0.0, 0.0, 0.0, 1.65183734967673E9, 0.0, 2022-05-06 12:42:29.676
61.0, -307.653520104941, -233.5904113324359, -251.91218121536076, -230.5124736689031, 0.12800000607967377, 0.12800000607967377, 1.0240000486373901, 0.0, 0.0, 0.0, 0.0, 0.0, 1.65183734967673E9, 0.0, 2022-05-06 12:42:29.676
62.0, -212.0841166372411, -64.35993833746761, -133.5780067173764, -139.25891475006938, 0.12800000607967377, 0.12800000607967377, 1.0240000486373901, 0.0, 0.0, 0.0, 0.0, 0.0, 1.6518373496917417E9, 0.0, 2022-05-06 12:42:29.691
62.0, -202.8203844469972, -90.23256623093039, -125.85137340892106, -144.93234298285097, 0.12800000607967377, 0.12800000607967377, 1.0240000486373901, 0.0, 0.0, 0.0, 0.0, 0.0, 1.6518373496917417E9, 0.0, 2022-05-06 12:42:29.691
63.0, -278.69173484807834, -239.90710235759616, -233.43707543425262, -221.00938788149506, 0.12800000607967377, 0.12800000607967377, 1.0240000486373901, 0.0, 0.0, 0.0, 0.0, 0.0, 1.6518373496926863E9, 0.0, 2022-05-06 12:42:29.692
63.0, -302.77295066276565, -224.4725352404639, -244.12944940757006, -222.26973416656256, 0.12800000607967377, 0.12800000607967377, 1.0240000486373901, 0.0, 0.0, 0.0, 0.0, 0.0, 1.6518373496926863E9, 0.0, 2022-05-06 12:42:29.692
64.0, -202.16964185470715, -64.3636782374233, -131.92871083691716, -142.23587511479855, 0.12800000607967377, 0.12800000607967377, 1.0240000486373901, 0.0, 0.0, 0.0, 0.0, 0.0, 1.6518373497066963E9, 0.0, 2022-05-06 12:42:29.706
64.0, -205.99555950937793, -92.68594060186297, -135.1412848988548, -154.93657536432147, 0.12800000607967377, 0.12800000607967377, 1.0240000486373901, 0.0, 0.0, 0.0, 0.0, 0.0, 1.6518373497066963E9, 0.0, 2022-05-06 12:42:29.706
65.0, -301.6846397756599, -243.3403305169195, -236.5150130977854, -235.32198501192033, 0.12800000607967377, 0.12800000607967377, 1.0240000486373901, 0.0, 0.0, 0.0, 0.0, 0.0, 1.6518373497227056E9, 0.0, 2022-05-06 12:42:29.722
65.0, -292.25635198736563, -219.1020389040932, -238.35878377594054, -224.86896463576704, 0.12800000607967377, 0.12800000607967377, 1.0240000486373901, 0.0, 0.0, 0.0, 0.0, 0.0, 1.6518373497227056E9, 0.0, 2022-05-06 12:42:29.722
