%OpenBCI Raw EEG Data
%Number of channels = 4
%Sample Rate = 200 Hz
%Board = OpenBCI_GUI$BoardGanglionBLE
Sample Index, EXG Channel 0, EXG Channel 1, EXG Channel 2, EXG Channel 3, Accel Channel 0, Accel Channel 1, Accel Channel 2, Other, Other, Other, Other, Other, Timestamp, Other, Timestamp (Formatted)
31.0, -72.36332424264401, -157.36003053560853, -93.94254698697478, -73.93034232407808, 0.0, 0.11200000531971455, 0.0, 0.0, 0.0, 0.0, 0.0, 0.0, 1.6518372856798096E9, 0.0, 2022-05-06 12:41:25.679
31.0, -296.43382023787126, 52.545594377443194, 116.23609062284231, 134.18761041015387, 0.0, 0.11200000531971455, 0.0, 0.0, 0.0, 0.0, 0.0, 0.0, 1.6518372856798096E9, 0.0, 2022-05-06 12:41:25.679
0.0, -217.23208892624825, -117.0551287131384, -142.92962655657902, -162.2050709282048, 0.0, 0.11200000531971455, 0.0, 0.0, 0.0, 0.0, 0.0, 0.0, 1.6518372857027988E9, 0.0, 2022-05-06 12:41:25.702
1.0, -289.71135006751865, -248.98009965009987, -227.18957255827263, -208.57983037875965, 0.0, 0.11200000531971455, 0.0, 0.0, 0.0, 0.0, 0.0, 0.0, 1.651837285715818E9, 0.0, 2022-05-06 12:41:25.715
1.0, -296.64138468541205, -205.62717936374247, -242.00705618271604, -229.018383636605, 0.0, 0.11200000531971455, 0.0, 0.0, 0.0, 0.0, 0.0, 0.0, 1.651837285715818E9, 0.0, 2022-05-06 12:41:25.715
2.0, -213.9559365650639, -68.98619458265603, -131.83334338804707, -158.75314326910302, 0.144000006839633, 0.11200000531971455, 0.0, 0.0, 0.0, 0.0, 0.0, 0.0, 1.6518372857328155E9, 0.0, 2022-05-06 12:41:25.732
2.0, -223.23462835513055, -119.93111177906394, -150.7908962634392, -169.41933794273064, 0.144000006839633, 0.11200000531971455, 0.0, 0.0, 0.0, 0.0, 0.0, 0.0, 1.6518372857328155E9, 0.0, 2022-05-06 12:41:25.732
3.0, -274.6806921456009, -253.94294689130038, -240.60085379937664, -226.2358980695717, 0.144000006839633, 0.11200000531971455, 0.0, 0.0, 0.0, 0.0, 0.0, 0.0, 1.6518372857337823E9, 0.0, 2022-05-06 12:41:25.733
3.0, -289.8796455655247, -205.2494494682178, -231.85322780301794, -221.6059019244276, 0.144000006839633, 0.11200000531971455, 0.0, 0.0, 0.0, 0.0, 0.0, 0.0, 1.6518372857337823E9, 0.0, 2022-05-06 12:41:25.733
4.0, -228.1077179973945, -67.81560589652508, -139.10744880186394, -157.48905708407983, 0.144000006839633, 0.11200000531971455, 0.0, 0.0, 0.0, 0.0, 0.0, 0.0, 1.651837285744831E9, 0.0, 2022-05-06 12:41:25.744
4.0, -231.5933047560975, -127.6540051875636, -150.57772196596488, -168.82095394982025, 0.144000006839633, 0.11200000531971455, 0.0, 0.0, 0.0, 0.0, 0.0, 0.0, 1.651837285744831E9, 0.0, 2022-05-06 12:41:25.744
5.0, -302.2923735184595, -259.02547093108296, -247.6917041153647, -227.56356255384162, 0.144000006839633, 0.11200000531971455, 0.0, 0.0, 0.0, 0.0, 0.0, 0.0, 1.6518372857608924E9, 0.0, 2022-05-06 12:41:25.760
5.0, -294.9135509058833, -204.66228517517447, -225.02791038388386, -215.7492185938172, 0.144000006839633, 0.11200000531971455, 0.0, 0.0, 0.0, 0.0, 0.0, 0.0, 1.6518372857608924E9, 0.0, 2022-05-06 12:41:25.760
6.0, -225.39629052951932, -69.34522497840226, -139.81802979344502, -163.26346261566505, 0.144000006839633, 0.11200000531971455, 0.0, 0.0, 0.0, 0.0, 0.0, 0.0, 1.6518372857617805E9, 0.0, 2022-05-06 12:41:25.761
6.0, -213.810080466792, -111.86040767468512, -143.48687164997682, -159.75169655727223, 0.144000006839633, 0.11200000531971455, 0.0, 0.0, 0.0, 0.0, 0.0, 0.0, 1.6518372857617805E9, 0.0, 2022-05-06 12:41:25.761
7.0, -295.05192720424384, -259.69491302315146, -248.98196960007772, -230.56670221826062, 0.144000006839633, 0.11200000531971455, 0.0, 0.0, 0.0, 0.0, 0.0, 0.0, 1.6518372857748702E9, 0.0, 2022-05-06 12:41:25.774
7.0, -286.0200688112527, -202.59412049967796, -221.3852478270419, -209.27919167047366, 0.144000006839633, 0.11200000531971455, 0.0, 0.0, 0.0, 0.0, 0.0, 0.0, 1.6518372857748702E9, 0.0, 2022-05-06 12:41:25.774
8.0, -216.94785652961582, -67.94650239497423, -143.31483625201508, -166.79018827388063, 0.144000006839633, 0.11200000531971455, 0.0, 0.0, 0.0, 0.0, 0.0, 0.0, 1.651837285790826E9, 0.0, 2022-05-06 12:41:25.790
8.0, -213.20047677401453, -114.54939574282616, -149.15655998280272, -172.60573270497844, 0.144000006839633, 0.11200000531971455, 0.0, 0.0, 0.0, 0.0, 0.0, 0.0, 1.651837285790826E9, 0.0, 2022-05-06 12:41:25.790
9.0, -285.73957631457597, -252.39088840968907, -233.22577108675614, -219.1974063529633, 0.144000006839633, 0.11200000531971455, 0.0, 0.0, 0.0, 0.0, 0.0, 0.0, 1.651837285791772E9, 0.0, 2022-05-06 12:41:25.791
9.0, -293.19319692626595, -204.60992657579482, -229.97205812530592, -220.6036087363027, 0.144000006839633, 0.11200000531971455, 0.0, 0.0, 0.0, 0.0, 0.0, 0.0, 1.651837285791772E9, 0.0, 2022-05-06 12:41:25.791
10.0, -240.8196379467845, -71.39843005407602, -139.29818369960412, -171.14343182230368, 0.144000006839633, 0.11200000531971455, 1.0240000486373901, 0.0, 0.0, 0.0, 0.0, 0.0, 1.651837285805882E9, 0.0, 2022-05-06 12:41:25.805
10.0, -236.39907619915903, -135.89674468990415, -163.96282390737906, -171.356606119778, 0.144000006839633, 0.11200000531971455, 1.0240000486373901, 0.0, 0.0, 0.0, 0.0, 0.0, 1.651837285805882E9, 0.0, 2022-05-06 12:41:25.805
11.0, -296.38333158846945, -255.32670987490565, -229.7626237277873, -223.44967260258272, 0.144000006839633, 0.04800000227987766, 1.0240000486373901, 0.0, 0.0, 0.0, 0.0, 0.0, 1.651837285820831E9, 0.0, 2022-05-06 12:41:25.820
11.0, -294.11695221532136, -202.29492850322276, -227.29428975703195, -215.95865299133584, 0.144000006839633, 0.04800000227987766, 1.0240000486373901, 0.0, 0.0, 0.0, 0.0, 0.0, 1.651837285820831E9, 0.0, 2022-05-06 12:41:25.820
12.0, -216.71224283240736, -63.391304248943925, -135.57324334373698, -162.1714118286036, 0.06400000303983688, 0.04800000227987766, 1.0240000486373901, 0.0, 0.0, 0.0, 0.0, 0.0, 1.6518372858217967E9, 0.0, 2022-05-06 12:41:25.821
12.0, -226.2527276193723, -129.77452846243978, -155.17405901150778, -184.37893776549026, 0.06400000303983688, 0.04800000227987766, 1.0240000486373901, 0.0, 0.0, 0.0, 0.0, 0.0, 1.6518372858217967E9, 0.0, 2022-05-06 12:41:25.821
13.0, -304.31191949453205, -272.7920426679775, -250.1749976859428, -241.03468219423667, 0.06400000303983688, 0.04800000227987766, 1.0240000486373901, 0.0, 0.0, 0.0, 0.0, 0.0, 1.6518372858348212E9, 0.0, 2022-05-06 12:41:25.834
13.0, -304.035166897811, -205.78799506183714, -239.96881070686504, -227.22697155782953, 0.06400000303983688, 0.04800000227987766, 1.0240000486373901, 0.0, 0.0, 0.0, 0.0, 0.0, 1.6518372858348212E9, 0.0, 2022-05-06 12:41:25.834
14.0, -226.2602074192837, -66.5515197115019, -127.9288878343068, -151.19480545865372, 0.06400000303983688, 0.04800000227987766, 1.0240000486373901, 0.0, 0.0, 0.0, 0.0, 0.0, 1.6518372858508384E9, 0.0, 2022-05-06 12:41:25.850
14.0, -234.7086414191872, -151.12561730947345, -177.67703704489395, -194.151296349708, 0.06400000303983688, 0.04800000227987766, 1.0240000486373901, 0.0, 0.0, 0.0, 0.0, 0.0, 1.6518372858508384E9, 0.0, 2022-05-06 12:41:25.850
15.0, -301.11804493237287, -278.36823350191116, -247.2092570210807, -231.10898771183565, 0.06400000303983688, 0.04800000227987766, 1.0240000486373901, 0.0, 0.0, 0.0, 0.0, 0.0, 1.6518372858518224E9, 0.0, 2022-05-06 12:41:25.851
15.0, -284.41565173026174, -180.85408205725253, -216.9347668797709, -194.46544794598594, 0.06400000303983688, 0.04800000227987766, 1.0240000486373901, 0.0, 0.0, 0.0, 0.0, 0.0, 1.6518372858518224E9, 0.0, 2022-05-06 12:41:25.851
16.0, -213.81756026670337, -45.42482486180961, -127.45392053993419, -160.55951494770125, 0.06400000303983688, 0.04800000227987766, 1.0240000486373901, 0.0, 0.0, 0.0, 0.0, 0.0, 1.6518372858648667E9, 0.0, 2022-05-06 12:41:25.864
16.0, -236.3728968994692, -146.27496706694365, -164.86039989674464, -188.3320120186545, 0.06400000303983688, 0.04800000227987766, 1.0240000486373901, 0.0, 0.0, 0.0, 0.0, 0.0, 1.6518372858648667E9, 0.0, 2022-05-06 12:41:25.864
17.0, -313.82996488176286, -277.07048821728677, -257.505201599095, -241.01224279450253, 0.06400000303983688, 0.04800000227987766, 1.0240000486373901, 0.0, 0.0, 0.0, 0.0, 0.0, 1.6518372858808365E9, 0.0, 2022-05-06 12:41:25.880
17.0, -274.16084605176, -171.9680797625333, -207.51769879134372, -205.0007461211644, 0.06400000303983688, 0.04800000227987766, 1.0240000486373901, 0.0, 0.0, 0.0, 0.0, 0.0, 1.6518372858808365E9, 0.0, 2022-05-06 12:41:25.880
18.0, -203.42063838988543, -44.15699877683073, -120.43412832310423, -138.6773603069596, 0.06400000303983688, 0.04800000227987766, 1.0240000486373901, 0.0, 0.0, 0.0, 0.0, 0.0, 1.651837285881787E9, 0.0, 2022-05-06 12:41:25.881
18.0, -240.09409735538065, -142.93897630646825, -158.25199667504057, -161.49075003666803, 0.06400000303983688, 0.04800000227987766, 1.0240000486373901, 0.0, 0.0, 0.0, 0.0, 0.0, 1.651837285881787E9, 0.0, 2022-05-06 12:41:25.881
19.0, -306.78773326519877, -276.0195763297379, -270.1049245498143, -247.77398191438988, 0.06400000303983688, 0.04800000227987766, 1.0240000486373901, 0.0, 0.0, 0.0, 0.0, 0.0, 1.6518372858948288E9, 0.0, 2022-05-06 12:41:25.894
19.0, -287.3963519949466, -179.27958417590708, -213.7109731179662, -218.6738203591667, 0.06400000303983688, 0.04800000227987766, 1.0240000486373901, 0.0, 0.0, 0.0, 0.0, 0.0, 1.6518372858948288E9, 0.0, 2022-05-06 12:41:25.894
20.0, -211.15849139820784, -31.594674825668335, -100.38078476069495, -132.58506327914074, 0.06400000303983688, 0.04800000227987766, 0.5120000243186951, 0.0, 0.0, 0.0, 0.0, 0.0, 1.6518372859108253E9, 0.0, 2022-05-06 12:41:25.910
20.0, -240.8570369463414, -156.20814134925604, -173.9520966890268, -191.039699586574, 0.06400000303983688, 0.04800000227987766, 0.5120000243186951, 0.0, 0.0, 0.0, 0.0, 0.0, 1.6518372859108253E9, 0.0, 2022-05-06 12:41:25.910
21.0, -312.38262359891087, -282.8374139489606, -263.7096956255846, -251.56624046945944, 0.06400000303983688, 0.09600000455975533, 0.5120000243186951, 0.0, 0.0, 0.0, 0.0, 0.0, 1.651837285911772E9, 0.0, 2022-05-06 12:41:25.911
21.0, -295.882184994407, -179.3095033755526, -212.36086923396215, -205.16530171921477, 0.06400000303983688, 0.09600000455975533, 0.5120000243186951, 0.0, 0.0, 0.0, 0.0, 0.0, 1.651837285911772E9, 0.0, 2022-05-06 12:41:25.911
22.0, -210.30205430835485, -46.25134275201708, -121.49252001056448, -148.9059866857715, 0.09600000455975533, 0.09600000455975533, 0.5120000243186951, 0.0, 0.0, 0.0, 0.0, 0.0, 1.651837285924842E9, 0.0, 2022-05-06 12:41:25.924
22.0, -234.57400502078235, -143.24190820287913, -160.49593664845452, -173.0283413999714, 0.09600000455975533, 0.09600000455975533, 0.5120000243186951, 0.0, 0.0, 0.0, 0.0, 0.0, 1.651837285924842E9, 0.0, 2022-05-06 12:41:25.924
23.0, -310.4341357219964, -277.7174909096211, -265.49362790444866, -232.29079609783366, 0.09600000455975533, 0.09600000455975533, 0.5120000243186951, 0.0, 0.0, 0.0, 0.0, 0.0, 1.6518372859408498E9, 0.0, 2022-05-06 12:41:25.940
23.0, -285.37306611891836, -172.2336126593873, -203.94983423361555, -205.5991301140748, 0.09600000455975533, 0.09600000455975533, 0.5120000243186951, 0.0, 0.0, 0.0, 0.0, 0.0, 1.6518372859408498E9, 0.0, 2022-05-06 12:41:25.940
24.0, -210.6236857045442, -45.21539046429098, -120.2994919246994, -156.48676389595494, 0.09600000455975533, 0.09600000455975533, 0.5120000243186951, 0.0, 0.0, 0.0, 0.0, 0.0, 1.6518372859418151E9, 0.0, 2022-05-06 12:41:25.941
24.0, -246.50054597947747, -164.05071155633777, -179.8499189191498, -195.72579423105344, 0.09600000455975533, 0.09600000455975533, 0.5120000243186951, 0.0, 0.0, 0.0, 0.0, 0.0, 1.6518372859418151E9, 0.0, 2022-05-06 12:41:25.941
25.0, -325.3376370454207, -292.9164443295449, -273.4446552102454, -253.3613924481906, 0.09600000455975533, 0.09600000455975533, 0.5120000243186951, 0.0, 0.0, 0.0, 0.0, 0.0, 1.651837285954856E9, 0.0, 2022-05-06 12:41:25.954
25.0, -295.8410460948944, -186.74816438741982, -219.4517195499502, -214.0101651144214, 0.09600000455975533, 0.09600000455975533, 0.5120000243186951, 0.0, 0.0, 0.0, 0.0, 0.0, 1.651837285954856E9, 0.0, 2022-05-06 12:41:25.954
26.0, -198.19973805174232, -30.038876444101334, -114.47646769369021, -141.05593667877838, 0.09600000455975533, 0.09600000455975533, 0.5120000243186951, 0.0, 0.0, 0.0, 0.0, 0.0, 1.6518372859708357E9, 0.0, 2022-05-06 12:41:25.970
26.0, -227.47193500492722, -139.53566734679043, -161.2401767396368, -172.09336641104892, 0.09600000455975533, 0.09600000455975533, 0.5120000243186951, 0.0, 0.0, 0.0, 0.0, 0.0, 1.6518372859708357E9, 0.0, 2022-05-06 12:41:25.970
27.0, -311.76554010622203, -276.2888491265476, -257.04145400458947, -245.60110004013404, 0.09600000455975533, 0.09600000455975533, 0.5120000243186951, 0.0, 0.0, 0.0, 0.0, 0.0, 1.651837285971805E9, 0.0, 2022-05-06 12:41:25.971
27.0, -274.9013462429866, -180.824162857607, -217.4209538740106, -208.92016127472743, 0.09600000455975533, 0.09600000455975533, 0.5120000243186951, 0.0, 0.0, 0.0, 0.0, 0.0, 1.651837285971805E9, 0.0, 2022-05-06 12:41:25.971
28.0, -220.56059988681227, -36.73703726474196, -114.41662929439917, -134.83648305246606, 0.09600000455975533, 0.09600000455975533, 0.5120000243186951, 0.0, 0.0, 0.0, 0.0, 0.0, 1.6518372859848468E9, 0.0, 2022-05-06 12:41:25.984
28.0, -240.38206965196878, -149.56981892790645, -160.03218905394897, -180.79985350789502, 0.09600000455975533, 0.09600000455975533, 0.5120000243186951, 0.0, 0.0, 0.0, 0.0, 0.0, 1.6518372859848468E9, 0.0, 2022-05-06 12:41:25.984
29.0, -308.64646354317665, -283.0917271459475, -257.85675219492987, -244.93913774797693, 0.09600000455975533, 0.09600000455975533, 0.5120000243186951, 0.0, 0.0, 0.0, 0.0, 0.0, 1.6518372860008893E9, 0.0, 2022-05-06 12:41:26.000
29.0, -289.89086526539177, -183.31867612805218, -207.8916887869127, -212.92185422731563, 0.09600000455975533, 0.09600000455975533, 0.5120000243186951, 0.0, 0.0, 0.0, 0.0, 0.0, 1.6518372860008893E9, 0.0, 2022-05-06 12:41:26.000
30.0, -208.77617512643337, -42.55258169583976, -121.37658311193809, -136.9308270276524, 0.09600000455975533, 0.09600000455975533, 0.7680000364780426, 0.0, 0.0, 0.0, 0.0, 0.0, 1.6518372860017872E9, 0.0, 2022-05-06 12:41:26.001
30.0, -237.27795268874615, -147.0379066579044, -161.00456304242834, -172.97972270054743, 0.09600000455975533, 0.09600000455975533, 0.7680000364780426, 0.0, 0.0, 0.0, 0.0, 0.0, 1.6518372860017872E9, 0.0, 2022-05-06 12:41:26.001
31.0, -322.5327120786533, -288.5145820816979, -274.2188145010732, -257.35186570091173, 0.09600000455975533, 0.11200000531971455, 0.7680000364780426, 0.0, 0.0, 0.0, 0.0, 0.0, 1.6518372860148368E9, 0.0, 2022-05-06 12:41:26.014
31.0, -289.81606726627797, -175.2666715234518, -209.88131556333974, -203.55340483831242, 0.09600000455975533, 0.11200000531971455, 0.7680000364780426, 0.0, 0.0, 0.0, 0.0, 0.0, 1.6518372860148368E9, 0.0, 2022-05-06 12:41:26.014
32.0, -212.55721398163587, -45.97459015529603, -114.99257388757542, -152.5673487423919, 0.11200000531971455, 0.11200000531971455, 0.7680000364780426, 0.0, 0.0, 0.0, 0.0, 0.0, 1.6518372860308487E9, 0.0, 2022-05-06 12:41:26.030
32.0, -244.05839130841196, -162.71930717211217, -171.9886492122896, -189.86163110053167, 0.11200000531971455, 0.11200000531971455, 0.7680000364780426, 0.0, 0.0, 0.0, 0.0, 0.0, 1.6518372860308487E9, 0.0, 2022-05-06 12:41:26.030
33.0, -309.8469714289531, -278.0952208051458, -261.1703035556711, -241.0197225944139, 0.11200000531971455, 0.11200000531971455, 0.7680000364780426, 0.0, 0.0, 0.0, 0.0, 0.0, 1.6518372860318208E9, 0.0, 2022-05-06 12:41:26.031
33.0, -281.07218116987497, -174.72438602987677, -208.1871408834122, -206.42564800428227, 0.11200000531971455, 0.11200000531971455, 0.7680000364780426, 0.0, 0.0, 0.0, 0.0, 0.0, 1.6518372860318208E9, 0.0, 2022-05-06 12:41:26.031
34.0, -213.11071917507797, -39.58310113102198, -120.19103482598439, -139.88534799264744, 0.11200000531971455, 0.11200000531971455, 0.7680000364780426, 0.0, 0.0, 0.0, 0.0, 0.0, 1.6518372860449247E9, 0.0, 2022-05-06 12:41:26.044
34.0, -238.3026852766052, -150.06348572205752, -168.3946053548716, -184.07600586907938, 0.11200000531971455, 0.11200000531971455, 0.7680000364780426, 0.0, 0.0, 0.0, 0.0, 0.0, 1.6518372860449247E9, 0.0, 2022-05-06 12:41:26.044
35.0, -312.0348129030317, -273.5475024590269, -260.53078066324815, -241.6106267874129, 0.11200000531971455, 0.11200000531971455, 0.7680000364780426, 0.0, 0.0, 0.0, 0.0, 0.0, 1.6518372860778303E9, 0.0, 2022-05-06 12:41:26.077
35.0, -283.5367752406746, -171.84466306399554, -221.6395610240288, -210.12814896041527, 0.11200000531971455, 0.11200000531971455, 0.7680000364780426, 0.0, 0.0, 0.0, 0.0, 0.0, 1.6518372860778303E9, 0.0, 2022-05-06 12:41:26.077
36.0, -204.6510654753074, -45.237829864025116, -109.84273164859042, -147.17815290624276, 0.11200000531971455, 0.11200000531971455, 0.7680000364780426, 0.0, 0.0, 0.0, 0.0, 0.0, 1.65183728607879E9, 0.0, 2022-05-06 12:41:26.078
36.0, -240.0005998564884, -138.1070255637169, -151.61741415364668, -171.43888391880319, 0.11200000531971455, 0.11200000531971455, 0.7680000364780426, 0.0, 0.0, 0.0, 0.0, 0.0, 1.65183728607879E9, 0.0, 2022-05-06 12:41:26.078
37.0, -305.50494758039713, -265.5403766538948, -252.0262481640093, -238.89171951962635, 0.11200000531971455, 0.11200000531971455, 0.7680000364780426, 0.0, 0.0, 0.0, 0.0, 0.0, 1.6518372860798116E9, 0.0, 2022-05-06 12:41:26.079
37.0, -278.2822158029303, -172.13263536058366, -216.04093079036102, -191.1444167853333, 0.11200000531971455, 0.11200000531971455, 0.7680000364780426, 0.0, 0.0, 0.0, 0.0, 0.0, 1.6518372860798116E9, 0.0, 2022-05-06 12:41:26.079
38.0, -218.5485337106511, -57.773974515497684, -124.4096419760026, -152.43645224394277, 0.11200000531971455, 0.11200000531971455, 0.7680000364780426, 0.0, 0.0, 0.0, 0.0, 0.0, 1.651837286080816E9, 0.0, 2022-05-06 12:41:26.080
38.0, -229.45782188139856, -135.41429759562016, -161.31123483879492, -177.02255455264822, 0.11200000531971455, 0.11200000531971455, 0.7680000364780426, 0.0, 0.0, 0.0, 0.0, 0.0, 1.651837286080816E9, 0.0, 2022-05-06 12:41:26.080
39.0, -304.1361441966146, -270.92209269013256, -254.1430315389298, -243.25618276791647, 0.11200000531971455, 0.11200000531971455, 0.7680000364780426, 0.0, 0.0, 0.0, 0.0, 0.0, 1.6518372860908368E9, 0.0, 2022-05-06 12:41:26.090
39.0, -283.7948283376172, -186.04132329579443, -216.87492848047987, -195.06009203894064, 0.11200000531971455, 0.11200000531971455, 0.7680000364780426, 0.0, 0.0, 0.0, 0.0, 0.0, 1.6518372860908368E9, 0.0, 2022-05-06 12:41:26.090
40.0, -216.5514271343127, -53.20755666960031, -125.40445536421612, -136.10804903740063, 0.11200000531971455, 0.11200000531971455, 0.8960000425577164, 0.0, 0.0, 0.0, 0.0, 0.0, 1.651837286105853E9, 0.0, 2022-05-06 12:41:26.105
40.0, -237.49112698622048, -137.20570967439562, -160.94098474318162, -188.2609539194964, 0.11200000531971455, 0.11200000531971455, 0.8960000425577164, 0.0, 0.0, 0.0, 0.0, 0.0, 1.651837286105853E9, 0.0, 2022-05-06 12:41:26.105
41.0, -300.9946282338351, -261.1684336056933, -243.67505156295374, -226.606148165185, 0.11200000531971455, 0.11200000531971455, 0.8960000425577164, 0.0, 0.0, 0.0, 0.0, 0.0, 1.65183728612083E9, 0.0, 2022-05-06 12:41:26.120
41.0, -292.56863363366574, -183.63282772433013, -214.159761112649, -201.2645860654302, 0.11200000531971455, 0.11200000531971455, 0.8960000425577164, 0.0, 0.0, 0.0, 0.0, 0.0, 1.65183728612083E9, 0.0, 2022-05-06 12:41:26.120
42.0, -215.38457834813744, -55.316860244609416, -130.61039610253647, -150.0541359721683, 0.12800000607967377, 0.11200000531971455, 0.8960000425577164, 0.0, 0.0, 0.0, 0.0, 0.0, 1.6518372861218553E9, 0.0, 2022-05-06 12:41:26.121
42.0, -245.92460138630122, -146.68635606206954, -168.07297395868227, -186.0282336459495, 0.12800000607967377, 0.11200000531971455, 0.8960000425577164, 0.0, 0.0, 0.0, 0.0, 0.0, 1.6518372861218553E9, 0.0, 2022-05-06 12:41:26.121
43.0, -302.587825614959, -270.10679449979216, -253.61196574522182, -242.15665218094364, 0.12800000607967377, 0.11200000531971455, 0.8960000425577164, 0.0, 0.0, 0.0, 0.0, 0.0, 1.6518372861358268E9, 0.0, 2022-05-06 12:41:26.135
43.0, -297.82693297136575, -198.93275844305754, -224.10789499478415, -223.70398579956964, 0.12800000607967377, 0.11200000531971455, 0.8960000425577164, 0.0, 0.0, 0.0, 0.0, 0.0, 1.6518372861358268E9, 0.0, 2022-05-06 12:41:26.135
44.0, -220.17165029142052, -52.137945282272995, -121.03251231601462, -152.37661384465173, 0.12800000607967377, 0.11200000531971455, 0.8960000425577164, 0.0, 0.0, 0.0, 0.0, 0.0, 1.6518372861508458E9, 0.0, 2022-05-06 12:41:26.150
44.0, -219.9210769943893, -124.55736802425236, -150.4206461678259, -163.9890032070689, 0.12800000607967377, 0.11200000531971455, 0.8960000425577164, 0.0, 0.0, 0.0, 0.0, 0.0, 1.6518372861508458E9, 0.0, 2022-05-06 12:41:26.150
45.0, -306.75033426564187, -268.360261220485, -264.5436933157034, -231.56525550642982, 0.12800000607967377, 0.11200000531971455, 0.8960000425577164, 0.0, 0.0, 0.0, 0.0, 0.0, 1.6518372861517785E9, 0.0, 2022-05-06 12:41:26.151
45.0, -285.8106344137341, -192.2009385228157, -218.73365875845775, -212.99291232647374, 0.12800000607967377, 0.11200000531971455, 0.8960000425577164, 0.0, 0.0, 0.0, 0.0, 0.0, 1.6518372861517785E9, 0.0, 2022-05-06 12:41:26.151
46.0, -223.6572370501235, -56.40891103167087, -133.88280856376514, -152.20831834664568, 0.12800000607967377, 0.11200000531971455, 0.8960000425577164, 0.0, 0.0, 0.0, 0.0, 0.0, 1.6518372861658754E9, 0.0, 2022-05-06 12:41:26.165
46.0, -229.08757178578526, -136.49138878285885, -163.1363060171716, -172.59825290506706, 0.12800000607967377, 0.11200000531971455, 0.8960000425577164, 0.0, 0.0, 0.0, 0.0, 0.0, 1.6518372861658754E9, 0.0, 2022-05-06 12:41:26.165
47.0, -286.86154630128294, -259.7958903219551, -240.9112654956989, -226.93151946133003, 0.12800000607967377, 0.11200000531971455, 0.8960000425577164, 0.0, 0.0, 0.0, 0.0, 0.0, 1.6518372861808388E9, 0.0, 2022-05-06 12:41:26.180
47.0, -274.6208537463099, -177.43581349775195, -208.72942637698725, -201.23840676574036, 0.12800000607967377, 0.11200000531971455, 0.8960000425577164, 0.0, 0.0, 0.0, 0.0, 0.0, 1.6518372861808388E9, 0.0, 2022-05-06 12:41:26.180
48.0, -219.67424359731376, -52.78120807465166, -118.5940975449048, -146.1945592178963, 0.12800000607967377, 0.11200000531971455, 0.8960000425577164, 0.0, 0.0, 0.0, 0.0, 0.0, 1.6518372861817925E9, 0.0, 2022-05-06 12:41:26.181
48.0, -227.67762950249016, -121.5018697604537, -146.47879161452875, -156.89441299112514, 0.12800000607967377, 0.11200000531971455, 0.8960000425577164, 0.0, 0.0, 0.0, 0.0, 0.0, 1.6518372861817925E9, 0.0, 2022-05-06 12:41:26.181
49.0, -302.4045705171302, -261.65462059993297, -233.1995917870663, -222.48103851405904, 0.12800000607967377, 0.11200000531971455, 0.8960000425577164, 0.0, 0.0, 0.0, 0.0, 0.0, 1.6518372861958303E9, 0.0, 2022-05-06 12:41:26.195
49.0, -280.33916077855974, -172.65248145442456, -209.67936096573249, -193.97552105179057, 0.12800000607967377, 0.11200000531971455, 0.8960000425577164, 0.0, 0.0, 0.0, 0.0, 0.0, 1.6518372861958303E9, 0.0, 2022-05-06 12:41:26.195
50.0, -208.10673303436488, -55.64597144071013, -131.8258635881357, -167.7251632628031, 0.12800000607967377, 0.11200000531971455, 0.944000044837594, 0.0, 0.0, 0.0, 0.0, 0.0, 1.6518372862108293E9, 0.0, 2022-05-06 12:41:26.210
50.0, -243.69562101271003, -145.5531663754955, -162.81841452093795, -186.74629443744197, 0.12800000607967377, 0.11200000531971455, 0.944000044837594, 0.0, 0.0, 0.0, 0.0, 0.0, 1.6518372862108293E9, 0.0, 2022-05-06 12:41:26.210
51.0, -311.0026005152613, -270.566802194342, -249.52799499360844, -230.33856832096353, 0.12800000607967377, 0.11200000531971455, 0.944000044837594, 0.0, 0.0, 0.0, 0.0, 0.0, 1.6518372862118444E9, 0.0, 2022-05-06 12:41:26.211
51.0, -285.5376217169687, -186.32555569242686, -216.13068838929757, -206.38450910476968, 0.12800000607967377, 0.11200000531971455, 0.944000044837594, 0.0, 0.0, 0.0, 0.0, 0.0, 1.6518372862118444E9, 0.0, 2022-05-06 12:41:26.211
52.0, -200.89620591979474, -39.11935353651643, -114.90281628863886, -147.58206210145727, 0.12800000607967377, 0.11200000531971455, 0.944000044837594, 0.0, 0.0, 0.0, 0.0, 0.0, 1.65183728622587E9, 0.0, 2022-05-06 12:41:26.225
52.0, -216.67484383285046, -127.80734108574688, -146.7966831107624, -167.40353186661378, 0.12800000607967377, 0.11200000531971455, 0.944000044837594, 0.0, 0.0, 0.0, 0.0, 0.0, 1.65183728622587E9, 0.0, 2022-05-06 12:41:26.225
53.0, -301.8061865242198, -266.0938818473369, -247.78146171430126, -240.59711389942095, 0.12800000607967377, 0.11200000531971455, 0.944000044837594, 0.0, 0.0, 0.0, 0.0, 0.0, 1.651837286240832E9, 0.0, 2022-05-06 12:41:26.240
53.0, -299.7642011484131, -198.82056144438684, -223.59552870085463, -218.3858480625786, 0.12800000607967377, 0.11200000531971455, 0.944000044837594, 0.0, 0.0, 0.0, 0.0, 0.0, 1.651837286240832E9, 0.0, 2022-05-06 12:41:26.240
54.0, -219.26659450214356, -58.09560591168702, -127.81669083563611, -150.14015367114916, 0.12800000607967377, 0.11200000531971455, 0.944000044837594, 0.0, 0.0, 0.0, 0.0, 0.0, 1.6518372862417912E9, 0.0, 2022-05-06 12:41:26.241
54.0, -218.36901851277798, -130.989995948039, -149.29867618111894, -163.60753341158852, 0.12800000607967377, 0.11200000531971455, 0.944000044837594, 0.0, 0.0, 0.0, 0.0, 0.0, 1.6518372862417912E9, 0.0, 2022-05-06 12:41:26.241
55.0, -303.7359749013558, -265.7236317517236, -257.60243899794295, -234.8713270672597, 0.12800000607967377, 0.11200000531971455, 0.944000044837594, 0.0, 0.0, 0.0, 0.0, 0.0, 1.6518372862548482E9, 0.0, 2022-05-06 12:41:26.254
55.0, -288.53328158147633, -188.67421286460012, -223.84610199788585, -205.44205431593582, 0.12800000607967377, 0.11200000531971455, 0.944000044837594, 0.0, 0.0, 0.0, 0.0, 0.0, 1.6518372862548482E9, 0.0, 2022-05-06 12:41:26.254
56.0, -212.5459942817688, -49.47513651382178, -120.26957272505388, -160.75024984544143, 0.12800000607967377, 0.11200000531971455, 0.944000044837594, 0.0, 0.0, 0.0, 0.0, 0.0, 1.651837286271828E9, 0.0, 2022-05-06 12:41:26.271
56.0, -229.22968798410147, -134.584039805457, -157.95280467858538, -186.86971113597974, 0.12800000607967377, 0.11200000531971455, 0.944000044837594, 0.0, 0.0, 0.0, 0.0, 0.0, 1.651837286271828E9, 0.0, 2022-05-06 12:41:26.271
57.0, -304.2969598947093, -267.10739473532885, -251.282008072827, -238.05024202959612, 0.12800000607967377, 0.11200000531971455, 0.944000044837594, 0.0, 0.0, 0.0, 0.0, 0.0, 1.6518372862728126E9, 0.0, 2022-05-06 12:41:26.272
57.0, -290.4817694583908, -189.22397815808654, -218.28113086381927, -210.64425515430048, 0.12800000607967377, 0.11200000531971455, 0.944000044837594, 0.0, 0.0, 0.0, 0.0, 0.0, 1.6518372862728126E9, 0.0, 2022-05-06 12:41:26.272
58.0, -216.91045753005892, -58.07690641190857, -124.27874547755346, -152.1260405476205, 0.12800000607967377, 0.11200000531971455, 0.944000044837594, 0.0, 0.0, 0.0, 0.0, 0.0, 1.651837286285833E9, 0.0, 2022-05-06 12:41:26.285
58.0, -221.2487414786592, -132.53457462973893, -152.6122275418602, -172.2467023092322, 0.12800000607967377, 0.11200000531971455, 0.944000044837594, 0.0, 0.0, 0.0, 0.0, 0.0, 1.651837286285833E9, 0.0, 2022-05-06 12:41:26.285
59.0, -297.1387913795188, -267.81049592699856, -248.0656941109337, -220.4240935384296, 0.12800000607967377, 0.11200000531971455, 0.944000044837594, 0.0, 0.0, 0.0, 0.0, 0.0, 1.651837286300832E9, 0.0, 2022-05-06 12:41:26.300
59.0, -276.6104805227369, -177.36849529854953, -211.65776804229245, -195.92026902874932, 0.12800000607967377, 0.11200000531971455, 0.944000044837594, 0.0, 0.0, 0.0, 0.0, 0.0, 1.651837286300832E9, 0.0, 2022-05-06 12:41:26.300
60.0, -204.93903777189553, -48.64487872365862, -110.72908793808892, -132.6000228789635, 0.12800000607967377, 0.11200000531971455, 0.9760000463575125, 0.0, 0.0, 0.0, 0.0, 0.0, 1.6518372863018537E9, 0.0, 2022-05-06 12:41:26.301
60.0, -231.23427436035126, -126.45349730178714, -157.92662537889555, -164.26949570374563, 0.12800000607967377, 0.11200000531971455, 0.9760000463575125, 0.0, 0.0, 0.0, 0.0, 0.0, 1.6518372863018537E9, 0.0, 2022-05-06 12:41:26.301
61.0, -286.87276600115, -253.90928779169917, -237.06290844129398, -235.63800655817613, 0.12800000607967377, 0.12800000607967377, 0.9760000463575125, 0.0, 0.0, 0.0, 0.0, 0.0, 1.6518372863158352E9, 0.0, 2022-05-06 12:41:26.315
61.0, -279.3144281907007, -187.79907627496868, -219.39562105061486, -215.99979189084843, 0.12800000607967377, 0.12800000607967377, 0.9760000463575125, 0.0, 0.0, 0.0, 0.0, 0.0, 1.6518372863158352E9, 0.0, 2022-05-06 12:41:26.315
62.0, -225.81889922451228, -56.66322422865778, -128.82646382367238, -151.58001515408978, 0.12800000607967377, 0.12800000607967377, 0.9760000463575125, 0.0, 0.0, 0.0, 0.0, 0.0, 1.651837286330908E9, 0.0, 2022-05-06 12:41:26.330
62.0, -234.2561135245487, -137.4338435716927, -167.82240066165105, -180.81481310771778, 0.12800000607967377, 0.12800000607967377, 0.9760000463575125, 0.0, 0.0, 0.0, 0.0, 0.0, 1.651837286330908E9, 0.0, 2022-05-06 12:41:26.330
63.0, -297.46042277570814, -265.2075255578384, -246.55851442879066, -229.52327013062313, 0.12800000607967377, 0.12800000607967377, 0.9760000463575125, 0.0, 0.0, 0.0, 0.0, 0.0, 1.651837286331813E9, 0.0, 2022-05-06 12:41:26.331
63.0, -284.8008614256978, -190.29358954541385, -218.99545175535604, -216.2653247877024, 0.12800000607967377, 0.12800000607967377, 0.9760000463575125, 0.0, 0.0, 0.0, 0.0, 0.0, 1.651837286331813E9, 0.0, 2022-05-06 12:41:26.331
64.0, -212.15330478642136, -50.888818697072566, -130.25136570679024, -169.60259304055944, 0.12800000607967377, 0.12800000607967377, 0.9760000463575125, 0.0, 0.0, 0.0, 0.0, 0.0, 1.651837286344865E9, 0.0, 2022-05-06 12:41:26.344
64.0, -224.37903774157166, -140.16771043930203, -161.9507577312179, -172.55337410559878, 0.12800000607967377, 0.12800000607967377, 0.9760000463575125, 0.0, 0.0, 0.0, 0.0, 0.0, 1.651837286344865E9, 0.0, 2022-05-06 12:41:26.344
65.0, -318.1196301309392, -279.03393569402397, -266.5819387915544, -246.2855017320253, 0.12800000607967377, 0.12800000607967377, 0.9760000463575125, 0.0, 0.0, 0.0, 0.0, 0.0, 1.6518372863608289E9, 0.0, 2022-05-06 12:41:26.360
65.0, -294.56574021000415, -196.36344717349857, -228.65187344094738, -223.6404075003229, 0.12800000607967377, 0.12800000607967377, 0.9760000463575125, 0.0, 0.0, 0.0, 0.0, 0.0, 1.6518372863608289E9, 0.0, 2022-05-06 12:41:26.360
66.0, -214.60293925739825, -59.011881400831044, -135.416167545598, -158.33427447406575, 0.12800000607967377, 0.12800000607967377, 0.9760000463575125, 0.0, 0.0, 0.0, 0.0, 0.0, 1.651837286361797E9, 0.0, 2022-05-06 12:41:26.361
66.0, -227.98430129885674, -136.70456308033317, -170.09251993475482, -178.89624443044886, 0.12800000607967377, 0.12800000607967377, 0.9760000463575125, 0.0, 0.0, 0.0, 0.0, 0.0, 1.651837286361797E9, 0.0, 2022-05-06 12:41:26.361
67.0, -289.59915306884795, -260.8281027097255, -249.03432819945738, -228.15072684688494, 0.12800000607967377, 0.12800000607967377, 0.9760000463575125, 0.0, 0.0, 0.0, 0.0, 0.0, 1.6518372863759E9, 0.0, 2022-05-06 12:41:26.375
67.0, -294.49094221089035, -189.19405895844102, -224.24627129314467, -210.2291262592189, 0.12800000607967377, 0.12800000607967377, 0.9760000463575125, 0.0, 0.0, 0.0, 0.0, 0.0, 1.6518372863759E9, 0.0, 2022-05-06 12:41:26.375
68.0, -213.18177727423608, -49.07122731860727, -123.90101558202878, -152.4252325440757, 0.12800000607967377, 0.12800000607967377, 0.9760000463575125, 0.0, 0.0, 0.0, 0.0, 0.0, 1.651837286390842E9, 0.0, 2022-05-06 12:41:26.390
68.0, -226.0694725215435, -138.35011906083673, -157.36190048558637, -163.77956880955026, 0.12800000607967377, 0.12800000607967377, 0.9760000463575125, 0.0, 0.0, 0.0, 0.0, 0.0, 1.651837286390842E9, 0.0, 2022-05-06 12:41:26.390
69.0, -294.74525540787727, -259.0142512312159, -235.22287766309455, -221.0486568310298, 0.12800000607967377, 0.12800000607967377, 0.9760000463575125, 0.0, 0.0, 0.0, 0.0, 0.0, 1.6518372863918064E9, 0.0, 2022-05-06 12:41:26.391
69.0, -289.37475907150656, -187.19321248214692, -207.03525169705972, -215.37148869829252, 0.12800000607967377, 0.12800000607967377, 0.9760000463575125, 0.0, 0.0, 0.0, 0.0, 0.0, 1.6518372863918064E9, 0.0, 2022-05-06 12:41:26.391
70.0, -198.0912809530273, -41.9841169025749, -108.41408986551687, -142.604255260434, 0.12800000607967377, 0.12800000607967377, 0.9920000471174717, 0.0, 0.0, 0.0, 0.0, 0.0, 1.651837286405828E9, 0.0, 2022-05-06 12:41:26.405
70.0, -224.37529784161597, -143.2867870023474, -170.26081543276086, -180.33610591338947, 0.12800000607967377, 0.12800000607967377, 0.9920000471174717, 0.0, 0.0, 0.0, 0.0, 0.0, 1.651837286405828E9, 0.0, 2022-05-06 12:41:26.405
71.0, -316.16366245411336, -276.2327506272122, -258.68327008513734, -231.30346250953153, 0.12800000607967377, 0.12800000607967377, 0.9920000471174717, 0.0, 0.0, 0.0, 0.0, 0.0, 1.6518372864208288E9, 0.0, 2022-05-06 12:41:26.420
71.0, -290.08907996304333, -185.11008820682764, -212.87323552789167, -210.6779142539017, 0.12800000607967377, 0.12800000607967377, 0.9920000471174717, 0.0, 0.0, 0.0, 0.0, 0.0, 1.6518372864208288E9, 0.0, 2022-05-06 12:41:26.420
72.0, -221.97802197001874, -60.67613688111305, -135.18055384838954, -159.53104245988652, 0.12800000607967377, 0.12800000607967377, 0.9920000471174717, 0.0, 0.0, 0.0, 0.0, 0.0, 1.6518372864217844E9, 0.0, 2022-05-06 12:41:26.421
72.0, -222.00420126970857, -135.79202749114484, -154.3101421217434, -173.30135409673676, 0.12800000607967377, 0.12800000607967377, 0.9920000471174717, 0.0, 0.0, 0.0, 0.0, 0.0, 1.6518372864217844E9, 0.0, 2022-05-06 12:41:26.421
73.0, -300.94600953441113, -270.77997649181634, -258.34667908912525, -233.23325088666752, 0.12800000607967377, 0.12800000607967377, 0.9920000471174717, 0.0, 0.0, 0.0, 0.0, 0.0, 1.651837286435878E9, 0.0, 2022-05-06 12:41:26.435
73.0, -278.08400110527873, -180.8653017571196, -211.54183114366606, -221.0149977314286, 0.12800000607967377, 0.12800000607967377, 0.9920000471174717, 0.0, 0.0, 0.0, 0.0, 0.0, 1.651837286435878E9, 0.0, 2022-05-06 12:41:26.435
74.0, -206.838906949386, -45.85117345675826, -121.42520181136206, -145.36056152777746, 0.12800000607967377, 0.12800000607967377, 0.9920000471174717, 0.0, 0.0, 0.0, 0.0, 0.0, 1.6518372864508276E9, 0.0, 2022-05-06 12:41:26.450
74.0, -226.57435901556164, -137.7704345677048, -154.36250072112307, -165.45878388965502, 0.12800000607967377, 0.12800000607967377, 0.9920000471174717, 0.0, 0.0, 0.0, 0.0, 0.0, 1.6518372864508276E9, 0.0, 2022-05-06 12:41:26.450
75.0, -298.7656478602439, -255.90639436803758, -246.19948403304443, -235.15555946389213, 0.12800000607967377, 0.12800000607967377, 0.9920000471174717, 0.0, 0.0, 0.0, 0.0, 0.0, 1.651837286451767E9, 0.0, 2022-05-06 12:41:26.451
75.0, -288.802554378286, -186.41531329136342, -227.84779495047405, -215.11343560134992, 0.12800000607967377, 0.12800000607967377, 0.9920000471174717, 0.0, 0.0, 0.0, 0.0, 0.0, 1.651837286451767E9, 0.0, 2022-05-06 12:41:26.451
76.0, -213.0284413760528, -53.66008456423879, -122.52473239833489, -155.86220060335472, 0.12800000607967377, 0.12800000607967377, 0.9920000471174717, 0.0, 0.0, 0.0, 0.0, 0.0, 1.6518372864658701E9, 0.0, 2022-05-06 12:41:26.465
76.0, -211.7680950909853, -140.7324353326112, -157.06270848913118, -183.0288338814862, 0.12800000607967377, 0.12800000607967377, 0.9920000471174717, 0.0, 0.0, 0.0, 0.0, 0.0, 1.6518372864658701E9, 0.0, 2022-05-06 12:41:26.465
77.0, -285.93405111227185, -259.55279682483524, -248.86603270145133, -225.63003427674994, 0.12800000607967377, 0.12800000607967377, 0.9920000471174717, 0.0, 0.0, 0.0, 0.0, 0.0, 1.65183728648088E9, 0.0, 2022-05-06 12:41:26.480
77.0, -298.42157706432045, -183.61412822455168, -228.02731014834717, -195.38920323504135, 0.12800000607967377, 0.12800000607967377, 0.9920000471174717, 0.0, 0.0, 0.0, 0.0, 0.0, 1.65183728648088E9, 0.0, 2022-05-06 12:41:26.480
78.0, -213.19299697410315, -48.35316652711481, -124.0767908799462, -152.77678313991055, 0.12800000607967377, 0.12800000607967377, 0.9920000471174717, 0.0, 0.0, 0.0, 0.0, 0.0, 1.6518372864817824E9, 0.0, 2022-05-06 12:41:26.481
78.0, -225.46734862867743, -137.14961117506027, -167.00336257135496, -177.41150414803997, 0.12800000607967377, 0.12800000607967377, 0.9920000471174717, 0.0, 0.0, 0.0, 0.0, 0.0, 1.6518372864817824E9, 0.0, 2022-05-06 12:41:26.481
79.0, -288.5744204809889, -249.91881453897804, -230.45450521958992, -213.92040751548484, 0.12800000607967377, 0.12800000607967377, 0.9920000471174717, 0.0, 0.0, 0.0, 0.0, 0.0, 1.651837286495824E9, 0.0, 2022-05-06 12:41:26.495
79.0, -279.2358902916312, -181.3402690514922, -212.27859143493697, -202.04996505612507, 0.12800000607967377, 0.12800000607967377, 0.9920000471174717, 0.0, 0.0, 0.0, 0.0, 0.0, 1.651837286495824E9, 0.0, 2022-05-06 12:41:26.495
80.0, -214.62911855708808, -64.4010772369802, -137.50677162082866, -164.55372810037807, 0.12800000607967377, 0.12800000607967377, 1.008000047877431, 0.0, 0.0, 0.0, 0.0, 0.0, 1.6518372865108438E9, 0.0, 2022-05-06 12:41:26.510
80.0, -227.8160058008507, -140.29860693775117, -165.7691955859773, -172.48231600644067, 0.12800000607967377, 0.12800000607967377, 1.008000047877431, 0.0, 0.0, 0.0, 0.0, 0.0, 1.6518372865108438E9, 0.0, 2022-05-06 12:41:26.510
81.0, -297.49034197535366, -260.66354711167514, -253.9186375415884, -220.96263913204893, 0.12800000607967377, 0.12800000607967377, 1.008000047877431, 0.0, 0.0, 0.0, 0.0, 0.0, 1.6518372865258737E9, 0.0, 2022-05-06 12:41:26.525
81.0, -273.77189645636827, -175.0422775261104, -210.6031162547879, -206.07409740844741, 0.12800000607967377, 0.12800000607967377, 1.008000047877431, 0.0, 0.0, 0.0, 0.0, 0.0, 1.6518372865258737E9, 0.0, 2022-05-06 12:41:26.525
82.0, -212.48615588247776, -56.03866093605757, -127.53619833895937, -144.32086934009567, 0.144000006839633, 0.12800000607967377, 1.008000047877431, 0.0, 0.0, 0.0, 0.0, 0.0, 1.6518372865268152E9, 0.0, 2022-05-06 12:41:26.526
82.0, -231.26793345995247, -134.2474488094449, -154.2016850230284, -169.75592893874273, 0.144000006839633, 0.12800000607967377, 1.008000047877431, 0.0, 0.0, 0.0, 0.0, 0.0, 1.6518372865268152E9, 0.0, 2022-05-06 12:41:26.526
83.0, -302.4831084161997, -269.22043821029365, -253.86627894220874, -236.19525165157393, 0.144000006839633, 0.12800000607967377, 1.008000047877431, 0.0, 0.0, 0.0, 0.0, 0.0, 1.6518372865408416E9, 0.0, 2022-05-06 12:41:26.540
83.0, -292.53123463410884, -185.61497470084578, -221.92753332061693, -217.5331508726813, 0.144000006839633, 0.12800000607967377, 1.008000047877431, 0.0, 0.0, 0.0, 0.0, 0.0, 1.6518372865408416E9, 0.0, 2022-05-06 12:41:26.540
84.0, -211.85785268992186, -54.84937275014818, -123.30263158911839, -158.40907247317955, 0.144000006839633, 0.12800000607967377, 1.008000047877431, 0.0, 0.0, 0.0, 0.0, 0.0, 1.6518372865418031E9, 0.0, 2022-05-06 12:41:26.541
84.0, -217.6172986216843, -137.79661386739463, -150.66373966494575, -172.90492470143363, 0.144000006839633, 0.12800000607967377, 1.008000047877431, 0.0, 0.0, 0.0, 0.0, 0.0, 1.6518372865418031E9, 0.0, 2022-05-06 12:41:26.541
85.0, -296.0205612927675, -269.06710231211036, -241.14313929295167, -228.535936542321, 0.144000006839633, 0.12800000607967377, 1.008000047877431, 0.0, 0.0, 0.0, 0.0, 0.0, 1.6518372865558467E9, 0.0, 2022-05-06 12:41:26.555
85.0, -291.56260054558516, -185.6785530000925, -216.47101928526536, -203.968533733394, 0.144000006839633, 0.12800000607967377, 1.008000047877431, 0.0, 0.0, 0.0, 0.0, 0.0, 1.6518372865558467E9, 0.0, 2022-05-06 12:41:26.555
86.0, -219.54334709886461, -63.813912943936884, -123.36620988836512, -154.14184662373737, 0.144000006839633, 0.12800000607967377, 1.008000047877431, 0.0, 0.0, 0.0, 0.0, 0.0, 1.6518372865878303E9, 0.0, 2022-05-06 12:41:26.587
86.0, -223.7731739487499, -136.57366658188403, -166.75278927432373, -168.2786684562452, 0.144000006839633, 0.12800000607967377, 1.008000047877431, 0.0, 0.0, 0.0, 0.0, 0.0, 1.6518372865878303E9, 0.0, 2022-05-06 12:41:26.587
87.0, -286.45763710606843, -254.04018429014832, -230.0879950239323, -223.09438210679218, 0.144000006839633, 0.12800000607967377, 1.008000047877431, 0.0, 0.0, 0.0, 0.0, 0.0, 1.6518372865887702E9, 0.0, 2022-05-06 12:41:26.588
87.0, -283.761169238016, -184.05917631927878, -214.7095264061354, -209.9000150631182, 0.144000006839633, 0.12800000607967377, 1.008000047877431, 0.0, 0.0, 0.0, 0.0, 0.0, 1.6518372865887702E9, 0.0, 2022-05-06 12:41:26.588
88.0, -221.18516317941248, -59.22505569830537, -138.41182741010562, -161.19155804021284, 0.144000006839633, 0.12800000607967377, 1.008000047877431, 0.0, 0.0, 0.0, 0.0, 0.0, 1.651837286589778E9, 0.0, 2022-05-06 12:41:26.589
88.0, -229.5887183798477, -139.1766369510442, -165.90383198438212, -185.93847604701295, 0.144000006839633, 0.12800000607967377, 1.008000047877431, 0.0, 0.0, 0.0, 0.0, 0.0, 1.651837286589778E9, 0.0, 2022-05-06 12:41:26.589
89.0, -301.71642892528325, -267.2420311337337, -245.7245167386718, -237.81462833238766, 0.144000006839633, 0.12800000607967377, 1.008000047877431, 0.0, 0.0, 0.0, 0.0, 0.0, 1.6518372865907829E9, 0.0, 2022-05-06 12:41:26.590
89.0, -273.8392146555707, -176.25400511175394, -210.29644445842132, -200.72978037176654, 0.144000006839633, 0.12800000607967377, 1.008000047877431, 0.0, 0.0, 0.0, 0.0, 0.0, 1.6518372865907829E9, 0.0, 2022-05-06 12:41:26.590
90.0, -198.30445525050163, -50.907518196851015, -124.42460157582536, -152.91515943827108, 0.144000006839633, 0.12800000607967377, 1.008000047877431, 0.0, 0.0, 0.0, 0.0, 0.0, 1.6518372865998292E9, 0.0, 2022-05-06 12:41:26.599
90.0, -220.998168181628, -124.86403982061893, -139.0476104025729, -155.13666001195088, 0.144000006839633, 0.12800000607967377, 1.008000047877431, 0.0, 0.0, 0.0, 0.0, 0.0, 1.6518372865998292E9, 0.0, 2022-05-06 12:41:26.599
91.0, -303.23482830729336, -262.3091030921787, -247.3251939197071, -223.58430900098756, 0.144000006839633, 0.12800000607967377, 1.008000047877431, 0.0, 0.0, 0.0, 0.0, 0.0, 1.6518372866149344E9, 0.0, 2022-05-06 12:41:26.614
91.0, -274.67321234568954, -169.49974579177797, -213.25096542341635, -209.61952256644145, 0.144000006839633, 0.12800000607967377, 1.008000047877431, 0.0, 0.0, 0.0, 0.0, 0.0, 1.6518372866149344E9, 0.0, 2022-05-06 12:41:26.614
92.0, -203.91804508399218, -49.0600076187402, -113.69108870299533, -148.00841069640592, 0.144000006839633, 0.12800000607967377, 1.008000047877431, 0.0, 0.0, 0.0, 0.0, 0.0, 1.6518372866308656E9, 0.0, 2022-05-06 12:41:26.630
92.0, -224.44635594077408, -132.3924584314227, -149.95315867336467, -165.62333948770538, 0.144000006839633, 0.12800000607967377, 1.008000047877431, 0.0, 0.0, 0.0, 0.0, 0.0, 1.6518372866308656E9, 0.0, 2022-05-06 12:41:26.630
93.0, -292.6284720329568, -264.283770268783, -252.72560945572332, -232.17485919920728, 0.144000006839633, 0.12800000607967377, 1.008000047877431, 0.0, 0.0, 0.0, 0.0, 0.0, 1.651837286631821E9, 0.0, 2022-05-06 12:41:26.631
93.0, -270.3798071965575, -170.38610208127648, -207.21102699497715, -201.339384064544, 0.144000006839633, 0.12800000607967377, 1.008000047877431, 0.0, 0.0, 0.0, 0.0, 0.0, 1.651837286631821E9, 0.0, 2022-05-06 12:41:26.631
94.0, -205.33546716719866, -43.00884949043393, -112.90944961225614, -142.95580585626885, 0.144000006839633, 0.12800000607967377, 1.008000047877431, 0.0, 0.0, 0.0, 0.0, 0.0, 1.651837286644884E9, 0.0, 2022-05-06 12:41:26.644
94.0, -214.86473225429654, -133.9183376133442, -148.4646784910001, -167.89345876080915, 0.144000006839633, 0.12800000607967377, 1.008000047877431, 0.0, 0.0, 0.0, 0.0, 0.0, 1.651837286644884E9, 0.0, 2022-05-06 12:41:26.644
95.0, -306.31276597082615, -271.6177140818909, -258.93758328212425, -237.1264867405407, 0.144000006839633, 0.12800000607967377, 1.008000047877431, 0.0, 0.0, 0.0, 0.0, 0.0, 1.6518372866608336E9, 0.0, 2022-05-06 12:41:26.660
95.0, -278.84694069623947, -176.85238910466433, -204.67911472497508, -199.8546437821351, 0.144000006839633, 0.12800000607967377, 1.008000047877431, 0.0, 0.0, 0.0, 0.0, 0.0, 1.6518372866608336E9, 0.0, 2022-05-06 12:41:26.660
96.0, -217.0263944286853, -50.60832620039582, -121.52243921021, -157.89296627929434, 0.144000006839633, 0.12800000607967377, 1.008000047877431, 0.0, 0.0, 0.0, 0.0, 0.0, 1.651837286661853E9, 0.0, 2022-05-06 12:41:26.661
96.0, -227.24006120767444, -140.68381663318723, -168.1776911574416, -185.87115784781054, 0.144000006839633, 0.12800000607967377, 1.008000047877431, 0.0, 0.0, 0.0, 0.0, 0.0, 1.651837286661853E9, 0.0, 2022-05-06 12:41:26.661
97.0, -298.1111653679982, -269.384993808344, -247.6505652158521, -222.14070761809126, 0.144000006839633, 0.12800000607967377, 1.008000047877431, 0.0, 0.0, 0.0, 0.0, 0.0, 1.6518372866748252E9, 0.0, 2022-05-06 12:41:26.674
97.0, -280.30176177900285, -179.67227367125452, -220.69336633523926, -210.2702651587315, 0.144000006839633, 0.12800000607967377, 1.008000047877431, 0.0, 0.0, 0.0, 0.0, 0.0, 1.6518372866748252E9, 0.0, 2022-05-06 12:41:26.674
98.0, -216.48410893511027, -50.18571750540286, -122.49481319868937, -157.7246707812883, 0.144000006839633, 0.12800000607967377, 1.008000047877431, 0.0, 0.0, 0.0, 0.0, 0.0, 1.651837286690915E9, 0.0, 2022-05-06 12:41:26.690
98.0, -240.9243551455438, -149.61469772737473, -170.283254832495, -184.9174833591096, 0.144000006839633, 0.12800000607967377, 1.008000047877431, 0.0, 0.0, 0.0, 0.0, 0.0, 1.651837286690915E9, 0.0, 2022-05-06 12:41:26.690
99.0, -299.958675946109, -263.62180797662586, -245.66467833938077, -226.2732970691286, 0.144000006839633, 0.12800000607967377, 1.008000047877431, 0.0, 0.0, 0.0, 0.0, 0.0, 1.6518372866917949E9, 0.0, 2022-05-06 12:41:26.691
99.0, -269.88614040240645, -168.56851070281118, -205.44205431593582, -189.19592890841886, 0.144000006839633, 0.12800000607967377, 1.008000047877431, 0.0, 0.0, 0.0, 0.0, 0.0, 1.6518372866917949E9, 0.0, 2022-05-06 12:41:26.691
100.0, -205.82913396134973, -53.90317806135863, -119.41687553515658, -151.85302785085514, 0.144000006839633, 0.12800000607967377, 1.0240000486373901, 0.0, 0.0, 0.0, 0.0, 0.0, 1.6518372867058306E9, 0.0, 2022-05-06 12:41:26.705
100.0, -209.55407431721687, -138.4697958594188, -151.239684258122, -168.01313555939123, 0.144000006839633, 0.12800000607967377, 1.0240000486373901, 0.0, 0.0, 0.0, 0.0, 0.0, 1.6518372867058306E9, 0.0, 2022-05-06 12:41:26.705
0.0, -309.1924889367074, -272.06089222664014, -244.9466175478883, -220.93832978233695, 0.144000006839633, 0.12800000607967377, 1.0240000486373901, 0.0, 0.0, 0.0, 0.0, 0.0, 1.6518372867067857E9, 0.0, 2022-05-06 12:41:26.706
1.0, -287.9236778886989, -174.70007668016478, -208.24323938274756, -208.52560182940215, 0.144000006839633, 0.12800000607967377, 1.0240000486373901, 0.0, 0.0, 0.0, 0.0, 0.0, 1.6518372867198377E9, 0.0, 2022-05-06 12:41:26.719
1.0, -211.6184990927577, -48.687887573149055, -124.61159657360986, -163.98339335713536, 0.144000006839633, 0.12800000607967377, 1.0240000486373901, 0.0, 0.0, 0.0, 0.0, 0.0, 1.6518372867198377E9, 0.0, 2022-05-06 12:41:26.719
2.0, -224.72310853749514, -138.25849151192233, -169.38193894317374, -181.33278925158083, 0.144000006839633, 0.12800000607967377, 1.0240000486373901, 0.0, 0.0, 0.0, 0.0, 0.0, 1.6518372867358236E9, 0.0, 2022-05-06 12:41:26.735
2.0, -296.3721118886024, -266.1780295963399, -252.75178875541314, -235.58003810886294, 0.144000006839633, 0.12800000607967377, 1.0240000486373901, 0.0, 0.0, 0.0, 0.0, 0.0, 1.6518372867358236E9, 0.0, 2022-05-06 12:41:26.735
3.0, -286.498776005581, -175.79212746722624, -201.53011896228418, -206.40133865457028, 0.144000006839633, 0.12800000607967377, 1.0240000486373901, 0.0, 0.0, 0.0, 0.0, 0.0, 1.651837286736786E9, 0.0, 2022-05-06 12:41:26.736
3.0, -205.2868484677747, -47.38266248861328, -111.44714872958139, -149.7755134254694, 0.144000006839633, 0.12800000607967377, 1.0240000486373901, 0.0, 0.0, 0.0, 0.0, 0.0, 1.651837286736786E9, 0.0, 2022-05-06 12:41:26.736
4.0, -224.22944174334407, -129.65672161383554, -156.7223775931634, -166.40310862846673, 0.144000006839633, 0.12800000607967377, 1.0240000486373901, 0.0, 0.0, 0.0, 0.0, 0.0, 1.6518372867498329E9, 0.0, 2022-05-06 12:41:26.749
4.0, -301.4097571289167, -266.56697919173166, -234.0148899774067, -212.08224668726325, 0.144000006839633, 0.12800000607967377, 1.0240000486373901, 0.0, 0.0, 0.0, 0.0, 0.0, 1.6518372867498329E9, 0.0, 2022-05-06 12:41:26.749
5.0, -287.19813729729503, -176.2147361622192, -209.60830286657438, -203.97040368337184, 0.144000006839633, 0.12800000607967377, 1.0240000486373901, 0.0, 0.0, 0.0, 0.0, 0.0, 1.6518372867658677E9, 0.0, 2022-05-06 12:41:26.765
5.0, -215.25742174964398, -50.61393605032936, -128.01490553328767, -158.82607131823897, 0.144000006839633, 0.12800000607967377, 1.0240000486373901, 0.0, 0.0, 0.0, 0.0, 0.0, 1.6518372867658677E9, 0.0, 2022-05-06 12:41:26.765
6.0, -232.62177724391222, -139.03639070270583, -165.63455918757245, -177.1628008009866, 0.144000006839633, 0.12800000607967377, 1.0240000486373901, 0.0, 0.0, 0.0, 0.0, 0.0, 1.651837286766775E9, 0.0, 2022-05-06 12:41:26.766
6.0, -316.1487028542906, -282.72708690026775, -260.930949958507, -245.25889919418842, 0.144000006839633, 0.12800000607967377, 1.0240000486373901, 0.0, 0.0, 0.0, 0.0, 0.0, 1.651837286766775E9, 0.0, 2022-05-06 12:41:26.766
7.0, -280.75054977368563, -176.5887261577882, -198.0744514032267, -198.94023824296892, 0.144000006839633, 0.12800000607967377, 1.0240000486373901, 0.0, 0.0, 0.0, 0.0, 0.0, 1.651837286779856E9, 0.0, 2022-05-06 12:41:26.779
7.0, -216.57760643400252, -60.89492102852091, -127.80547113576904, -150.5870717158541, 0.144000006839633, 0.12800000607967377, 1.0240000486373901, 0.0, 0.0, 0.0, 0.0, 0.0, 1.651837286779856E9, 0.0, 2022-05-06 12:41:26.779
8.0, -235.83809120580554, -147.4923045025207, -163.44297781353816, -183.50567112583667, 0.144000006839633, 0.12800000607967377, 1.0240000486373901, 0.0, 0.0, 0.0, 0.0, 0.0, 1.6518372867958512E9, 0.0, 2022-05-06 12:41:26.795
8.0, -302.1390376202762, -275.31460518809035, -256.7759211077355, -246.03305848501623, 0.144000006839633, 0.12800000607967377, 1.0240000486373901, 0.0, 0.0, 0.0, 0.0, 0.0, 1.6518372867958512E9, 0.0, 2022-05-06 12:41:26.795
9.0, -301.98196182213724, -188.17119632055983, -227.30550945689902, -223.20470915548503, 0.144000006839633, 0.12800000607967377, 1.0240000486373901, 0.0, 0.0, 0.0, 0.0, 0.0, 1.6518372867967908E9, 0.0, 2022-05-06 12:41:26.796
9.0, -228.2573139956221, -72.23055779421702, -143.8272025459446, -165.49431293923408, 0.144000006839633, 0.12800000607967377, 1.0240000486373901, 0.0, 0.0, 0.0, 0.0, 0.0, 1.6518372867967908E9, 0.0, 2022-05-06 12:41:26.796
10.0, -223.9938280461356, -142.0096111674793, -159.3552671619691, -171.1976603716612, 0.144000006839633, 0.12800000607967377, 1.0240000486373901, 0.0, 0.0, 0.0, 0.0, 0.0, 1.6518372868099275E9, 0.0, 2022-05-06 12:41:26.809
10.0, -311.80293910577893, -276.99008036823943, -258.0736663923599, -242.27819892950356, 0.144000006839633, 0.12800000607967377, 1.0240000486373901, 0.0, 0.0, 0.0, 0.0, 0.0, 1.6518372868099275E9, 0.0, 2022-05-06 12:41:26.809
11.0, -291.8505728421733, -179.15803742734715, -212.8620158280246, -207.1306191459298, 0.144000006839633, 0.12800000607967377, 1.0240000486373901, 0.0, 0.0, 0.0, 0.0, 0.0, 1.6518372868258777E9, 0.0, 2022-05-06 12:41:26.825
11.0, -220.20904929097742, -50.42320115258917, -119.75346653116867, -145.35495167784393, 0.144000006839633, 0.12800000607967377, 1.0240000486373901, 0.0, 0.0, 0.0, 0.0, 0.0, 1.6518372868258777E9, 0.0, 2022-05-06 12:41:26.825
12.0, -232.45348174590617, -138.80451690545306, -170.23089623311535, -184.3508885158226, 0.144000006839633, 0.12800000607967377, 1.0240000486373901, 0.0, 0.0, 0.0, 0.0, 0.0, 1.6518372868267806E9, 0.0, 2022-05-06 12:41:26.826
12.0, -293.89629811793566, -259.46116927592084, -240.49239670066163, -230.38531707040966, 0.144000006839633, 0.12800000607967377, 1.0240000486373901, 0.0, 0.0, 0.0, 0.0, 0.0, 1.6518372868267806E9, 0.0, 2022-05-06 12:41:26.826
13.0, -274.21694455109537, -177.3666253485717, -209.12585577229038, -198.203477951698, 0.144000006839633, 0.12800000607967377, 1.0240000486373901, 0.0, 0.0, 0.0, 0.0, 0.0, 1.6518372868398387E9, 0.0, 2022-05-06 12:41:26.839
13.0, -215.35465914849192, -49.62286256207153, -122.24797980161384, -149.53241992834955, 0.144000006839633, 0.12800000607967377, 1.0240000486373901, 0.0, 0.0, 0.0, 0.0, 0.0, 1.6518372868398387E9, 0.0, 2022-05-06 12:41:26.839
14.0, -228.9192762877792, -141.61692167213187, -162.96801051916555, -178.41192738618702, 0.144000006839633, 0.12800000607967377, 1.0240000486373901, 0.0, 0.0, 0.0, 0.0, 0.0, 1.6518372868558424E9, 0.0, 2022-05-06 12:41:26.855
14.0, -309.9554285276681, -267.27382028335705, -243.60399346379563, -208.49942252971232, 0.144000006839633, 0.12800000607967377, 1.0240000486373901, 0.0, 0.0, 0.0, 0.0, 0.0, 1.6518372868558424E9, 0.0, 2022-05-06 12:41:26.855
15.0, -278.2522966032848, -161.64034603489563, -197.7827392066829, -185.44667920283973, 0.144000006839633, 0.12800000607967377, 1.0240000486373901, 0.0, 0.0, 0.0, 0.0, 0.0, 1.651837286856773E9, 0.0, 2022-05-06 12:41:26.856
15.0, -219.7714809961617, -54.19676020788029, -123.27271238947287, -161.6347361849621, 0.144000006839633, 0.12800000607967377, 1.0240000486373901, 0.0, 0.0, 0.0, 0.0, 0.0, 1.651837286856773E9, 0.0, 2022-05-06 12:41:26.856
16.0, -241.223547141999, -150.9404922616668, -166.85376657312736, -189.39975345600396, 0.144000006839633, 0.12800000607967377, 1.0240000486373901, 0.0, 0.0, 0.0, 0.0, 0.0, 1.6518372868698235E9, 0.0, 2022-05-06 12:41:26.869
16.0, -308.7736201416701, -272.1431700256653, -257.86423199484125, -237.57714468520135, 0.144000006839633, 0.12800000607967377, 1.0240000486373901, 0.0, 0.0, 0.0, 0.0, 0.0, 1.6518372868698235E9, 0.0, 2022-05-06 12:41:26.869
17.0, -289.2588221728802, -180.48570191161707, -214.2308192118071, -210.29457450844347, 0.144000006839633, 0.12800000607967377, 1.0240000486373901, 0.0, 0.0, 0.0, 0.0, 0.0, 1.651837286885915E9, 0.0, 2022-05-06 12:41:26.885
17.0, -207.00346254743636, -44.20748742623255, -116.71292786719278, -137.83027296699584, 0.144000006839633, 0.12800000607967377, 1.0240000486373901, 0.0, 0.0, 0.0, 0.0, 0.0, 1.651837286885915E9, 0.0, 2022-05-06 12:41:26.885
18.0, -222.9167368588969, -133.01515177404508, -151.50895705493167, -161.8591301823035, 0.144000006839633, 0.12800000607967377, 1.0240000486373901, 0.0, 0.0, 0.0, 0.0, 0.0, 1.6518372868867967E9, 0.0, 2022-05-06 12:41:26.886
18.0, -309.8881103284657, -268.45562866935506, -257.68471679696813, -231.9635548517108, 0.144000006839633, 0.12800000607967377, 1.0240000486373901, 0.0, 0.0, 0.0, 0.0, 0.0, 1.6518372868867967E9, 0.0, 2022-05-06 12:41:26.886
19.0, -284.14637893345207, -173.0246015000157, -211.3024775465019, -210.2833548085764, 0.144000006839633, 0.12800000607967377, 1.0240000486373901, 0.0, 0.0, 0.0, 0.0, 0.0, 1.6518372868998814E9, 0.0, 2022-05-06 12:41:26.899
19.0, -217.48640212323517, -56.50427848054096, -129.83997671166435, -165.73366653639823, 0.144000006839633, 0.12800000607967377, 1.0240000486373901, 0.0, 0.0, 0.0, 0.0, 0.0, 1.6518372868998814E9, 0.0, 2022-05-06 12:41:26.899
20.0, -209.92806431278586, -125.1875411667861, -146.6022083130665, -162.46499397512525, 0.144000006839633, 0.12800000607967377, 1.0240000486373901, 0.0, 0.0, 0.0, 0.0, 0.0, 1.651837286915829E9, 0.0, 2022-05-06 12:41:26.915
20.0, -309.7385143302381, -265.86013810010627, -246.5809538285248, -227.12038440909237, 0.144000006839633, 0.12800000607967377, 1.0240000486373901, 0.0, 0.0, 0.0, 0.0, 0.0, 1.651837286915829E9, 0.0, 2022-05-06 12:41:26.915
21.0, -283.4021388422698, -177.04873385233805, -216.14564798912033, -210.09261991083622, 0.144000006839633, 0.12800000607967377, 1.0240000486373901, 0.0, 0.0, 0.0, 0.0, 0.0, 1.6518372869168255E9, 0.0, 2022-05-06 12:41:26.916
21.0, -222.50160796381533, -54.712866401765496, -128.8937820228748, -157.87239682953805, 0.144000006839633, 0.12800000607967377, 1.0240000486373901, 0.0, 0.0, 0.0, 0.0, 0.0, 1.6518372869168255E9, 0.0, 2022-05-06 12:41:26.916
22.0, -233.5604921327904, -140.00128489127383, -158.21833757543936, -171.489372568205, 0.144000006839633, 0.12800000607967377, 1.0240000486373901, 0.0, 0.0, 0.0, 0.0, 0.0, 1.65183728692984E9, 0.0, 2022-05-06 12:41:26.929
22.0, -299.89509764686227, -264.19588261982426, -247.07836052263156, -215.8109269430861, 0.144000006839633, 0.12800000607967377, 1.0240000486373901, 0.0, 0.0, 0.0, 0.0, 0.0, 1.65183728692984E9, 0.0, 2022-05-06 12:41:26.929
23.0, -296.90691758226603, -177.1422313512303, -209.83643676387146, -211.92891078907996, 0.144000006839633, 0.12800000607967377, 1.0240000486373901, 0.0, 0.0, 0.0, 0.0, 0.0, 1.6518372869458268E9, 0.0, 2022-05-06 12:41:26.945
23.0, -216.70850293245167, -47.539738286752254, -121.6682953084819, -155.38536335900426, 0.144000006839633, 0.12800000607967377, 1.0240000486373901, 0.0, 0.0, 0.0, 0.0, 0.0, 1.6518372869458268E9, 0.0, 2022-05-06 12:41:26.945
24.0, -237.60706388484687, -144.78087703464553, -162.78849532129243, -174.6346284309402, 0.144000006839633, 0.12800000607967377, 1.0240000486373901, 0.0, 0.0, 0.0, 0.0, 0.0, 1.6518372869467976E9, 0.0, 2022-05-06 12:41:26.946
24.0, -293.2492954256013, -265.0261404099874, -247.1007999223657, -230.71442826651037, 0.144000006839633, 0.12800000607967377, 1.0240000486373901, 0.0, 0.0, 0.0, 0.0, 0.0, 1.6518372869467976E9, 0.0, 2022-05-06 12:41:26.946
25.0, -293.3951515238732, -183.94510937063023, -210.07205046107993, -200.27164262719452, 0.144000006839633, 0.12800000607967377, 1.0240000486373901, 0.0, 0.0, 0.0, 0.0, 0.0, 1.6518372869608357E9, 0.0, 2022-05-06 12:41:26.960
25.0, -218.7729277079925, -47.543478186707944, -110.53087324043736, -141.72350882086903, 0.144000006839633, 0.12800000607967377, 1.0240000486373901, 0.0, 0.0, 0.0, 0.0, 0.0, 1.6518372869608357E9, 0.0, 2022-05-06 12:41:26.960
26.0, -232.42730244621634, -143.9730586442165, -162.78475542133674, -183.50567112583667, 0.144000006839633, 0.12800000607967377, 1.0240000486373901, 0.0, 0.0, 0.0, 0.0, 0.0, 1.6518372869758313E9, 0.0, 2022-05-06 12:41:26.975
26.0, -308.2275947481394, -268.4107498698868, -251.5064020701684, -223.63479765038937, 0.144000006839633, 0.12800000607967377, 1.0240000486373901, 0.0, 0.0, 0.0, 0.0, 0.0, 1.6518372869758313E9, 0.0, 2022-05-06 12:41:26.975
27.0, -289.7263096673414, -177.49378194706514, -211.54931094357744, -195.9445783784613, 0.144000006839633, 0.12800000607967377, 1.0240000486373901, 0.0, 0.0, 0.0, 0.0, 0.0, 1.6518372869767804E9, 0.0, 2022-05-06 12:41:26.976
27.0, -209.75976881477982, -46.47386679938063, -104.81256620818749, -142.20595591515303, 0.144000006839633, 0.12800000607967377, 1.0240000486373901, 0.0, 0.0, 0.0, 0.0, 0.0, 1.6518372869767804E9, 0.0, 2022-05-06 12:41:26.976
28.0, -236.17468220181763, -149.76242377562448, -172.12328561069444, -186.06002279557288, 0.144000006839633, 0.12800000607967377, 1.0240000486373901, 0.0, 0.0, 0.0, 0.0, 0.0, 1.6518372869908414E9, 0.0, 2022-05-06 12:41:26.990
28.0, -304.5101341921836, -276.1560826781206, -259.9548360700719, -247.39438206888735, 0.144000006839633, 0.12800000607967377, 1.0240000486373901, 0.0, 0.0, 0.0, 0.0, 0.0, 1.6518372869908414E9, 0.0, 2022-05-06 12:41:26.990
29.0, -283.6938510388136, -173.46216979483142, -211.76248524105176, -203.38697929028422, 0.144000006839633, 0.12800000607967377, 1.0240000486373901, 0.0, 0.0, 0.0, 0.0, 0.0, 1.6518372870058248E9, 0.0, 2022-05-06 12:41:27.005
29.0, -203.63007278740406, -43.96065402915701, -114.2184145967476, -136.0239012883976, 0.144000006839633, 0.12800000607967377, 1.0240000486373901, 0.0, 0.0, 0.0, 0.0, 0.0, 1.6518372870058248E9, 0.0, 2022-05-06 12:41:27.005
30.0, -244.28652520570904, -147.39506710367277, -169.38567884312943, -171.30985737033188, 0.144000006839633, 0.12800000607967377, 1.0240000486373901, 0.0, 0.0, 0.0, 0.0, 0.0, 1.6518372870067952E9, 0.0, 2022-05-06 12:41:27.006
30.0, -301.30877983011305, -270.6696494431235, -253.07342015160248, -229.45034208148718, 0.144000006839633, 0.12800000607967377, 1.0240000486373901, 0.0, 0.0, 0.0, 0.0, 0.0, 1.6518372870067952E9, 0.0, 2022-05-06 12:41:27.006
31.0, -283.48815654125065, -173.12931869877502, -216.5645167841576, -216.2896341374144, 0.144000006839633, 0.12800000607967377, 1.0240000486373901, 0.0, 0.0, 0.0, 0.0, 0.0, 1.6518372870208836E9, 0.0, 2022-05-06 12:41:27.020
31.0, -225.0671793334186, -53.168287720065564, -120.79689861880615, -147.75596744939685, 0.144000006839633, 0.12800000607967377, 1.0240000486373901, 0.0, 0.0, 0.0, 0.0, 0.0, 1.6518372870208836E9, 0.0, 2022-05-06 12:41:27.020
32.0, -248.894081951119, -160.97838374273852, -164.4303114018403, -184.91187350917608, 0.144000006839633, 0.12800000607967377, 1.0240000486373901, 0.0, 0.0, 0.0, 0.0, 0.0, 1.6518372870358262E9, 0.0, 2022-05-06 12:41:27.035
32.0, -302.26993411872536, -260.0221542692743, -252.31796036055312, -236.67956869583577, 0.144000006839633, 0.12800000607967377, 1.0240000486373901, 0.0, 0.0, 0.0, 0.0, 0.0, 1.6518372870358262E9, 0.0, 2022-05-06 12:41:27.035
33.0, -299.20321615505964, -186.30124634271488, -229.11936093540862, -218.30170031357557, 0.144000006839633, 0.12800000607967377, 1.0240000486373901, 0.0, 0.0, 0.0, 0.0, 0.0, 1.6518372870367758E9, 0.0, 2022-05-06 12:41:27.036
33.0, -214.33366646058857, -47.483639787416905, -122.61822989722714, -147.13514405675232, 0.144000006839633, 0.12800000607967377, 1.0240000486373901, 0.0, 0.0, 0.0, 0.0, 0.0, 1.6518372870367758E9, 0.0, 2022-05-06 12:41:27.036
34.0, -222.61006506253034, -141.95725256809965, -149.74372427584603, -167.5250786151737, 0.144000006839633, 0.12800000607967377, 1.0240000486373901, 0.0, 0.0, 0.0, 0.0, 0.0, 1.6518372870508547E9, 0.0, 2022-05-06 12:41:27.050
34.0, -304.6933892900124, -270.7855863417499, -257.0975525039248, -231.72794115450233, 0.144000006839633, 0.12800000607967377, 1.0240000486373901, 0.0, 0.0, 0.0, 0.0, 0.0, 1.6518372870508547E9, 0.0, 2022-05-06 12:41:27.050
35.0, -296.8732584826648, -193.79226595396176, -230.4956441191025, -226.97452831082046, 0.144000006839633, 0.12800000607967377, 1.0240000486373901, 0.0, 0.0, 0.0, 0.0, 0.0, 1.6518372870658412E9, 0.0, 2022-05-06 12:41:27.065
35.0, -205.48132326547056, -48.94220077013597, -120.65852232044563, -153.67996897920966, 0.144000006839633, 0.12800000607967377, 1.0240000486373901, 0.0, 0.0, 0.0, 0.0, 0.0, 1.6518372870658412E9, 0.0, 2022-05-06 12:41:27.065
36.0, -234.45058832224458, -148.07946879556403, -165.79163498571143, -180.6745668593794, 0.144000006839633, 0.12800000607967377, 1.0240000486373901, 0.0, 0.0, 0.0, 0.0, 0.0, 1.6518372870667872E9, 0.0, 2022-05-06 12:41:27.066
36.0, -324.9412076501176, -275.86811038153246, -266.9185297875665, -251.8635625159368, 0.144000006839633, 0.12800000607967377, 1.0240000486373901, 0.0, 0.0, 0.0, 0.0, 0.0, 1.6518372870667872E9, 0.0, 2022-05-06 12:41:27.066
37.0, -287.1420387979597, -178.24550183815882, -216.16808738885447, -207.73648293875158, 0.144000006839633, 0.12800000607967377, 1.0240000486373901, 0.0, 0.0, 0.0, 0.0, 0.0, 1.651837287080829E9, 0.0, 2022-05-06 12:41:27.080
37.0, -205.72067686263472, -45.59125040983781, -108.88157735997811, -128.5441013770178, 0.144000006839633, 0.12800000607967377, 1.0240000486373901, 0.0, 0.0, 0.0, 0.0, 0.0, 1.651837287080829E9, 0.0, 2022-05-06 12:41:27.080
38.0, -227.86836440023035, -142.83612905768678, -169.2473025447689, -169.47730639204383, 0.144000006839633, 0.12800000607967377, 1.0240000486373901, 0.0, 0.0, 0.0, 0.0, 0.0, 1.6518372870958307E9, 0.0, 2022-05-06 12:41:27.095
38.0, -302.79352011252195, -261.3572985534556, -243.81716776126996, -234.5553055210039, 0.144000006839633, 0.12800000607967377, 1.0240000486373901, 0.0, 0.0, 0.0, 0.0, 0.0, 1.6518372870958307E9, 0.0, 2022-05-06 12:41:27.095
39.0, -285.2047706209123, -175.77716786740348, -201.95272765727714, -208.6153594283387, 0.144000006839633, 0.12800000607967377, 1.0240000486373901, 0.0, 0.0, 0.0, 0.0, 0.0, 1.6518372870968833E9, 0.0, 2022-05-06 12:41:27.096
39.0, -196.0904344767332, -42.692827944178134, -115.80039227800444, -146.56293936353177, 0.144000006839633, 0.12800000607967377, 1.0240000486373901, 0.0, 0.0, 0.0, 0.0, 0.0, 1.6518372870968833E9, 0.0, 2022-05-06 12:41:27.096
40.0, -231.97103465162218, -145.35682162782177, -157.36190048558637, -174.76926482934505, 0.144000006839633, 0.12800000607967377, 1.0240000486373901, 0.0, 0.0, 0.0, 0.0, 0.0, 1.651837287110839E9, 0.0, 2022-05-06 12:41:27.110
40.0, -324.3839625567198, -277.0424389676191, -256.53282761061564, -235.69597500748932, 0.144000006839633, 0.12800000607967377, 1.0240000486373901, 0.0, 0.0, 0.0, 0.0, 0.0, 1.651837287110839E9, 0.0, 2022-05-06 12:41:27.110
41.0, -276.5431623235345, -166.12448608176783, -204.9259481220506, -201.87979960814118, 0.144000006839633, 0.12800000607967377, 1.0240000486373901, 0.0, 0.0, 0.0, 0.0, 0.0, 1.6518372871428244E9, 0.0, 2022-05-06 12:41:27.142
41.0, -218.61211200989783, -58.52382445661351, -119.54029223369434, -166.25725253019482, 0.144000006839633, 0.12800000607967377, 1.0240000486373901, 0.0, 0.0, 0.0, 0.0, 0.0, 1.6518372871428244E9, 0.0, 2022-05-06 12:41:27.142
42.0, -245.95078068599105, -156.96173119032755, -160.52585584810004, -178.47924558538944, 0.144000006839633, 0.12800000607967377, 1.0240000486373901, 0.0, 0.0, 0.0, 0.0, 0.0, 1.6518372871438322E9, 0.0, 2022-05-06 12:41:27.143
42.0, -307.13554396107793, -268.8109191651456, -251.42412427114323, -225.1419773325324, 0.144000006839633, 0.12800000607967377, 1.0240000486373901, 0.0, 0.0, 0.0, 0.0, 0.0, 1.6518372871438322E9, 0.0, 2022-05-06 12:41:27.143
43.0, -284.1015001339838, -174.70381658012047, -212.90689462749287, -198.76820284500718, 0.144000006839633, 0.12800000607967377, 1.0240000486373901, 0.0, 0.0, 0.0, 0.0, 0.0, 1.6518372871448267E9, 0.0, 2022-05-06 12:41:27.144
43.0, -207.74022283870727, -42.0383454519324, -119.17004213808104, -147.89808364771307, 0.144000006839633, 0.12800000607967377, 1.0240000486373901, 0.0, 0.0, 0.0, 0.0, 0.0, 1.6518372871448267E9, 0.0, 2022-05-06 12:41:27.144
44.0, -226.9184298114851, -142.28262386424467, -163.0203691185452, -182.9409462325275, 0.144000006839633, 0.12800000607967377, 1.0240000486373901, 0.0, 0.0, 0.0, 0.0, 0.0, 1.651837287145779E9, 0.0, 2022-05-06 12:41:27.145
44.0, -294.483462410979, -262.72236203728244, -247.59072681656107, -223.64601735025644, 0.144000006839633, 0.12800000607967377, 1.0240000486373901, 0.0, 0.0, 0.0, 0.0, 0.0, 1.651837287145779E9, 0.0, 2022-05-06 12:41:27.145
45.0, -274.7928891442716, -167.3549131671898, -204.1143898316659, -196.77109626866877, 0.144000006839633, 0.12800000607967377, 1.0240000486373901, 0.0, 0.0, 0.0, 0.0, 0.0, 1.6518372871558428E9, 0.0, 2022-05-06 12:41:27.155
45.0, -220.1753901913762, -59.35034234682098, -127.12480934383348, -159.0766446152702, 0.144000006839633, 0.12800000607967377, 1.0240000486373901, 0.0, 0.0, 0.0, 0.0, 0.0, 1.6518372871558428E9, 0.0, 2022-05-06 12:41:27.155
46.0, -233.3734971350059, -144.91925333300605, -164.2059174044989, -173.58745644334704, 0.144000006839633, 0.12800000607967377, 1.0240000486373901, 0.0, 0.0, 0.0, 0.0, 0.0, 1.6518372871708407E9, 0.0, 2022-05-06 12:41:27.170
46.0, -301.7052092254162, -263.13001113245264, -253.33147324854508, -218.90756410639733, 0.144000006839633, 0.12800000607967377, 1.0240000486373901, 0.0, 0.0, 0.0, 0.0, 0.0, 1.6518372871708407E9, 0.0, 2022-05-06 12:41:27.170
47.0, -283.03562864661217, -177.38532484835014, -217.88096156856045, -205.25692926812917, 0.144000006839633, 0.12800000607967377, 1.0240000486373901, 0.0, 0.0, 0.0, 0.0, 0.0, 1.6518372872028306E9, 0.0, 2022-05-06 12:41:27.202
47.0, -205.3990454664454, -43.54178523411974, -106.93308948306367, -137.11595207545906, 0.144000006839633, 0.12800000607967377, 1.0240000486373901, 0.0, 0.0, 0.0, 0.0, 0.0, 1.6518372872028306E9, 0.0, 2022-05-06 12:41:27.202
48.0, -205.765555662103, -131.46309329243377, -141.59448227239773, -140.7735742321238, 0.144000006839633, 0.12800000607967377, 1.0240000486373901, 0.0, 0.0, 0.0, 0.0, 0.0, 1.6518372872037933E9, 0.0, 2022-05-06 12:41:27.203
48.0, -303.178729807958, -254.64791803294793, -243.59651366388425, -234.43936862237751, 0.144000006839633, 0.12800000607967377, 1.0240000486373901, 0.0, 0.0, 0.0, 0.0, 0.0, 1.6518372872037933E9, 0.0, 2022-05-06 12:41:27.203
49.0, -268.70433201640844, -166.1768446811475, -194.7085414431058, -192.18971882294863, 0.144000006839633, 0.12800000607967377, 1.0240000486373901, 0.0, 0.0, 0.0, 0.0, 0.0, 1.6518372872048016E9, 0.0, 2022-05-06 12:41:27.204
49.0, -205.88523246068507, -41.95232775295153, -106.1065715928562, -135.78080779127777, 0.144000006839633, 0.12800000607967377, 1.0240000486373901, 0.0, 0.0, 0.0, 0.0, 0.0, 1.6518372872048016E9, 0.0, 2022-05-06 12:41:27.204
50.0, -227.9618618991226, -144.81453613424674, -167.04824137082323, -183.24761802889407, 0.144000006839633, 0.12800000607967377, 1.0240000486373901, 0.0, 0.0, 0.0, 0.0, 0.0, 1.6518372872057889E9, 0.0, 2022-05-06 12:41:27.205
50.0, -295.96820269338787, -260.15305076772347, -250.81452057836577, -232.41608274634928, 0.144000006839633, 0.12800000607967377, 1.0240000486373901, 0.0, 0.0, 0.0, 0.0, 0.0, 1.6518372872057889E9, 0.0, 2022-05-06 12:41:27.205
51.0, -271.6064943820238, -164.38169270241633, -203.73665993614122, -197.2086645634845, 0.144000006839633, 0.11200000531971455, 1.0240000486373901, 0.0, 0.0, 0.0, 0.0, 0.0, 1.651837287215841E9, 0.0, 2022-05-06 12:41:27.215
51.0, -229.742054278031, -57.23355897190049, -125.43063466390595, -155.01885316334665, 0.144000006839633, 0.11200000531971455, 1.0240000486373901, 0.0, 0.0, 0.0, 0.0, 0.0, 1.651837287215841E9, 0.0, 2022-05-06 12:41:27.215
52.0, -228.41064989380538, -142.64913405990228, -160.95594434300438, -165.99919943325222, 0.144000006839633, 0.11200000531971455, 1.0240000486373901, 0.0, 0.0, 0.0, 0.0, 0.0, 1.6518372872308366E9, 0.0, 2022-05-06 12:41:27.230
52.0, -293.93369711749256, -261.9893416459672, -248.36862600734457, -236.1148438025266, 0.144000006839633, 0.11200000531971455, 1.0240000486373901, 0.0, 0.0, 0.0, 0.0, 0.0, 1.6518372872308366E9, 0.0, 2022-05-06 12:41:27.230
53.0, -289.550534369424, -186.31620594253764, -227.4962443546392, -211.68581729196012, 0.144000006839633, 0.11200000531971455, 1.0240000486373901, 0.0, 0.0, 0.0, 0.0, 0.0, 1.6518372872458515E9, 0.0, 2022-05-06 12:41:27.245
53.0, -217.49388192314655, -42.56941124564037, -125.41567506408319, -152.79361268971115, 0.144000006839633, 0.11200000531971455, 1.0240000486373901, 0.0, 0.0, 0.0, 0.0, 0.0, 1.6518372872458515E9, 0.0, 2022-05-06 12:41:27.245
54.0, -237.25177338905632, -148.6441936888732, -171.6146592167206, -179.99764496739954, 0.144000006839633, 0.11200000531971455, 1.0240000486373901, 0.0, 0.0, 0.0, 0.0, 0.0, 1.6518372872467897E9, 0.0, 2022-05-06 12:41:27.246
54.0, -297.86059207096696, -266.3986836937256, -239.9837703066878, -219.04968030471355, 0.144000006839633, 0.11200000531971455, 1.0240000486373901, 0.0, 0.0, 0.0, 0.0, 0.0, 1.6518372872467897E9, 0.0, 2022-05-06 12:41:27.246
55.0, -279.7295570857823, -172.73662920342758, -204.87732942262664, -199.2805691389367, 0.144000006839633, 0.11200000531971455, 1.0240000486373901, 0.0, 0.0, 0.0, 0.0, 0.0, 1.6518372872608309E9, 0.0, 2022-05-06 12:41:27.260
55.0, -218.49991501122713, -50.752312348689884, -133.62849536677822, -156.84392434172332, 0.144000006839633, 0.11200000531971455, 1.0240000486373901, 0.0, 0.0, 0.0, 0.0, 0.0, 1.6518372872608309E9, 0.0, 2022-05-06 12:41:27.260
56.0, -225.60198502708226, -140.7530047823675, -162.25742952758446, -176.44474000949413, 0.144000006839633, 0.11200000531971455, 1.0240000486373901, 0.0, 0.0, 0.0, 0.0, 0.0, 1.6518372872758307E9, 0.0, 2022-05-06 12:41:27.275
56.0, -295.7064096964896, -259.7341819726862, -247.11949942214414, -234.20001502521336, 0.144000006839633, 0.11200000531971455, 1.0240000486373901, 0.0, 0.0, 0.0, 0.0, 0.0, 1.6518372872758307E9, 0.0, 2022-05-06 12:41:27.275
57.0, -278.21863750368357, -168.03183505916968, -207.80567108793184, -193.6146207060665, 0.144000006839633, 0.11200000531971455, 1.0240000486373901, 0.0, 0.0, 0.0, 0.0, 0.0, 1.6518372872767923E9, 0.0, 2022-05-06 12:41:27.276
57.0, -196.32978807389736, -42.16550205042586, -105.09679860481992, -135.60877239331603, 0.144000006839633, 0.11200000531971455, 1.0240000486373901, 0.0, 0.0, 0.0, 0.0, 0.0, 1.6518372872767923E9, 0.0, 2022-05-06 12:41:27.276
58.0, -223.44780265260488, -139.6759135951288, -156.14269310003147, -176.4522198094055, 0.144000006839633, 0.11200000531971455, 1.0240000486373901, 0.0, 0.0, 0.0, 0.0, 0.0, 1.651837287290838E9, 0.0, 2022-05-06 12:41:27.290
58.0, -297.280907577835, -262.8046398363076, -235.43231206061319, -223.2869869545102, 0.144000006839633, 0.11200000531971455, 1.0240000486373901, 0.0, 0.0, 0.0, 0.0, 0.0, 1.651837287290838E9, 0.0, 2022-05-06 12:41:27.290
59.0, -268.577175417915, -155.88464000308886, -198.9682874926366, -182.91102703288198, 0.144000006839633, 0.11200000531971455, 1.0240000486373901, 0.0, 0.0, 0.0, 0.0, 0.0, 1.6518372873058438E9, 0.0, 2022-05-06 12:41:27.305
59.0, -205.18961106892675, -42.97332044085488, -118.38840304734185, -153.30971888359636, 0.144000006839633, 0.11200000531971455, 1.0240000486373901, 0.0, 0.0, 0.0, 0.0, 0.0, 1.6518372873058438E9, 0.0, 2022-05-06 12:41:27.305
60.0, -224.44635594077408, -138.3819082104601, -156.52416289551184, -170.92090777494013, 0.144000006839633, 0.11200000531971455, 1.0240000486373901, 0.0, 0.0, 0.0, 0.0, 0.0, 1.6518372873067892E9, 0.0, 2022-05-06 12:41:27.306
60.0, -285.52640201710165, -260.31386646581814, -241.30021509109065, -220.4334432883188, 0.144000006839633, 0.11200000531971455, 1.0240000486373901, 0.0, 0.0, 0.0, 0.0, 0.0, 1.6518372873067892E9, 0.0, 2022-05-06 12:41:27.306
61.0, -283.89580563642085, -169.9504037364386, -206.31719090556726, -201.8012617090717, 0.144000006839633, 0.11200000531971455, 1.0240000486373901, 0.0, 0.0, 0.0, 0.0, 0.0, 1.6518372873208451E9, 0.0, 2022-05-06 12:41:27.320
61.0, -210.2534356089309, -50.08287025662139, -113.04782591061667, -142.471488812007, 0.144000006839633, 0.11200000531971455, 1.0240000486373901, 0.0, 0.0, 0.0, 0.0, 0.0, 1.6518372873208451E9, 0.0, 2022-05-06 12:41:27.320
62.0, -225.90117702353746, -145.80186972254887, -160.70163114601746, -179.76203127019107, 0.144000006839633, 0.11200000531971455, 1.0240000486373901, 0.0, 0.0, 0.0, 0.0, 0.0, 1.6518372873358376E9, 0.0, 2022-05-06 12:41:27.335
62.0, -303.57515920326114, -265.78534010099247, -251.48396267043427, -220.33620588947088, 0.144000006839633, 0.11200000531971455, 1.0240000486373901, 0.0, 0.0, 0.0, 0.0, 0.0, 1.6518372873358376E9, 0.0, 2022-05-06 12:41:27.335
63.0, -285.4590838178992, -168.85087314946577, -211.34735634597018, -200.66059222258627, 0.144000006839633, 0.11200000531971455, 1.0240000486373901, 0.0, 0.0, 0.0, 0.0, 0.0, 1.6518372873367753E9, 0.0, 2022-05-06 12:41:27.336
63.0, -200.67929172236472, -46.90395529428497, -124.18150807870552, -150.90122331213206, 0.144000006839633, 0.11200000531971455, 1.0240000486373901, 0.0, 0.0, 0.0, 0.0, 0.0, 1.6518372873367753E9, 0.0, 2022-05-06 12:41:27.336
64.0, -219.3600920010358, -135.7452787416987, -150.98537106113508, -167.17352801933885, 0.144000006839633, 0.11200000531971455, 1.0240000486373901, 0.0, 0.0, 0.0, 0.0, 0.0, 1.651837287350834E9, 0.0, 2022-05-06 12:41:27.350
64.0, -305.09729848522693, -271.3652708348818, -248.08813351066783, -235.42296231072396, 0.144000006839633, 0.11200000531971455, 1.0240000486373901, 0.0, 0.0, 0.0, 0.0, 0.0, 1.651837287350834E9, 0.0, 2022-05-06 12:41:27.350
65.0, -271.18014578707516, -159.80405515665188, -185.19797585578635, -187.60086157731712, 0.144000006839633, 0.11200000531971455, 1.0240000486373901, 0.0, 0.0, 0.0, 0.0, 0.0, 1.6518372873658552E9, 0.0, 2022-05-06 12:41:27.365
65.0, -205.14473226945847, -47.4125816882588, -118.25002674898133, -151.95213519968092, 0.144000006839633, 0.11200000531971455, 1.0240000486373901, 0.0, 0.0, 0.0, 0.0, 0.0, 1.6518372873658552E9, 0.0, 2022-05-06 12:41:27.365
66.0, -234.3383913235739, -153.86135412706062, -173.1031393990852, -181.87881464511156, 0.144000006839633, 0.11200000531971455, 1.0240000486373901, 0.0, 0.0, 0.0, 0.0, 0.0, 1.6518372873668177E9, 0.0, 2022-05-06 12:41:27.366
66.0, -303.6948360018432, -273.68026890745386, -248.2452093088068, -232.72275454271585, 0.144000006839633, 0.11200000531971455, 1.0240000486373901, 0.0, 0.0, 0.0, 0.0, 0.0, 1.6518372873668177E9, 0.0, 2022-05-06 12:41:27.366
67.0, -270.18159249890596, -168.3946053548716, -199.80602508271113, -189.23145795799792, 0.144000006839633, 0.11200000531971455, 1.0240000486373901, 0.0, 0.0, 0.0, 0.0, 0.0, 1.651837287379821E9, 0.0, 2022-05-06 12:41:27.379
67.0, -202.49314320087433, -50.38580215303227, -123.64296248508617, -149.22948803193867, 0.144000006839633, 0.11200000531971455, 1.0240000486373901, 0.0, 0.0, 0.0, 0.0, 0.0, 1.651837287379821E9, 0.0, 2022-05-06 12:41:27.379
68.0, -217.9538896176964, -133.51629836810753, -152.80296243960038, -172.1924737598747, 0.144000006839633, 0.11200000531971455, 1.0240000486373901, 0.0, 0.0, 0.0, 0.0, 0.0, 1.651837287412834E9, 0.0, 2022-05-06 12:41:27.412
68.0, -287.74042279087007, -257.45658289967105, -244.2135971565731, -225.41125012934208, 0.144000006839633, 0.11200000531971455, 1.0240000486373901, 0.0, 0.0, 0.0, 0.0, 0.0, 1.651837287412834E9, 0.0, 2022-05-06 12:41:27.412
69.0, -280.85152707248926, -164.3555134027265, -199.84716398222372, -189.76252375170588, 0.144000006839633, 0.11200000531971455, 1.0240000486373901, 0.0, 0.0, 0.0, 0.0, 0.0, 1.6518372874137912E9, 0.0, 2022-05-06 12:41:27.413
69.0, -201.77508240938187, -42.81998454267159, -111.32747193099931, -142.89035760704428, 0.144000006839633, 0.11200000531971455, 1.0240000486373901, 0.0, 0.0, 0.0, 0.0, 0.0, 1.6518372874137912E9, 0.0, 2022-05-06 12:41:27.413
70.0, -224.90262373536825, -145.76073082303628, -157.34694088576362, -166.06277773249894, 0.144000006839633, 0.11200000531971455, 1.0240000486373901, 0.0, 0.0, 0.0, 0.0, 0.0, 1.651837287414808E9, 0.0, 2022-05-06 12:41:27.414
70.0, -292.42277753539383, -256.04290071642026, -251.24086917331442, -217.10867222771049, 0.144000006839633, 0.11200000531971455, 1.0240000486373901, 0.0, 0.0, 0.0, 0.0, 0.0, 1.651837287414808E9, 0.0, 2022-05-06 12:41:27.414
71.0, -276.5768214231357, -167.96451685996726, -215.94743329146877, -205.2494494682178, 0.144000006839633, 0.12800000607967377, 1.0240000486373901, 0.0, 0.0, 0.0, 0.0, 0.0, 1.6518372874157853E9, 0.0, 2022-05-06 12:41:27.415
71.0, -207.59436674043536, -49.34610996535048, -128.80028452398255, -149.64087702706456, 0.144000006839633, 0.12800000607967377, 1.0240000486373901, 0.0, 0.0, 0.0, 0.0, 0.0, 1.6518372874157853E9, 0.0, 2022-05-06 12:41:27.415
72.0, -227.17648290842772, -145.20722562959418, -170.3243937320076, -172.19995355978608, 0.144000006839633, 0.12800000607967377, 1.0240000486373901, 0.0, 0.0, 0.0, 0.0, 0.0, 1.6518372874249003E9, 0.0, 2022-05-06 12:41:27.424
72.0, -290.52664825785905, -257.2845475017093, -243.92936475994065, -211.1734509980306, 0.144000006839633, 0.12800000607967377, 1.0240000486373901, 0.0, 0.0, 0.0, 0.0, 0.0, 1.6518372874249003E9, 0.0, 2022-05-06 12:41:27.424
73.0, -271.9094262784347, -159.81901475647464, -197.18061531381682, -187.51110397838056, 0.144000006839633, 0.12800000607967377, 1.0240000486373901, 0.0, 0.0, 0.0, 0.0, 0.0, 1.6518372874398985E9, 0.0, 2022-05-06 12:41:27.439
73.0, -202.1677719047293, -37.19891490926966, -109.73427454987541, -153.3695572828874, 0.144000006839633, 0.12800000607967377, 1.0240000486373901, 0.0, 0.0, 0.0, 0.0, 0.0, 1.6518372874398985E9, 0.0, 2022-05-06 12:41:27.439
74.0, -230.65458986721933, -145.46527872653678, -161.4683106369339, -179.95276616793126, 0.144000006839633, 0.12800000607967377, 1.0240000486373901, 0.0, 0.0, 0.0, 0.0, 0.0, 1.6518372874558396E9, 0.0, 2022-05-06 12:41:27.455
74.0, -291.60747934505343, -258.4775755875744, -232.33193499734625, -217.8790916185826, 0.144000006839633, 0.12800000607967377, 1.0240000486373901, 0.0, 0.0, 0.0, 0.0, 0.0, 1.6518372874558396E9, 0.0, 2022-05-06 12:41:27.455
75.0, -268.48741781897843, -161.430911637377, -196.3690570234321, -190.9106730381027, 0.144000006839633, 0.12800000607967377, 1.0240000486373901, 0.0, 0.0, 0.0, 0.0, 0.0, 1.6518372874567769E9, 0.0, 2022-05-06 12:41:27.456
75.0, -200.4324583252892, -41.64565595658496, -119.47671393444762, -142.35181201342493, 0.144000006839633, 0.12800000607967377, 1.0240000486373901, 0.0, 0.0, 0.0, 0.0, 0.0, 1.6518372874567769E9, 0.0, 2022-05-06 12:41:27.456
76.0, -228.86317778844386, -141.4561059740372, -157.0140897897072, -168.49745260365307, 0.144000006839633, 0.12800000607967377, 1.0240000486373901, 0.0, 0.0, 0.0, 0.0, 0.0, 1.6518372874708421E9, 0.0, 2022-05-06 12:41:27.470
76.0, -295.134205003269, -260.86363175930455, -240.8776063960977, -235.42296231072396, 0.144000006839633, 0.12800000607967377, 1.0240000486373901, 0.0, 0.0, 0.0, 0.0, 0.0, 1.6518372874708421E9, 0.0, 2022-05-06 12:41:27.470
77.0, -281.4237317657098, -170.9526969245635, -207.54761799098924, -208.5480412291363, 0.144000006839633, 0.12800000607967377, 1.0240000486373901, 0.0, 0.0, 0.0, 0.0, 0.0, 1.651837287485824E9, 0.0, 2022-05-06 12:41:27.485
77.0, -202.9120119959116, -47.464940287638456, -123.50458618672565, -143.94500939454883, 0.144000006839633, 0.12800000607967377, 1.0240000486373901, 0.0, 0.0, 0.0, 0.0, 0.0, 1.651837287485824E9, 0.0, 2022-05-06 12:41:27.485
78.0, -218.98610200546682, -138.77459770580754, -147.6119813011028, -163.72908016014844, 0.144000006839633, 0.12800000607967377, 1.0240000486373901, 0.0, 0.0, 0.0, 0.0, 0.0, 1.6518372874867885E9, 0.0, 2022-05-06 12:41:27.486
78.0, -304.45403569284827, -261.15908385580406, -248.48082300601527, -236.35419739969075, 0.144000006839633, 0.12800000607967377, 1.0240000486373901, 0.0, 0.0, 0.0, 0.0, 0.0, 1.6518372874867885E9, 0.0, 2022-05-06 12:41:27.486
79.0, -280.59347397554666, -170.88911862531677, -215.26303159957752, -215.05546715203673, 0.144000006839633, 0.12800000607967377, 1.0240000486373901, 0.0, 0.0, 0.0, 0.0, 0.0, 1.6518372874998295E9, 0.0, 2022-05-06 12:41:27.499
79.0, -202.67265839874744, -43.98309342889115, -113.90800290042534, -151.2191148083657, 0.144000006839633, 0.12800000607967377, 1.0240000486373901, 0.0, 0.0, 0.0, 0.0, 0.0, 1.6518372874998295E9, 0.0, 2022-05-06 12:41:27.499
80.0, -217.5873794220388, -144.9716119323857, -161.14667924074456, -182.4921582378447, 0.144000006839633, 0.12800000607967377, 1.0240000486373901, 0.0, 0.0, 0.0, 0.0, 0.0, 1.651837287515843E9, 0.0, 2022-05-06 12:41:27.515
80.0, -297.3370060771704, -262.6288645383902, -245.36922624288127, -222.37071146536618, 0.144000006839633, 0.12800000607967377, 1.0240000486373901, 0.0, 0.0, 0.0, 0.0, 0.0, 1.651837287515843E9, 0.0, 2022-05-06 12:41:27.515
81.0, -285.9901496116072, -170.90407822513953, -207.40176189271733, -204.74082307424396, 0.144000006839633, 0.12800000607967377, 1.0240000486373901, 0.0, 0.0, 0.0, 0.0, 0.0, 1.6518372875167823E9, 0.0, 2022-05-06 12:41:27.516
81.0, -209.0230085235089, -48.23161977855489, -120.76323951920494, -156.84018444176763, 0.144000006839633, 0.12800000607967377, 1.0240000486373901, 0.0, 0.0, 0.0, 0.0, 0.0, 1.6518372875167823E9, 0.0, 2022-05-06 12:41:27.516
82.0, -233.94196192827076, -159.77039605705068, -173.78006129106507, -188.15810667071491, 0.144000006839633, 0.12800000607967377, 1.0240000486373901, 0.0, 0.0, 0.0, 0.0, 0.0, 1.6518372875298207E9, 0.0, 2022-05-06 12:41:27.529
82.0, -296.75358168408275, -270.0076871509664, -248.7687953026034, -233.26504003629088, 0.144000006839633, 0.12800000607967377, 1.0240000486373901, 0.0, 0.0, 0.0, 0.0, 0.0, 1.6518372875298207E9, 0.0, 2022-05-06 12:41:27.529
83.0, -275.51468983571976, -163.9815234071575, -195.93522862857208, -186.72572498768568, 0.144000006839633, 0.12800000607967377, 1.0240000486373901, 0.0, 0.0, 0.0, 0.0, 0.0, 1.651837287545869E9, 0.0, 2022-05-06 12:41:27.545
83.0, -206.29662145581096, -42.78632544307038, -108.24205446755514, -135.76210829149932, 0.144000006839633, 0.12800000607967377, 1.0240000486373901, 0.0, 0.0, 0.0, 0.0, 0.0, 1.651837287545869E9, 0.0, 2022-05-06 12:41:27.545
84.0, -225.28035363089293, -148.44597899122164, -164.7220235983841, -178.51290468499064, 0.144000006839633, 0.12800000607967377, 1.0240000486373901, 0.0, 0.0, 0.0, 0.0, 0.0, 1.651837287546833E9, 0.0, 2022-05-06 12:41:27.546
84.0, -308.377190746367, -273.1903420132585, -259.0572600807063, -240.65508234873414, 0.144000006839633, 0.12800000607967377, 1.0240000486373901, 0.0, 0.0, 0.0, 0.0, 0.0, 1.651837287546833E9, 0.0, 2022-05-06 12:41:27.546
85.0, -273.33058826159686, -161.81238143285736, -204.8212309232913, -211.67085769213736, 0.144000006839633, 0.12800000607967377, 1.0240000486373901, 0.0, 0.0, 0.0, 0.0, 0.0, 1.651837287559822E9, 0.0, 2022-05-06 12:41:27.559
85.0, -205.5449015647173, -45.28457861347124, -111.64536342723295, -147.41937645338476, 0.144000006839633, 0.12800000607967377, 1.0240000486373901, 0.0, 0.0, 0.0, 0.0, 0.0, 1.651837287559822E9, 0.0, 2022-05-06 12:41:27.559
86.0, -229.75701387785375, -149.66892627673224, -161.9058789317496, -181.54970344901085, 0.144000006839633, 0.12800000607967377, 1.0240000486373901, 0.0, 0.0, 0.0, 0.0, 0.0, 1.6518372875758376E9, 0.0, 2022-05-06 12:41:27.575
86.0, -297.3370060771704, -257.1723505030386, -247.81886071385816, -220.01083459332585, 0.144000006839633, 0.12800000607967377, 1.0240000486373901, 0.0, 0.0, 0.0, 0.0, 0.0, 1.6518372875758376E9, 0.0, 2022-05-06 12:41:27.575
87.0, -267.5748822297901, -156.15391279989854, -192.0756518743001, -195.04326248914003, 0.144000006839633, 0.12800000607967377, 1.0240000486373901, 0.0, 0.0, 0.0, 0.0, 0.0, 1.651837287576776E9, 0.0, 2022-05-06 12:41:27.576
87.0, -198.0987607529387, -37.52054630545899, -107.42675627721474, -141.31959962565452, 0.144000006839633, 0.12800000607967377, 1.0240000486373901, 0.0, 0.0, 0.0, 0.0, 0.0, 1.651837287576776E9, 0.0, 2022-05-06 12:41:27.576
88.0, -218.87016510684043, -137.40579432202503, -153.67061922932044, -159.06542491540313, 0.144000006839633, 0.12800000607967377, 1.0240000486373901, 0.0, 0.0, 0.0, 0.0, 0.0, 1.6518372875898404E9, 0.0, 2022-05-06 12:41:27.589
88.0, -302.8421388119459, -271.79909922974184, -259.23677527857944, -242.88780262228101, 0.144000006839633, 0.12800000607967377, 1.0240000486373901, 0.0, 0.0, 0.0, 0.0, 0.0, 1.6518372875898404E9, 0.0, 2022-05-06 12:41:27.589
89.0, -270.4546051956713, -158.41281237313524, -203.94983423361555, -195.55562878306955, 0.144000006839633, 0.12800000607967377, 1.0240000486373901, 0.0, 0.0, 0.0, 0.0, 0.0, 1.6518372876058345E9, 0.0, 2022-05-06 12:41:27.605
89.0, -202.1752517046407, -53.123408920597285, -138.72223910642788, -165.98423983342946, 0.144000006839633, 0.12800000607967377, 1.0240000486373901, 0.0, 0.0, 0.0, 0.0, 0.0, 1.6518372876058345E9, 0.0, 2022-05-06 12:41:27.605
90.0, -238.2615463770926, -158.07248147716746, -169.66991123976186, -181.92369344457984, 0.144000006839633, 0.12800000607967377, 1.008000047877431, 0.0, 0.0, 0.0, 0.0, 0.0, 1.6518372876067808E9, 0.0, 2022-05-06 12:41:27.606
90.0, -296.630164985545, -269.9590684515424, -255.9194840178825, -237.35649058781564, 0.144000006839633, 0.12800000607967377, 1.008000047877431, 0.0, 0.0, 0.0, 0.0, 0.0, 1.6518372876067808E9, 0.0, 2022-05-06 12:41:27.606
91.0, -276.6179603226483, -156.80839529214427, -194.00918015139177, -197.1675256639719, 0.144000006839633, 0.12800000607967377, 1.008000047877431, 0.0, 0.0, 0.0, 0.0, 0.0, 1.651837287619872E9, 0.0, 2022-05-06 12:41:27.619
91.0, -206.88752564880997, -53.04861092148349, -123.53824528632686, -146.547979763709, 0.144000006839633, 0.12800000607967377, 1.008000047877431, 0.0, 0.0, 0.0, 0.0, 0.0, 1.651837287619872E9, 0.0, 2022-05-06 12:41:27.619
92.0, -224.90636363532394, -151.70717175258324, -157.56385508319363, -168.54981120303273, 0.144000006839633, 0.12800000607967377, 1.008000047877431, 0.0, 0.0, 0.0, 0.0, 0.0, 1.651837287635841E9, 0.0, 2022-05-06 12:41:27.635
92.0, -307.8124658530578, -261.6938895494677, -246.2481027324684, -231.62322395574301, 0.144000006839633, 0.12800000607967377, 1.008000047877431, 0.0, 0.0, 0.0, 0.0, 0.0, 1.651837287635841E9, 0.0, 2022-05-06 12:41:27.635
93.0, -274.5759749468416, -158.54744877154008, -201.13742946693674, -202.88583269622177, 0.144000006839633, 0.12800000607967377, 1.008000047877431, 0.0, 0.0, 0.0, 0.0, 0.0, 1.6518372876367702E9, 0.0, 2022-05-06 12:41:27.636
93.0, -196.28490927442908, -37.29989220807329, -102.63220453402027, -135.71348959207535, 0.144000006839633, 0.12800000607967377, 1.008000047877431, 0.0, 0.0, 0.0, 0.0, 0.0, 1.6518372876367702E9, 0.0, 2022-05-06 12:41:27.636
94.0, -212.82274687848985, -148.4609385910444, -169.5464945412241, -175.40130792185664, 0.144000006839633, 0.12800000607967377, 1.008000047877431, 0.0, 0.0, 0.0, 0.0, 0.0, 1.6518372876508937E9, 0.0, 2022-05-06 12:41:27.650
94.0, -289.85720616579056, -267.2999995830469, -252.89764485368505, -233.070565238595, 0.144000006839633, 0.12800000607967377, 1.008000047877431, 0.0, 0.0, 0.0, 0.0, 0.0, 1.6518372876508937E9, 0.0, 2022-05-06 12:41:27.650
95.0, -284.30719463154674, -163.71599051030353, -198.57185809733346, -202.93071149569005, 0.144000006839633, 0.12800000607967377, 1.008000047877431, 0.0, 0.0, 0.0, 0.0, 0.0, 1.6518372876658602E9, 0.0, 2022-05-06 12:41:27.665
95.0, -206.86134634912014, -40.74807996721938, -111.331211830955, -142.50514791160822, 0.144000006839633, 0.12800000607967377, 1.008000047877431, 0.0, 0.0, 0.0, 0.0, 0.0, 1.6518372876658602E9, 0.0, 2022-05-06 12:41:27.665
96.0, -239.450834563002, -157.2384837870486, -162.22003052802756, -183.3111963281408, 0.144000006839633, 0.12800000607967377, 1.008000047877431, 0.0, 0.0, 0.0, 0.0, 0.0, 1.651837287666792E9, 0.0, 2022-05-06 12:41:27.666
96.0, -289.1428852742538, -256.8170600072481, -246.33786033140495, -215.79970724321902, 0.144000006839633, 0.12800000607967377, 1.008000047877431, 0.0, 0.0, 0.0, 0.0, 0.0, 1.651837287666792E9, 0.0, 2022-05-06 12:41:27.666
97.0, -264.51190416608006, -159.04485546564683, -195.09749103849754, -196.21759107522666, 0.144000006839633, 0.12800000607967377, 1.008000047877431, 0.0, 0.0, 0.0, 0.0, 0.0, 1.651837287680829E9, 0.0, 2022-05-06 12:41:27.680
97.0, -201.96955720707774, -51.062724045012146, -115.02997288713232, -155.7443937547505, 0.144000006839633, 0.12800000607967377, 1.008000047877431, 0.0, 0.0, 0.0, 0.0, 0.0, 1.651837287680829E9, 0.0, 2022-05-06 12:41:27.680
98.0, -225.50100772827864, -156.93555189063773, -160.92602514335886, -182.44353953842074, 0.144000006839633, 0.12800000607967377, 1.008000047877431, 0.0, 0.0, 0.0, 0.0, 0.0, 1.6518372876958232E9, 0.0, 2022-05-06 12:41:27.695
98.0, -307.2290414599702, -271.9711346277036, -257.0975525039248, -240.54662525001913, 0.144000006839633, 0.12800000607967377, 1.008000047877431, 0.0, 0.0, 0.0, 0.0, 0.0, 1.6518372876958232E9, 0.0, 2022-05-06 12:41:27.695
99.0, -277.2425236152485, -163.18118481663987, -207.8580296873115, -199.13845294062048, 0.144000006839633, 0.12800000607967377, 1.008000047877431, 0.0, 0.0, 0.0, 0.0, 0.0, 1.6518372876968267E9, 0.0, 2022-05-06 12:41:27.696
99.0, -209.74854911491275, -52.693320425692946, -120.14615602651611, -148.38801054190844, 0.144000006839633, 0.12800000607967377, 1.008000047877431, 0.0, 0.0, 0.0, 0.0, 0.0, 1.6518372876968267E9, 0.0, 2022-05-06 12:41:27.696
100.0, -222.03786036930978, -148.80126948701218, -161.5431086360477, -174.60844913125038, 0.144000006839633, 0.12800000607967377, 1.0240000486373901, 0.0, 0.0, 0.0, 0.0, 0.0, 1.651837287710817E9, 0.0, 2022-05-06 12:41:27.710
100.0, -295.42217729985714, -261.23762175487354, -241.45355098927394, -226.26768721919507, 0.144000006839633, 0.12800000607967377, 1.0240000486373901, 0.0, 0.0, 0.0, 0.0, 0.0, 1.651837287710817E9, 0.0, 2022-05-06 12:41:27.710
0.0, -276.81243512034416, -160.91293549351394, -201.8349208086729, -205.75620591221377, 0.144000006839633, 0.12800000607967377, 1.0240000486373901, 0.0, 0.0, 0.0, 0.0, 0.0, 1.6518372877118309E9, 0.0, 2022-05-06 12:41:27.711
1.0, -206.89500544872135, -45.98954975511879, -110.5327431904152, -145.58495552511886, 0.144000006839633, 0.11200000531971455, 1.0240000486373901, 0.0, 0.0, 0.0, 0.0, 0.0, 1.6518372877258337E9, 0.0, 2022-05-06 12:41:27.725
1.0, -226.79127321299165, -145.1380374804139, -157.17303553782403, -171.01253532385454, 0.144000006839633, 0.11200000531971455, 1.0240000486373901, 0.0, 0.0, 0.0, 0.0, 0.0, 1.6518372877258337E9, 0.0, 2022-05-06 12:41:27.725
2.0, -310.68096911907196, -270.3611076967791, -260.8243628097698, -233.51000348338857, 0.144000006839633, 0.11200000531971455, 1.0240000486373901, 0.0, 0.0, 0.0, 0.0, 0.0, 1.6518372877578952E9, 0.0, 2022-05-06 12:41:27.757
2.0, -279.2471099914983, -169.9672332862392, -209.19878382142633, -208.3367368816398, 0.144000006839633, 0.11200000531971455, 1.0240000486373901, 0.0, 0.0, 0.0, 0.0, 0.0, 1.6518372877578952E9, 0.0, 2022-05-06 12:41:27.757
3.0, -195.96327787823975, -45.78011535760015, -116.67365891765803, -149.6801459765993, 0.144000006839633, 0.11200000531971455, 1.0240000486373901, 0.0, 0.0, 0.0, 0.0, 0.0, 1.6518372877588007E9, 0.0, 2022-05-06 12:41:27.758
3.0, -261.8752746973187, -173.90908783953637, -184.99415130820125, -203.06347794411704, 0.144000006839633, 0.11200000531971455, 1.0240000486373901, 0.0, 0.0, 0.0, 0.0, 0.0, 1.6518372877588007E9, 0.0, 2022-05-06 12:41:27.758
4.0, -310.63983021955937, -274.9050861429423, -246.69502077717334, -238.10260062897578, 0.144000006839633, 0.11200000531971455, 1.0240000486373901, 0.0, 0.0, 0.0, 0.0, 0.0, 1.651837287759842E9, 0.0, 2022-05-06 12:41:27.759
4.0, -265.5328968539834, -168.3403768055141, -200.59701392333955, -189.5886184037663, 0.144000006839633, 0.11200000531971455, 1.0240000486373901, 0.0, 0.0, 0.0, 0.0, 0.0, 1.651837287759842E9, 0.0, 2022-05-06 12:41:27.759
5.0, -207.27647524420172, -55.02140814810991, -123.6523122349754, -149.67640607664362, 0.144000006839633, 0.11200000531971455, 1.0240000486373901, 0.0, 0.0, 0.0, 0.0, 0.0, 1.65183728776079E9, 0.0, 2022-05-06 12:41:27.760
5.0, -251.3025775225833, -157.37873003538698, -172.7085799537599, -190.30667919525877, 0.144000006839633, 0.11200000531971455, 1.0240000486373901, 0.0, 0.0, 0.0, 0.0, 0.0, 1.65183728776079E9, 0.0, 2022-05-06 12:41:27.760
6.0, -302.0268406216055, -261.84535549767315, -247.2260865708813, -227.69445905229077, 0.144000006839633, 0.11200000531971455, 1.0240000486373901, 0.0, 0.0, 0.0, 0.0, 0.0, 1.6518372877708216E9, 0.0, 2022-05-06 12:41:27.770
6.0, -285.3880257187411, -170.72269307728857, -207.79632133804262, -197.1170370145701, 0.144000006839633, 0.11200000531971455, 1.0240000486373901, 0.0, 0.0, 0.0, 0.0, 0.0, 1.6518372877708216E9, 0.0, 2022-05-06 12:41:27.770
7.0, -206.67435135133564, -45.01717576663941, -123.49897633679211, -145.5662560253404, 0.144000006839633, 0.11200000531971455, 1.0240000486373901, 0.0, 0.0, 0.0, 0.0, 0.0, 1.6518372877848244E9, 0.0, 2022-05-06 12:41:27.784
7.0, -236.8553439937532, -154.1511963736266, -174.9674795269966, -185.52708705188707, 0.144000006839633, 0.11200000531971455, 1.0240000486373901, 0.0, 0.0, 0.0, 0.0, 0.0, 1.6518372877848244E9, 0.0, 2022-05-06 12:41:27.784
8.0, -319.5632315138355, -280.275582479313, -262.39512079115957, -254.76759483153, 0.144000006839633, 0.11200000531971455, 1.0240000486373901, 0.0, 0.0, 0.0, 0.0, 0.0, 1.6518372878178756E9, 0.0, 2022-05-06 12:41:27.817
8.0, -281.3638933664188, -174.0811232374981, -214.75627515558153, -206.92305469838902, 0.144000006839633, 0.11200000531971455, 1.0240000486373901, 0.0, 0.0, 0.0, 0.0, 0.0, 1.6518372878178756E9, 0.0, 2022-05-06 12:41:27.817
9.0, -211.37914549559355, -54.19489025790244, -125.59332031197846, -159.9050324554555, 0.144000006839633, 0.11200000531971455, 1.0240000486373901, 0.0, 0.0, 0.0, 0.0, 0.0, 1.6518372878187923E9, 0.0, 2022-05-06 12:41:27.818
9.0, -226.87355101201683, -148.103778145276, -160.06771810352802, -173.85111939022318, 0.144000006839633, 0.11200000531971455, 1.0240000486373901, 0.0, 0.0, 0.0, 0.0, 0.0, 1.6518372878187923E9, 0.0, 2022-05-06 12:41:27.818
10.0, -305.6620233785361, -270.2339510982856, -249.10351634863764, -225.60011507710442, 0.144000006839633, 0.11200000531971455, 1.0240000486373901, 0.0, 0.0, 0.0, 0.0, 0.0, 1.6518372878198113E9, 0.0, 2022-05-06 12:41:27.819
10.0, -283.6901111388579, -161.75441298354417, -198.1698188520968, -193.4481951580383, 0.144000006839633, 0.11200000531971455, 1.0240000486373901, 0.0, 0.0, 0.0, 0.0, 0.0, 1.6518372878198113E9, 0.0, 2022-05-06 12:41:27.819
11.0, -210.5788069050759, -51.41240469086915, -123.11376664135605, -153.41630603233352, 0.144000006839633, 0.12800000607967377, 1.0240000486373901, 0.0, 0.0, 0.0, 0.0, 0.0, 1.651837287820784E9, 0.0, 2022-05-06 12:41:27.820
11.0, -242.0463251322508, -156.32781814783812, -171.28367807064205, -188.58258531568572, 0.144000006839633, 0.12800000607967377, 1.0240000486373901, 0.0, 0.0, 0.0, 0.0, 0.0, 1.651837287820784E9, 0.0, 2022-05-06 12:41:27.820
12.0, -300.2466482426971, -268.29294302128255, -250.13198883645236, -233.5324428831227, 0.144000006839633, 0.12800000607967377, 1.0240000486373901, 0.0, 0.0, 0.0, 0.0, 0.0, 1.6518372878308356E9, 0.0, 2022-05-06 12:41:27.830
12.0, -264.21645206958055, -159.151442614384, -200.7279104217887, -197.16191581403837, 0.144000006839633, 0.12800000607967377, 1.0240000486373901, 0.0, 0.0, 0.0, 0.0, 0.0, 1.6518372878308356E9, 0.0, 2022-05-06 12:41:27.830
13.0, -207.75518243853003, -35.73100417666137, -110.48786439094692, -134.22313945973292, 0.144000006839633, 0.12800000607967377, 1.0240000486373901, 0.0, 0.0, 0.0, 0.0, 0.0, 1.6518372878618608E9, 0.0, 2022-05-06 12:41:27.861
13.0, -247.3719426691532, -158.04443222749978, -173.87168883997947, -188.76584041351452, 0.144000006839633, 0.12800000607967377, 1.0240000486373901, 0.0, 0.0, 0.0, 0.0, 0.0, 1.6518372878618608E9, 0.0, 2022-05-06 12:41:27.861
14.0, -318.58337772544473, -270.08061520010233, -257.1143820537254, -244.9877564474009, 0.144000006839633, 0.12800000607967377, 1.0240000486373901, 0.0, 0.0, 0.0, 0.0, 0.0, 1.6518372878627963E9, 0.0, 2022-05-06 12:41:27.862
14.0, -289.6926505677402, -169.24169269483536, -205.6533586634323, -205.07180422032252, 0.144000006839633, 0.12800000607967377, 1.0240000486373901, 0.0, 0.0, 0.0, 0.0, 0.0, 1.6518372878627963E9, 0.0, 2022-05-06 12:41:27.862
15.0, -216.547687234357, -51.40118499100208, -126.64423219952732, -155.60414750641212, 0.144000006839633, 0.12800000607967377, 1.0240000486373901, 0.0, 0.0, 0.0, 0.0, 0.0, 1.6518372878638182E9, 0.0, 2022-05-06 12:41:27.863
15.0, -237.5584451854229, -151.75392050202936, -165.01560574490577, -171.55482081742957, 0.144000006839633, 0.12800000607967377, 1.0240000486373901, 0.0, 0.0, 0.0, 0.0, 0.0, 1.6518372878638182E9, 0.0, 2022-05-06 12:41:27.863
16.0, -311.2980526117608, -275.97095763031393, -260.81314310990274, -248.03203501133248, 0.144000006839633, 0.12800000607967377, 1.0240000486373901, 0.0, 0.0, 0.0, 0.0, 0.0, 1.6518372878758318E9, 0.0, 2022-05-06 12:41:27.875
16.0, -283.59661363996565, -163.25411286577582, -202.54924170020968, -208.68080767756328, 0.144000006839633, 0.12800000607967377, 1.0240000486373901, 0.0, 0.0, 0.0, 0.0, 0.0, 1.6518372878758318E9, 0.0, 2022-05-06 12:41:27.875
17.0, -204.0938203819096, -37.85152745153755, -112.08480167202652, -136.88968812813982, 0.144000006839633, 0.12800000607967377, 1.0240000486373901, 0.0, 0.0, 0.0, 0.0, 0.0, 1.6518372878909245E9, 0.0, 2022-05-06 12:41:27.890
17.0, -235.8193917060271, -155.80049225408584, -169.14819519594312, -185.91229674732313, 0.144000006839633, 0.12800000607967377, 1.0240000486373901, 0.0, 0.0, 0.0, 0.0, 0.0, 1.6518372878909245E9, 0.0, 2022-05-06 12:41:27.890
18.0, -309.54403953254223, -272.40683297254145, -256.91242745611817, -241.3525736904703, 0.144000006839633, 0.12800000607967377, 1.0240000486373901, 0.0, 0.0, 0.0, 0.0, 0.0, 1.651837287891801E9, 0.0, 2022-05-06 12:41:27.891
18.0, -290.26485526096076, -175.7154595181346, -205.3616464668885, -213.61373571911827, 0.144000006839633, 0.12800000607967377, 1.0240000486373901, 0.0, 0.0, 0.0, 0.0, 0.0, 1.651837287891801E9, 0.0, 2022-05-06 12:41:27.891
19.0, -216.96281612943858, -57.19429002236575, -123.5027162367478, -155.73878390481696, 0.144000006839633, 0.12800000607967377, 1.0240000486373901, 0.0, 0.0, 0.0, 0.0, 0.0, 1.6518372879058287E9, 0.0, 2022-05-06 12:41:27.905
19.0, -239.9706806568429, -161.5599381858483, -171.1565214721486, -181.3645784012042, 0.144000006839633, 0.12800000607967377, 1.0240000486373901, 0.0, 0.0, 0.0, 0.0, 0.0, 1.6518372879058287E9, 0.0, 2022-05-06 12:41:27.905
20.0, -299.71184254903346, -261.13477450609207, -236.91518239304423, -214.81798350485042, 0.144000006839633, 0.12800000607967377, 1.0240000486373901, 0.0, 0.0, 0.0, 0.0, 0.0, 1.6518372879208193E9, 0.0, 2022-05-06 12:41:27.920
20.0, -274.14588645193726, -161.21212748996913, -197.78834905661643, -199.91822208138183, 0.144000006839633, 0.12800000607967377, 1.0240000486373901, 0.0, 0.0, 0.0, 0.0, 0.0, 1.6518372879208193E9, 0.0, 2022-05-06 12:41:27.920
21.0, -212.18322398606688, -44.81522116903216, -126.36373970285058, -150.0503960722126, 0.144000006839633, 0.12800000607967377, 1.0240000486373901, 0.0, 0.0, 0.0, 0.0, 0.0, 1.651837287921795E9, 0.0, 2022-05-06 12:41:27.921
21.0, -237.737960383296, -155.56113865692168, -172.65622135438025, -173.9146976894699, 0.144000006839633, 0.12800000607967377, 1.0240000486373901, 0.0, 0.0, 0.0, 0.0, 0.0, 1.651837287921795E9, 0.0, 2022-05-06 12:41:27.921
22.0, -316.1187836546451, -274.0262096533552, -262.26048439275473, -246.2107037329115, 0.144000006839633, 0.12800000607967377, 1.0240000486373901, 0.0, 0.0, 0.0, 0.0, 0.0, 1.6518372879358537E9, 0.0, 2022-05-06 12:41:27.935
22.0, -266.29209654498845, -155.51251995749772, -186.10864149499685, -177.1010924517177, 0.144000006839633, 0.12800000607967377, 1.0240000486373901, 0.0, 0.0, 0.0, 0.0, 0.0, 1.6518372879358537E9, 0.0, 2022-05-06 12:41:27.935
23.0, -197.4255787609145, -39.635459730401635, -119.32150808628649, -153.23305093450472, 0.144000006839633, 0.12800000607967377, 1.0240000486373901, 0.0, 0.0, 0.0, 0.0, 0.0, 1.651837287950843E9, 0.0, 2022-05-06 12:41:27.950
23.0, -246.98673297371715, -162.45751417521387, -180.67082695942372, -199.21886078966781, 0.144000006839633, 0.12800000607967377, 1.0240000486373901, 0.0, 0.0, 0.0, 0.0, 0.0, 1.651837287950843E9, 0.0, 2022-05-06 12:41:27.950
24.0, -322.0689644841477, -280.0137894824147, -259.3097033277154, -243.8059480614029, 0.144000006839633, 0.12800000607967377, 1.0240000486373901, 0.0, 0.0, 0.0, 0.0, 0.0, 1.6518372879658306E9, 0.0, 2022-05-06 12:41:27.965
24.0, -274.1384066520259, -156.1857019495219, -194.36634059716016, -191.89613667642698, 0.144000006839633, 0.12800000607967377, 1.0240000486373901, 0.0, 0.0, 0.0, 0.0, 0.0, 1.6518372879658306E9, 0.0, 2022-05-06 12:41:27.965
25.0, -218.26804121397436, -52.971942972391844, -127.20147729292512, -156.50920329568908, 0.144000006839633, 0.12800000607967377, 1.0240000486373901, 0.0, 0.0, 0.0, 0.0, 0.0, 1.6518372879667945E9, 0.0, 2022-05-06 12:41:27.966
25.0, -249.750519040972, -168.62460920214653, -178.52038448490202, -192.2551670721732, 0.144000006839633, 0.12800000607967377, 1.0240000486373901, 0.0, 0.0, 0.0, 0.0, 0.0, 1.6518372879667945E9, 0.0, 2022-05-06 12:41:27.966
26.0, -320.79739849921316, -275.6530661340803, -258.9843320315704, -239.41530551342294, 0.144000006839633, 0.12800000607967377, 1.0240000486373901, 0.0, 0.0, 0.0, 0.0, 0.0, 1.651837287980836E9, 0.0, 2022-05-06 12:41:27.980
26.0, -285.0626544225961, -168.03744490910321, -207.14931864570826, -206.09279690822586, 0.144000006839633, 0.12800000607967377, 1.0240000486373901, 0.0, 0.0, 0.0, 0.0, 0.0, 1.651837287980836E9, 0.0, 2022-05-06 12:41:27.980
27.0, -203.92926478385925, -55.08124654740095, -124.23947652801871, -153.1245938357897, 0.144000006839633, 0.12800000607967377, 1.0240000486373901, 0.0, 0.0, 0.0, 0.0, 0.0, 1.6518372879817967E9, 0.0, 2022-05-06 12:41:27.981
27.0, -238.5195994740352, -158.2650863248855, -171.75490546505898, -181.11400510417297, 0.144000006839633, 0.12800000607967377, 1.0240000486373901, 0.0, 0.0, 0.0, 0.0, 0.0, 1.6518372879817967E9, 0.0, 2022-05-06 12:41:27.981
28.0, -323.4602072676644, -274.44133854843676, -254.91532087977976, -231.17630591103807, 0.144000006839633, 0.12800000607967377, 1.0240000486373901, 0.0, 0.0, 0.0, 0.0, 0.0, 1.6518372879958248E9, 0.0, 2022-05-06 12:41:27.995
28.0, -273.0538356648758, -158.7101344196126, -200.1370062287897, -193.65762955555692, 0.144000006839633, 0.12800000607967377, 1.0240000486373901, 0.0, 0.0, 0.0, 0.0, 0.0, 1.6518372879958248E9, 0.0, 2022-05-06 12:41:27.995
29.0, -220.7363751847297, -61.67843006923795, -135.66861079260707, -167.01832217117772, 0.144000006839633, 0.12800000607967377, 1.0240000486373901, 0.0, 0.0, 0.0, 0.0, 0.0, 1.6518372880108216E9, 0.0, 2022-05-06 12:41:28.010
29.0, -255.3042704751715, -164.83609054703265, -181.91995354462415, -190.4039165941067, 0.144000006839633, 0.12800000607967377, 1.0240000486373901, 0.0, 0.0, 0.0, 0.0, 0.0, 1.6518372880108216E9, 0.0, 2022-05-06 12:41:28.010
30.0, -311.05495911464095, -266.8343820385635, -257.3799149505794, -239.74067680956796, 0.144000006839633, 0.12800000607967377, 1.008000047877431, 0.0, 0.0, 0.0, 0.0, 0.0, 1.6518372880117996E9, 0.0, 2022-05-06 12:41:28.011
30.0, -293.01742162834853, -171.79978426452726, -209.92806431278586, -216.59069608384743, 0.144000006839633, 0.12800000607967377, 1.008000047877431, 0.0, 0.0, 0.0, 0.0, 0.0, 1.6518372880117996E9, 0.0, 2022-05-06 12:41:28.011
31.0, -208.31242753192782, -50.548487801104784, -118.32295479811728, -152.41401284420863, 0.144000006839633, 0.12800000607967377, 1.008000047877431, 0.0, 0.0, 0.0, 0.0, 0.0, 1.6518372880258222E9, 0.0, 2022-05-06 12:41:28.025
31.0, -250.32272373419255, -171.49685236811638, -188.80510936304927, -191.24165418418124, 0.144000006839633, 0.12800000607967377, 1.008000047877431, 0.0, 0.0, 0.0, 0.0, 0.0, 1.6518372880258222E9, 0.0, 2022-05-06 12:41:28.025
32.0, -305.8190991766751, -271.56161558255553, -251.05200422555208, -222.51095771370456, 0.144000006839633, 0.12800000607967377, 1.008000047877431, 0.0, 0.0, 0.0, 0.0, 0.0, 1.6518372880408244E9, 0.0, 2022-05-06 12:41:28.040
32.0, -285.4216848183423, -163.20923406630754, -192.78810281585902, -188.42176961759105, 0.144000006839633, 0.12800000607967377, 1.008000047877431, 0.0, 0.0, 0.0, 0.0, 0.0, 1.6518372880408244E9, 0.0, 2022-05-06 12:41:28.040
33.0, -201.7638627095148, -39.49334353208542, -113.9061329504475, -159.06729486538097, 0.144000006839633, 0.12800000607967377, 1.008000047877431, 0.0, 0.0, 0.0, 0.0, 0.0, 1.651837288041804E9, 0.0, 2022-05-06 12:41:28.041
33.0, -251.4110346212983, -168.22070000693202, -180.11732176598161, -188.42924941750243, 0.144000006839633, 0.12800000607967377, 1.008000047877431, 0.0, 0.0, 0.0, 0.0, 0.0, 1.651837288041804E9, 0.0, 2022-05-06 12:41:28.041
34.0, -316.1449629543349, -286.3977987067774, -268.3228622209281, -257.8081334955059, 0.144000006839633, 0.12800000607967377, 1.008000047877431, 0.0, 0.0, 0.0, 0.0, 0.0, 1.651837288055824E9, 0.0, 2022-05-06 12:41:28.055
34.0, -285.7246167147532, -175.70049991831183, -206.42377805430442, -206.03669840889052, 0.144000006839633, 0.12800000607967377, 1.008000047877431, 0.0, 0.0, 0.0, 0.0, 0.0, 1.651837288055824E9, 0.0, 2022-05-06 12:41:28.055
35.0, -218.42137711215764, -56.28923423308879, -128.6562983756885, -167.92337796045467, 0.144000006839633, 0.12800000607967377, 1.008000047877431, 0.0, 0.0, 0.0, 0.0, 0.0, 1.6518372880708635E9, 0.0, 2022-05-06 12:41:28.070
35.0, -247.48039976786822, -168.3366369055584, -182.09572884254158, -199.61903008492664, 0.144000006839633, 0.12800000607967377, 1.008000047877431, 0.0, 0.0, 0.0, 0.0, 0.0, 1.6518372880708635E9, 0.0, 2022-05-06 12:41:28.070
36.0, -312.83515149354935, -266.74462443962693, -258.39342783857137, -242.4334047776647, 0.144000006839633, 0.12800000607967377, 1.008000047877431, 0.0, 0.0, 0.0, 0.0, 0.0, 1.651837288071838E9, 0.0, 2022-05-06 12:41:28.071
36.0, -288.2565289847553, -167.9701267099008, -221.16646367963403, -204.95586732169613, 0.144000006839633, 0.12800000607967377, 1.008000047877431, 0.0, 0.0, 0.0, 0.0, 0.0, 1.651837288071838E9, 0.0, 2022-05-06 12:41:28.071
37.0, -215.49303544685245, -48.33446702733636, -110.99649078492075, -143.7112656473182, 0.144000006839633, 0.12800000607967377, 1.008000047877431, 0.0, 0.0, 0.0, 0.0, 0.0, 1.6518372880858307E9, 0.0, 2022-05-06 12:41:28.085
37.0, -236.1073640026152, -158.50443992204964, -168.2244399068877, -181.19254300324246, 0.144000006839633, 0.12800000607967377, 1.008000047877431, 0.0, 0.0, 0.0, 0.0, 0.0, 1.6518372880858307E9, 0.0, 2022-05-06 12:41:28.085
38.0, -304.9177832873538, -269.40743320807815, -251.0033855261281, -239.03757561789826, 0.144000006839633, 0.12800000607967377, 1.008000047877431, 0.0, 0.0, 0.0, 0.0, 0.0, 1.651837288100845E9, 0.0, 2022-05-06 12:41:28.100
38.0, -276.86105381976813, -167.48019981570542, -206.4275179542601, -209.80651756422594, 0.144000006839633, 0.12800000607967377, 1.008000047877431, 0.0, 0.0, 0.0, 0.0, 0.0, 1.651837288100845E9, 0.0, 2022-05-06 12:41:28.100
39.0, -211.5848399931565, -49.45643701404333, -129.63989206403494, -155.8322814037092, 0.144000006839633, 0.12800000607967377, 1.008000047877431, 0.0, 0.0, 0.0, 0.0, 0.0, 1.6518372881017754E9, 0.0, 2022-05-06 12:41:28.101
39.0, -242.79804502334446, -162.20694087818265, -170.1168292844668, -185.60562495095655, 0.144000006839633, 0.12800000607967377, 1.008000047877431, 0.0, 0.0, 0.0, 0.0, 0.0, 1.6518372881017754E9, 0.0, 2022-05-06 12:41:28.101
40.0, -310.41917612217367, -273.2744897622615, -262.4512192904949, -230.465724919457, 0.144000006839633, 0.12800000607967377, 1.0240000486373901, 0.0, 0.0, 0.0, 0.0, 0.0, 1.6518372881158497E9, 0.0, 2022-05-06 12:41:28.115
40.0, -281.4274716656655, -169.01355879753828, -198.67096544615924, -206.4480874040164, 0.144000006839633, 0.12800000607967377, 1.0240000486373901, 0.0, 0.0, 0.0, 0.0, 0.0, 1.6518372881158497E9, 0.0, 2022-05-06 12:41:28.115
41.0, -207.16427824553102, -50.507348901592195, -125.92991130799055, -156.2399304988794, 0.144000006839633, 0.12800000607967377, 1.0240000486373901, 0.0, 0.0, 0.0, 0.0, 0.0, 1.6518372881308193E9, 0.0, 2022-05-06 12:41:28.130
41.0, -250.77899152878672, -168.94624059833586, -180.92888005636632, -197.76029980694875, 0.144000006839633, 0.12800000607967377, 1.0240000486373901, 0.0, 0.0, 0.0, 0.0, 0.0, 1.6518372881308193E9, 0.0, 2022-05-06 12:41:28.130
42.0, -308.5978448437527, -273.62978025805205, -263.3899341793731, -238.27463602693751, 0.144000006839633, 0.12800000607967377, 1.0240000486373901, 0.0, 0.0, 0.0, 0.0, 0.0, 1.6518372881317928E9, 0.0, 2022-05-06 12:41:28.131
42.0, -275.92981873080134, -163.6655018609017, -226.09191192127764, -199.0804844913073, 0.144000006839633, 0.12800000607967377, 1.0240000486373901, 0.0, 0.0, 0.0, 0.0, 0.0, 1.6518372881317928E9, 0.0, 2022-05-06 12:41:28.131
43.0, -211.12109239865094, -51.0982530945912, -119.7628162810579, -145.4951979261823, 0.144000006839633, 0.12800000607967377, 1.0240000486373901, 0.0, 0.0, 0.0, 0.0, 0.0, 1.651837288145829E9, 0.0, 2022-05-06 12:41:28.145
43.0, -258.62904153577983, -171.0106653738767, -181.50856454949826, -203.112096643541, 0.144000006839633, 0.12800000607967377, 1.0240000486373901, 0.0, 0.0, 0.0, 0.0, 0.0, 1.651837288145829E9, 0.0, 2022-05-06 12:41:28.145
44.0, -312.76035349443555, -272.40309307258576, -263.21789878141135, -236.56924164714292, 0.144000006839633, 0.12800000607967377, 1.0240000486373901, 0.0, 0.0, 0.0, 0.0, 0.0, 1.6518372881608462E9, 0.0, 2022-05-06 12:41:28.160
44.0, -268.85766791459173, -150.30657921917737, -193.03119631297886, -180.93822980625555, 0.144000006839633, 0.12800000607967377, 1.0240000486373901, 0.0, 0.0, 0.0, 0.0, 0.0, 1.6518372881608462E9, 0.0, 2022-05-06 12:41:28.160
45.0, -196.23255067504942, -35.237337382510304, -107.7913965228945, -137.7087262184359, 0.144000006839633, 0.12800000607967377, 1.0240000486373901, 0.0, 0.0, 0.0, 0.0, 0.0, 1.65183728816182E9, 0.0, 2022-05-06 12:41:28.161
45.0, -249.39148864522576, -165.0829239441082, -187.7915964750573, -196.54483232134953, 0.144000006839633, 0.12800000607967377, 1.0240000486373901, 0.0, 0.0, 0.0, 0.0, 0.0, 1.65183728816182E9, 0.0, 2022-05-06 12:41:28.161
46.0, -301.5219541275874, -263.06456288322806, -241.82941093482077, -224.25001119310036, 0.144000006839633, 0.12800000607967377, 1.0240000486373901, 0.0, 0.0, 0.0, 0.0, 0.0, 1.6518372881758573E9, 0.0, 2022-05-06 12:41:28.175
46.0, -283.38343934249133, -164.75381274800748, -211.02011509984732, -205.9282413101755, 0.144000006839633, 0.12800000607967377, 1.0240000486373901, 0.0, 0.0, 0.0, 0.0, 0.0, 1.6518372881758573E9, 0.0, 2022-05-06 12:41:28.175
47.0, -227.13534400891513, -62.579745958559215, -133.26759502105415, -173.27143489709124, 0.144000006839633, 0.12800000607967377, 1.0240000486373901, 0.0, 0.0, 0.0, 0.0, 0.0, 1.6518372881908302E9, 0.0, 2022-05-06 12:41:28.190
47.0, -253.95416659116745, -177.88086159247905, -180.36041526310146, -204.90350872231647, 0.144000006839633, 0.12800000607967377, 1.0240000486373901, 0.0, 0.0, 0.0, 0.0, 0.0, 1.6518372881908302E9, 0.0, 2022-05-06 12:41:28.190
48.0, -313.39239658694714, -275.60070753470063, -264.0593762714416, -247.48226971784607, 0.144000006839633, 0.12800000607967377, 1.0240000486373901, 0.0, 0.0, 0.0, 0.0, 0.0, 1.6518372881917734E9, 0.0, 2022-05-06 12:41:28.191
48.0, -280.3466405784711, -165.32975734118372, -200.5745745236054, -214.4888723087497, 0.144000006839633, 0.12800000607967377, 1.0240000486373901, 0.0, 0.0, 0.0, 0.0, 0.0, 1.6518372881917734E9, 0.0, 2022-05-06 12:41:28.191
49.0, -203.62633288744837, -48.82439392153174, -112.40643306821585, -149.02940338430926, 0.144000006839633, 0.12800000607967377, 1.0240000486373901, 0.0, 0.0, 0.0, 0.0, 0.0, 1.6518372882058456E9, 0.0, 2022-05-06 12:41:28.205
49.0, -227.13534400891513, -154.8542975652963, -165.92066153418273, -171.8091340144165, 0.144000006839633, 0.12800000607967377, 1.0240000486373901, 0.0, 0.0, 0.0, 0.0, 0.0, 1.6518372882058456E9, 0.0, 2022-05-06 12:41:28.205
50.0, -308.063039150089, -277.0218695178628, -260.80940320994705, -236.44956484856084, 0.144000006839633, 0.12800000607967377, 1.0240000486373901, 0.0, 0.0, 0.0, 0.0, 0.0, 1.6518372882208283E9, 0.0, 2022-05-06 12:41:28.220
50.0, -276.25519002694637, -158.76623291894794, -199.02999584190547, -199.66016898443922, 0.144000006839633, 0.12800000607967377, 1.0240000486373901, 0.0, 0.0, 0.0, 0.0, 0.0, 1.6518372882208283E9, 0.0, 2022-05-06 12:41:28.220
51.0, -200.60075382329524, -48.65235852357, -111.44527877960354, -141.1195149780251, 0.144000006839633, 0.12800000607967377, 1.0240000486373901, 0.0, 0.0, 0.0, 0.0, 0.0, 1.6518372882217598E9, 0.0, 2022-05-06 12:41:28.221
51.0, -239.1516425665468, -166.83693702332675, -188.87616746220738, -196.42141562281176, 0.144000006839633, 0.12800000607967377, 1.0240000486373901, 0.0, 0.0, 0.0, 0.0, 0.0, 1.6518372882217598E9, 0.0, 2022-05-06 12:41:28.221
52.0, -321.16764859482646, -278.128879904747, -267.7917964272201, -254.30758713698015, 0.144000006839633, 0.12800000607967377, 1.0240000486373901, 0.0, 0.0, 0.0, 0.0, 0.0, 1.651837288235844E9, 0.0, 2022-05-06 12:41:28.235
52.0, -275.29403573833406, -155.90146955288947, -201.70028441026807, -202.77176574757323, 0.144000006839633, 0.12800000607967377, 1.0240000486373901, 0.0, 0.0, 0.0, 0.0, 0.0, 1.651837288235844E9, 0.0, 2022-05-06 12:41:28.235
53.0, -222.42307006474584, -60.00295488908887, -131.22934954520315, -163.1288262172602, 0.144000006839633, 0.12800000607967377, 1.0240000486373901, 0.0, 0.0, 0.0, 0.0, 0.0, 1.6518372882508245E9, 0.0, 2022-05-06 12:41:28.250
53.0, -246.19761408306658, -166.3058712296188, -180.25943796429783, -198.69153489591554, 0.144000006839633, 0.12800000607967377, 1.0240000486373901, 0.0, 0.0, 0.0, 0.0, 0.0, 1.6518372882508245E9, 0.0, 2022-05-06 12:41:28.250
54.0, -312.51352009736, -279.41166558954865, -268.77539011556655, -248.96327010029927, 0.144000006839633, 0.12800000607967377, 1.0240000486373901, 0.0, 0.0, 0.0, 0.0, 0.0, 1.6518372882517765E9, 0.0, 2022-05-06 12:41:28.251
54.0, -278.8805997958407, -163.49346646293998, -205.49628286529332, -210.8948284513317, 0.144000006839633, 0.12800000607967377, 1.0240000486373901, 0.0, 0.0, 0.0, 0.0, 0.0, 1.6518372882517765E9, 0.0, 2022-05-06 12:41:28.251
55.0, -193.18827211111784, -42.39550589770079, -118.51742959581316, -146.4974911143072, 0.144000006839633, 0.12800000607967377, 1.0240000486373901, 0.0, 0.0, 0.0, 0.0, 0.0, 1.6518372882658153E9, 0.0, 2022-05-06 12:41:28.265
55.0, -253.20618660002947, -175.06471692584455, -181.0485568549484, -188.8817773121409, 0.144000006839633, 0.12800000607967377, 1.0240000486373901, 0.0, 0.0, 0.0, 0.0, 0.0, 1.6518372882658153E9, 0.0, 2022-05-06 12:41:28.265
56.0, -305.8527582762763, -264.4894647663459, -242.95886072143912, -215.47994579700753, 0.144000006839633, 0.12800000607967377, 1.0240000486373901, 0.0, 0.0, 0.0, 0.0, 0.0, 1.6518372882808664E9, 0.0, 2022-05-06 12:41:28.280
56.0, -259.7584913223982, -152.08677159808576, -189.21275845821947, -187.91314322361723, 0.144000006839633, 0.12800000607967377, 1.0240000486373901, 0.0, 0.0, 0.0, 0.0, 0.0, 1.6518372882808664E9, 0.0, 2022-05-06 12:41:28.280
57.0, -219.71912239678204, -48.510242325253785, -121.81228145677596, -156.04171580122784, 0.144000006839633, 0.12800000607967377, 1.0240000486373901, 0.0, 0.0, 0.0, 0.0, 0.0, 1.6518372882818177E9, 0.0, 2022-05-06 12:41:28.281
57.0, -246.43696768023074, -168.00004590954632, -181.88255454506725, -191.93353567598388, 0.144000006839633, 0.12800000607967377, 1.0240000486373901, 0.0, 0.0, 0.0, 0.0, 0.0, 1.6518372882818177E9, 0.0, 2022-05-06 12:41:28.281
58.0, -305.748041077517, -271.9169060783461, -252.20763331186026, -231.99534400133416, 0.144000006839633, 0.12800000607967377, 1.0240000486373901, 0.0, 0.0, 0.0, 0.0, 0.0, 1.6518372882958517E9, 0.0, 2022-05-06 12:41:28.295
58.0, -275.7690030327067, -159.21502091363072, -210.9901959002018, -209.91123476298526, 0.144000006839633, 0.12800000607967377, 1.0240000486373901, 0.0, 0.0, 0.0, 0.0, 0.0, 1.6518372882958517E9, 0.0, 2022-05-06 12:41:28.295
59.0, -207.1006999462843, -48.74959592241794, -119.29906868655235, -158.1996380756609, 0.144000006839633, 0.12800000607967377, 1.0240000486373901, 0.0, 0.0, 0.0, 0.0, 0.0, 1.6518372883108284E9, 0.0, 2022-05-06 12:41:28.310
59.0, -252.6713809063658, -162.97736026905477, -183.78242372255772, -187.41573652951047, 0.144000006839633, 0.12800000607967377, 1.0240000486373901, 0.0, 0.0, 0.0, 0.0, 0.0, 1.6518372883108284E9, 0.0, 2022-05-06 12:41:28.310
60.0, -306.94480906333774, -273.1735124634579, -258.88335473276675, -236.0157364537008, 0.144000006839633, 0.12800000607967377, 1.0240000486373901, 0.0, 0.0, 0.0, 0.0, 0.0, 1.65183728831178E9, 0.0, 2022-05-06 12:41:28.311
60.0, -274.8041088441387, -162.09100397955626, -200.69799122214317, -193.46315475786105, 0.144000006839633, 0.12800000607967377, 1.0240000486373901, 0.0, 0.0, 0.0, 0.0, 0.0, 1.65183728831178E9, 0.0, 2022-05-06 12:41:28.311
61.0, -205.2419696683064, -52.575513577088714, -125.60080011188984, -153.28914943384007, 0.144000006839633, 0.12800000607967377, 1.0240000486373901, 0.0, 0.0, 0.0, 0.0, 0.0, 1.6518372883258536E9, 0.0, 2022-05-06 12:41:28.325
61.0, -246.60900307819247, -172.2298727594316, -192.33931482117623, -200.42684847535565, 0.144000006839633, 0.12800000607967377, 1.0240000486373901, 0.0, 0.0, 0.0, 0.0, 0.0, 1.6518372883258536E9, 0.0, 2022-05-06 12:41:28.325
62.0, -313.6654092837125, -277.0256094178185, -252.05429741367698, -242.93455137172714, 0.144000006839633, 0.12800000607967377, 1.0240000486373901, 0.0, 0.0, 0.0, 0.0, 0.0, 1.6518372883408418E9, 0.0, 2022-05-06 12:41:28.340
62.0, -278.6487259985879, -161.50009978655726, -205.9114117603749, -209.43252756865695, 0.144000006839633, 0.12800000607967377, 1.0240000486373901, 0.0, 0.0, 0.0, 0.0, 0.0, 1.6518372883408418E9, 0.0, 2022-05-06 12:41:28.340
63.0, -214.8422928545624, -55.5823931414634, -123.68223143462092, -151.5014772550203, 0.144000006839633, 0.12800000607967377, 1.0240000486373901, 0.0, 0.0, 0.0, 0.0, 0.0, 1.651837288341791E9, 0.0, 2022-05-06 12:41:28.341
63.0, -258.9020542325452, -176.36246221046895, -194.00731020141393, -199.76488618319854, 0.144000006839633, 0.12800000607967377, 1.0240000486373901, 0.0, 0.0, 0.0, 0.0, 0.0, 1.651837288341791E9, 0.0, 2022-05-06 12:41:28.341
64.0, -305.86771787609905, -272.29837587382644, -259.5602766247466, -247.74780261470005, 0.144000006839633, 0.12800000607967377, 1.0240000486373901, 0.0, 0.0, 0.0, 0.0, 0.0, 1.6518372883558762E9, 0.0, 2022-05-06 12:41:28.355
64.0, -282.11561325751245, -163.9646938573569, -217.138591427356, -205.29245831770822, 0.144000006839633, 0.12800000607967377, 1.0240000486373901, 0.0, 0.0, 0.0, 0.0, 0.0, 1.6518372883558762E9, 0.0, 2022-05-06 12:41:28.355
65.0, -201.44223131332546, -43.14722578879446, -110.03159659635276, -145.10250843083486, 0.144000006839633, 0.12800000607967377, 1.0240000486373901, 0.0, 0.0, 0.0, 0.0, 0.0, 1.651837288370877E9, 0.0, 2022-05-06 12:41:28.370
65.0, -238.2278872774914, -163.62436296138912, -183.77494392264634, -187.11654453305528, 0.144000006839633, 0.12800000607967377, 1.0240000486373901, 0.0, 0.0, 0.0, 0.0, 0.0, 1.651837288370877E9, 0.0, 2022-05-06 12:41:28.370
