%OpenBCI Raw EEG Data
%Number of channels = 4
%Sample Rate = 200 Hz
%Board = OpenBCI_GUI$BoardGanglionBLE
Sample Index, EXG Channel 0, EXG Channel 1, EXG Channel 2, EXG Channel 3, Accel Channel 0, Accel Channel 1, Accel Channel 2, Other, Other, Other, Other, Other, Timestamp, Other, Timestamp (Formatted)
16.0, 41.55776830762625, 114.90094633866102, 66.02793371770531, 59.64766439329833, 0.0, 0.0, 0.0, 0.0, 0.0, 0.0, 0.0, 0.0, 1.651837372608616E9, 0.0, 2022-05-06 12:42:52.608
16.0, -194.82073844177648, 258.8534355331212, 249.5635240431875, 241.13004964310676, 0.0, 0.0, 0.0, 0.0, 0.0, 0.0, 0.0, 0.0, 1.651837372608616E9, 0.0, 2022-05-06 12:42:52.608
0.0, -268.79595956532285, -157.99394357809797, -203.36827979050577, -201.46280076308176, 0.0, 0.0, 0.0, 0.0, 0.0, 0.0, 0.0, 0.0, 1.651837372629592E9, 0.0, 2022-05-06 12:42:52.629
1.0, -207.4092416926287, -51.57509033894166, -119.2766292868182, -142.07692936668172, 0.0, 0.11200000531971455, 0.0, 0.0, 0.0, 0.0, 0.0, 0.0, 1.6518373726416473E9, 0.0, 2022-05-06 12:42:52.641
1.0, -238.1736587281339, -162.51548262452707, -167.49889931548387, -186.61913783894852, 0.0, 0.11200000531971455, 0.0, 0.0, 0.0, 0.0, 0.0, 0.0, 1.6518373726416473E9, 0.0, 2022-05-06 12:42:52.641
2.0, -303.2815770567395, -265.94241589913145, -245.87972258683294, -235.2827160623856, 0.12800000607967377, 0.11200000531971455, 0.0, 0.0, 0.0, 0.0, 0.0, 0.0, 1.6518373726755798E9, 0.0, 2022-05-06 12:42:52.675
2.0, -279.87728313403204, -159.89007285563275, -201.99199660681188, -190.5909115918912, 0.12800000607967377, 0.11200000531971455, 0.0, 0.0, 0.0, 0.0, 0.0, 0.0, 1.6518373726755798E9, 0.0, 2022-05-06 12:42:52.675
3.0, -216.9347668797709, -61.149234225507826, -137.27302787359804, -153.85761422710493, 0.12800000607967377, 0.11200000531971455, 0.0, 0.0, 0.0, 0.0, 0.0, 0.0, 1.65183737267658E9, 0.0, 2022-05-06 12:42:52.676
3.0, -242.18283148063347, -165.79537488566712, -174.65332793071866, -199.71252758381888, 0.12800000607967377, 0.11200000531971455, 0.0, 0.0, 0.0, 0.0, 0.0, 0.0, 1.65183737267658E9, 0.0, 2022-05-06 12:42:52.676
4.0, -315.00242351787165, -270.9725813395344, -270.0469561005011, -255.50061522284523, 0.12800000607967377, 0.11200000531971455, 0.0, 0.0, 0.0, 0.0, 0.0, 0.0, 1.6518373726776707E9, 0.0, 2022-05-06 12:42:52.677
4.0, -283.23945319419727, -166.11326638190076, -206.22556335665286, -205.7038473128341, 0.12800000607967377, 0.11200000531971455, 0.0, 0.0, 0.0, 0.0, 0.0, 0.0, 1.6518373726776707E9, 0.0, 2022-05-06 12:42:52.677
5.0, -204.84367032302544, -54.697906801942736, -120.78380896896124, -148.98826448479667, 0.12800000607967377, 0.11200000531971455, 0.0, 0.0, 0.0, 0.0, 0.0, 0.0, 1.6518373726877203E9, 0.0, 2022-05-06 12:42:52.687
5.0, -236.5393224474974, -155.58170810667798, -171.3435164699331, -184.9922813582234, 0.12800000607967377, 0.11200000531971455, 0.0, 0.0, 0.0, 0.0, 0.0, 0.0, 1.6518373726877203E9, 0.0, 2022-05-06 12:42:52.687
6.0, -292.0843165894039, -263.1412308323197, -250.79395112860948, -225.4205998792313, 0.12800000607967377, 0.11200000531971455, 0.0, 0.0, 0.0, 0.0, 0.0, 0.0, 1.6518373726885872E9, 0.0, 2022-05-06 12:42:52.688
6.0, -284.4212615801953, -157.80694858031347, -208.78365492634475, -202.65208894899115, 0.12800000607967377, 0.11200000531971455, 0.0, 0.0, 0.0, 0.0, 0.0, 0.0, 1.6518373726885872E9, 0.0, 2022-05-06 12:42:52.688
7.0, -222.43989961454645, -67.37242775177583, -138.83256615512073, -161.0943206413649, 0.12800000607967377, 0.11200000531971455, 0.0, 0.0, 0.0, 0.0, 0.0, 0.0, 1.651837372701709E9, 0.0, 2022-05-06 12:42:52.701
7.0, -250.6948437797837, -169.0266484473832, -181.1570139536634, -200.10147717921063, 0.12800000607967377, 0.11200000531971455, 0.0, 0.0, 0.0, 0.0, 0.0, 0.0, 1.651837372701709E9, 0.0, 2022-05-06 12:42:52.701
8.0, -312.2685566502623, -273.6615694076754, -262.7242319872603, -244.6137664518319, 0.12800000607967377, 0.11200000531971455, 0.0, 0.0, 0.0, 0.0, 0.0, 0.0, 1.651837372717644E9, 0.0, 2022-05-06 12:42:52.717
8.0, -279.9633008330129, -169.79706783825532, -209.3222005199641, -200.35579037619755, 0.12800000607967377, 0.11200000531971455, 0.0, 0.0, 0.0, 0.0, 0.0, 0.0, 1.651837372717644E9, 0.0, 2022-05-06 12:42:52.717
9.0, -210.6779142539017, -57.85064246458933, -133.60044611711055, -160.07332795346156, 0.12800000607967377, 0.11200000531971455, 0.0, 0.0, 0.0, 0.0, 0.0, 0.0, 1.6518373727185988E9, 0.0, 2022-05-06 12:42:52.718
9.0, -241.3899726900272, -164.11989970551804, -168.54607130307704, -173.10687929904088, 0.12800000607967377, 0.11200000531971455, 0.0, 0.0, 0.0, 0.0, 0.0, 0.0, 1.6518373727185988E9, 0.0, 2022-05-06 12:42:52.718
10.0, -311.3522811611183, -270.68086914299056, -258.62530163582414, -229.37367413239554, 0.12800000607967377, 0.11200000531971455, 1.0240000486373901, 0.0, 0.0, 0.0, 0.0, 0.0, 1.651837372731702E9, 0.0, 2022-05-06 12:42:52.731
10.0, -275.3744435873814, -156.5054633957334, -199.60594043508172, -191.630603779573, 0.12800000607967377, 0.11200000531971455, 1.0240000486373901, 0.0, 0.0, 0.0, 0.0, 0.0, 1.651837372731702E9, 0.0, 2022-05-06 12:42:52.731
11.0, -198.2951055006124, -47.517298887018114, -114.0183299491182, -142.91466695675626, 0.12800000607967377, 0.06400000303983688, 1.0240000486373901, 0.0, 0.0, 0.0, 0.0, 0.0, 1.6518373727476957E9, 0.0, 2022-05-06 12:42:52.747
11.0, -258.71692918473855, -178.6980297327973, -196.52052297163755, -224.40708699123934, 0.12800000607967377, 0.06400000303983688, 1.0240000486373901, 0.0, 0.0, 0.0, 0.0, 0.0, 1.6518373727476957E9, 0.0, 2022-05-06 12:42:52.747
12.0, -310.5332430708222, -273.56807190878317, -260.9402997083962, -259.5883258744143, 0.06400000303983688, 0.06400000303983688, 1.0240000486373901, 0.0, 0.0, 0.0, 0.0, 0.0, 1.6518373727485733E9, 0.0, 2022-05-06 12:42:52.748
12.0, -273.003347015474, -156.6887184935622, -199.2843090388924, -197.3002921123989, 0.06400000303983688, 0.06400000303983688, 1.0240000486373901, 0.0, 0.0, 0.0, 0.0, 0.0, 1.6518373727485733E9, 0.0, 2022-05-06 12:42:52.748
13.0, -201.4852401628159, -55.991912186611444, -117.67595210578293, -132.9702729745768, 0.06400000303983688, 0.06400000303983688, 1.0240000486373901, 0.0, 0.0, 0.0, 0.0, 0.0, 1.6518373727617056E9, 0.0, 2022-05-06 12:42:52.761
13.0, -252.3927583596669, -193.10412436211482, -200.73165032174438, -200.8157980707474, 0.06400000303983688, 0.06400000303983688, 1.0240000486373901, 0.0, 0.0, 0.0, 0.0, 0.0, 1.6518373727617056E9, 0.0, 2022-05-06 12:42:52.761
14.0, -311.40837966045365, -264.693289313931, -250.87248902767897, -237.3920196373947, 0.06400000303983688, 0.06400000303983688, 1.0240000486373901, 0.0, 0.0, 0.0, 0.0, 0.0, 1.6518373727776232E9, 0.0, 2022-05-06 12:42:52.777
14.0, -253.15569795062765, -117.36741035943851, -177.2375988001004, -180.2500882144086, 0.06400000303983688, 0.06400000303983688, 1.0240000486373901, 0.0, 0.0, 0.0, 0.0, 0.0, 1.6518373727776232E9, 0.0, 2022-05-06 12:42:52.777
15.0, -200.80083847092465, -43.878376230131835, -107.99335112050176, -139.32810289924964, 0.06400000303983688, 0.06400000303983688, 1.0240000486373901, 0.0, 0.0, 0.0, 0.0, 0.0, 1.6518373727786024E9, 0.0, 2022-05-06 12:42:52.778
15.0, -263.0626929332502, -212.70120012992993, -209.56155411712825, -215.16953410068527, 0.06400000303983688, 0.06400000303983688, 1.0240000486373901, 0.0, 0.0, 0.0, 0.0, 0.0, 1.6518373727786024E9, 0.0, 2022-05-06 12:42:52.778
16.0, -331.31212722463533, -285.7788452641107, -270.95575178973377, -250.27223508479074, 0.06400000303983688, 0.06400000303983688, 1.0240000486373901, 0.0, 0.0, 0.0, 0.0, 0.0, 1.651837372791689E9, 0.0, 2022-05-06 12:42:52.791
16.0, -260.6541973617859, -131.0105653977953, -197.47045756038278, -194.19243524922058, 0.06400000303983688, 0.06400000303983688, 1.0240000486373901, 0.0, 0.0, 0.0, 0.0, 0.0, 1.651837372791689E9, 0.0, 2022-05-06 12:42:52.791
17.0, -187.5840320275165, -39.498953382018954, -112.9786377614364, -133.23580587143078, 0.06400000303983688, 0.06400000303983688, 1.0240000486373901, 0.0, 0.0, 0.0, 0.0, 0.0, 1.651837372807727E9, 0.0, 2022-05-06 12:42:52.807
17.0, -267.69642897835, -201.17482846649364, -201.56938791181892, -208.23575958283618, 0.06400000303983688, 0.06400000303983688, 1.0240000486373901, 0.0, 0.0, 0.0, 0.0, 0.0, 1.651837372807727E9, 0.0, 2022-05-06 12:42:52.807
18.0, -330.2125966376625, -286.69138085329905, -269.9459788016975, -264.9513424108736, 0.06400000303983688, 0.06400000303983688, 1.0240000486373901, 0.0, 0.0, 0.0, 0.0, 0.0, 1.6518373728087103E9, 0.0, 2022-05-06 12:42:52.808
18.0, -269.1362904612906, -136.07438993779942, -184.5341436136514, -190.01496699871495, 0.06400000303983688, 0.06400000303983688, 1.0240000486373901, 0.0, 0.0, 0.0, 0.0, 0.0, 1.6518373728087103E9, 0.0, 2022-05-06 12:42:52.808
19.0, -200.6288030729629, -46.0026394049637, -110.55144269019365, -137.13652152521536, 0.06400000303983688, 0.06400000303983688, 1.0240000486373901, 0.0, 0.0, 0.0, 0.0, 0.0, 1.6518373728216393E9, 0.0, 2022-05-06 12:42:52.821
19.0, -274.57784489681944, -212.7086799298413, -214.026994664222, -229.70652522845194, 0.06400000303983688, 0.06400000303983688, 1.0240000486373901, 0.0, 0.0, 0.0, 0.0, 0.0, 1.6518373728216393E9, 0.0, 2022-05-06 12:42:52.821
20.0, -318.15141928056255, -271.05111923860386, -258.25879144016653, -239.10115391714498, 0.06400000303983688, 0.06400000303983688, 0.5120000243186951, 0.0, 0.0, 0.0, 0.0, 0.0, 1.651837372837706E9, 0.0, 2022-05-06 12:42:52.837
20.0, -248.82489380193874, -110.00728724664077, -171.42205436900258, -160.2790224510245, 0.06400000303983688, 0.06400000303983688, 0.5120000243186951, 0.0, 0.0, 0.0, 0.0, 0.0, 1.651837372837706E9, 0.0, 2022-05-06 12:42:52.837
21.0, -196.42141562281176, -40.34791067196056, -116.74845691677183, -148.2776834932156, 0.06400000303983688, 0.0800000037997961, 0.5120000243186951, 0.0, 0.0, 0.0, 0.0, 0.0, 1.651837372838654E9, 0.0, 2022-05-06 12:42:52.838
21.0, -260.90103075886145, -206.84077689936385, -204.22845678031445, -210.40116165718064, 0.06400000303983688, 0.0800000037997961, 0.5120000243186951, 0.0, 0.0, 0.0, 0.0, 0.0, 1.651837372838654E9, 0.0, 2022-05-06 12:42:52.838
22.0, -317.6465327865444, -269.4429622576572, -268.44627891946584, -248.63041900424287, 0.11200000531971455, 0.0800000037997961, 0.5120000243186951, 0.0, 0.0, 0.0, 0.0, 0.0, 1.6518373728517067E9, 0.0, 2022-05-06 12:42:52.851
22.0, -246.15834513353184, -118.00693325186148, -176.24652531184256, -184.98854145826772, 0.11200000531971455, 0.0800000037997961, 0.5120000243186951, 0.0, 0.0, 0.0, 0.0, 0.0, 1.6518373728517067E9, 0.0, 2022-05-06 12:42:52.851
23.0, -199.38341638771817, -43.27999223722145, -108.04570971988142, -140.4912117854692, 0.11200000531971455, 0.0800000037997961, 0.5120000243186951, 0.0, 0.0, 0.0, 0.0, 0.0, 1.6518373728676312E9, 0.0, 2022-05-06 12:42:52.867
23.0, -261.7013693493791, -203.61324323760346, -199.82285463251173, -206.84077689936385, 0.11200000531971455, 0.0800000037997961, 0.5120000243186951, 0.0, 0.0, 0.0, 0.0, 0.0, 1.6518373728676312E9, 0.0, 2022-05-06 12:42:52.867
24.0, -322.51962242880836, -273.3324582115747, -265.7498110514134, -245.22337014460936, 0.11200000531971455, 0.0800000037997961, 0.5120000243186951, 0.0, 0.0, 0.0, 0.0, 0.0, 1.6518373728686411E9, 0.0, 2022-05-06 12:42:52.868
24.0, -246.3229007315822, -110.91234303591773, -167.42410131637007, -155.29747571004555, 0.11200000531971455, 0.0800000037997961, 0.5120000243186951, 0.0, 0.0, 0.0, 0.0, 0.0, 1.6518373728686411E9, 0.0, 2022-05-06 12:42:52.868
25.0, -187.7411078256555, -37.53550590528175, -113.23295095842332, -140.04242379078642, 0.11200000531971455, 0.0800000037997961, 0.5120000243186951, 0.0, 0.0, 0.0, 0.0, 0.0, 1.6518373728816795E9, 0.0, 2022-05-06 12:42:52.881
25.0, -252.22446286166087, -201.64605586091056, -196.6850785696879, -206.19751410698518, 0.11200000531971455, 0.0800000037997961, 0.5120000243186951, 0.0, 0.0, 0.0, 0.0, 0.0, 1.6518373728816795E9, 0.0, 2022-05-06 12:42:52.881
26.0, -314.576074922923, -268.97921466315165, -258.711319334805, -251.92153096524999, 0.11200000531971455, 0.0800000037997961, 0.5120000243186951, 0.0, 0.0, 0.0, 0.0, 0.0, 1.651837372897666E9, 0.0, 2022-05-06 12:42:52.897
26.0, -264.23328161938116, -112.93936881190166, -167.73077311273664, -176.79442065535113, 0.11200000531971455, 0.0800000037997961, 0.5120000243186951, 0.0, 0.0, 0.0, 0.0, 0.0, 1.651837372897666E9, 0.0, 2022-05-06 12:42:52.897
27.0, -202.12476305523887, -51.892981835175306, -122.54530184809119, -136.8261098288931, 0.11200000531971455, 0.0800000037997961, 0.5120000243186951, 0.0, 0.0, 0.0, 0.0, 0.0, 1.6518373728985903E9, 0.0, 2022-05-06 12:42:52.898
27.0, -264.9999611102976, -210.83499005204067, -206.34524015523493, -221.082315930631, 0.11200000531971455, 0.0800000037997961, 0.5120000243186951, 0.0, 0.0, 0.0, 0.0, 0.0, 1.6518373728985903E9, 0.0, 2022-05-06 12:42:52.898
28.0, -317.63905298663303, -272.8238318176009, -263.84620197396725, -250.74346247920766, 0.11200000531971455, 0.0800000037997961, 0.5120000243186951, 0.0, 0.0, 0.0, 0.0, 0.0, 1.651837372911692E9, 0.0, 2022-05-06 12:42:52.911
28.0, -255.1041858275421, -122.13952270289883, -181.40384735073894, -183.91145027102903, 0.11200000531971455, 0.0800000037997961, 0.5120000243186951, 0.0, 0.0, 0.0, 0.0, 0.0, 1.651837372911692E9, 0.0, 2022-05-06 12:42:52.911
29.0, -197.4124891110696, -54.60440930305049, -119.41126568522304, -159.97609055461362, 0.11200000531971455, 0.0800000037997961, 0.5120000243186951, 0.0, 0.0, 0.0, 0.0, 0.0, 1.6518373729276445E9, 0.0, 2022-05-06 12:42:52.927
29.0, -274.4843473979272, -213.3369831223972, -207.8374602375552, -218.7149592586793, 0.11200000531971455, 0.0800000037997961, 0.5120000243186951, 0.0, 0.0, 0.0, 0.0, 0.0, 1.6518373729276445E9, 0.0, 2022-05-06 12:42:52.927
30.0, -329.5132353459485, -289.0475178253837, -267.7880565272644, -250.70232357969508, 0.11200000531971455, 0.0800000037997961, 0.7680000364780426, 0.0, 0.0, 0.0, 0.0, 0.0, 1.651837372928658E9, 0.0, 2022-05-06 12:42:52.928
30.0, -259.52474757516757, -122.32277780072764, -179.39178117457777, -170.78066152660176, 0.11200000531971455, 0.0800000037997961, 0.7680000364780426, 0.0, 0.0, 0.0, 0.0, 0.0, 1.651837372928658E9, 0.0, 2022-05-06 12:42:52.928
31.0, -192.38232367066666, -51.35817614151165, -109.48557120282203, -137.6750671188347, 0.11200000531971455, 0.11200000531971455, 0.7680000364780426, 0.0, 0.0, 0.0, 0.0, 0.0, 1.651837372941636E9, 0.0, 2022-05-06 12:42:52.941
31.0, -260.6878564613871, -214.7469254056923, -201.2440166156739, -204.21536713046953, 0.11200000531971455, 0.11200000531971455, 0.7680000364780426, 0.0, 0.0, 0.0, 0.0, 0.0, 1.651837372941636E9, 0.0, 2022-05-06 12:42:52.941
32.0, -320.6197532513179, -274.65264289593324, -271.6812923811376, -256.52908771065995, 0.12800000607967377, 0.11200000531971455, 0.7680000364780426, 0.0, 0.0, 0.0, 0.0, 0.0, 1.6518373729577122E9, 0.0, 2022-05-06 12:42:52.957
32.0, -240.282962303143, -107.21358197974041, -171.10790277272463, -171.9886492122896, 0.12800000607967377, 0.11200000531971455, 0.7680000364780426, 0.0, 0.0, 0.0, 0.0, 0.0, 1.6518373729577122E9, 0.0, 2022-05-06 12:42:52.957
33.0, -189.73073460208252, -36.89224311290309, -101.91601369250566, -123.42978818761185, 0.12800000607967377, 0.11200000531971455, 0.7680000364780426, 0.0, 0.0, 0.0, 0.0, 0.0, 1.6518373729586542E9, 0.0, 2022-05-06 12:42:52.958
33.0, -270.53127314476296, -217.26387807587162, -212.00744868814945, -219.21236595278606, 0.12800000607967377, 0.11200000531971455, 0.7680000364780426, 0.0, 0.0, 0.0, 0.0, 0.0, 1.6518373729586542E9, 0.0, 2022-05-06 12:42:52.958
34.0, -312.66872594552115, -262.3969907411374, -255.61094227153808, -234.69181186938658, 0.12800000607967377, 0.11200000531971455, 0.7680000364780426, 0.0, 0.0, 0.0, 0.0, 0.0, 1.651837372971706E9, 0.0, 2022-05-06 12:42:52.971
34.0, -242.38104617828503, -110.1456635450013, -177.42833369784057, -180.53432061104104, 0.12800000607967377, 0.11200000531971455, 0.7680000364780426, 0.0, 0.0, 0.0, 0.0, 0.0, 1.651837372971706E9, 0.0, 2022-05-06 12:42:52.971
35.0, -169.04534794716164, -26.607518234755844, -94.73540577758104, -128.90874162269756, 0.12800000607967377, 0.11200000531971455, 0.7680000364780426, 0.0, 0.0, 0.0, 0.0, 0.0, 1.651837372987687E9, 0.0, 2022-05-06 12:42:52.987
35.0, -269.5551592563279, -208.4526737802662, -208.04689463507384, -213.98772571468726, 0.12800000607967377, 0.11200000531971455, 0.7680000364780426, 0.0, 0.0, 0.0, 0.0, 0.0, 1.651837372987687E9, 0.0, 2022-05-06 12:42:52.987
36.0, -325.34324689535424, -281.6312962132506, -264.4857248663902, -253.33147324854508, 0.12800000607967377, 0.11200000531971455, 0.7680000364780426, 0.0, 0.0, 0.0, 0.0, 0.0, 1.6518373729885771E9, 0.0, 2022-05-06 12:42:52.988
36.0, -259.6631238735281, -122.97726029297337, -171.71750646550208, -180.2874872139655, 0.12800000607967377, 0.11200000531971455, 0.7680000364780426, 0.0, 0.0, 0.0, 0.0, 0.0, 1.6518373729885771E9, 0.0, 2022-05-06 12:42:52.988
37.0, -197.06841831514612, -49.33489026548341, -114.60549424216151, -136.5231779324822, 0.12800000607967377, 0.11200000531971455, 0.7680000364780426, 0.0, 0.0, 0.0, 0.0, 0.0, 1.6518373730017216E9, 0.0, 2022-05-06 12:42:53.001
37.0, -274.667602495756, -215.4163674977608, -200.615713423118, -213.59503621933982, 0.12800000607967377, 0.11200000531971455, 0.7680000364780426, 0.0, 0.0, 0.0, 0.0, 0.0, 1.6518373730017216E9, 0.0, 2022-05-06 12:42:53.001
38.0, -306.55398951796815, -264.9326429110952, -250.0422312375158, -241.32639439078048, 0.12800000607967377, 0.11200000531971455, 0.7680000364780426, 0.0, 0.0, 0.0, 0.0, 0.0, 1.6518373730176585E9, 0.0, 2022-05-06 12:42:53.017
38.0, -235.38369336118922, -100.51542115909979, -157.92101552896202, -159.018676165957, 0.12800000607967377, 0.11200000531971455, 0.7680000364780426, 0.0, 0.0, 0.0, 0.0, 0.0, 1.6518373730176585E9, 0.0, 2022-05-06 12:42:53.017
39.0, -182.53516708733514, -34.55106574064121, -103.35961507540196, -130.84974969970062, 0.12800000607967377, 0.11200000531971455, 0.7680000364780426, 0.0, 0.0, 0.0, 0.0, 0.0, 1.6518373730186818E9, 0.0, 2022-05-06 12:42:53.018
39.0, -267.53935318021104, -208.22079998301342, -200.90368571970612, -214.85538250440732, 0.12800000607967377, 0.11200000531971455, 0.7680000364780426, 0.0, 0.0, 0.0, 0.0, 0.0, 1.6518373730186818E9, 0.0, 2022-05-06 12:42:53.018
40.0, -313.77573633240536, -269.89175025234, -253.84196959249675, -239.6546591105871, 0.12800000607967377, 0.11200000531971455, 0.9600000455975533, 0.0, 0.0, 0.0, 0.0, 0.0, 1.6518373730316436E9, 0.0, 2022-05-06 12:42:53.031
40.0, -250.82574027823284, -118.42954194685444, -171.58660996705294, -175.63879156904295, 0.12800000607967377, 0.11200000531971455, 0.9600000455975533, 0.0, 0.0, 0.0, 0.0, 0.0, 1.6518373730316436E9, 0.0, 2022-05-06 12:42:53.031
41.0, -198.12307010265067, -50.655074949841946, -110.80201598722488, -137.99669851502404, 0.12800000607967377, 0.11200000531971455, 0.9600000455975533, 0.0, 0.0, 0.0, 0.0, 0.0, 1.6518373730476549E9, 0.0, 2022-05-06 12:42:53.047
41.0, -259.7678410722874, -211.05938404938206, -207.49712934158742, -211.88964183954522, 0.12800000607967377, 0.11200000531971455, 0.9600000455975533, 0.0, 0.0, 0.0, 0.0, 0.0, 1.6518373730476549E9, 0.0, 2022-05-06 12:42:53.047
42.0, -311.52431655908003, -274.6264635962434, -263.5395301776007, -258.60473218606785, 0.12800000607967377, 0.11200000531971455, 0.9600000455975533, 0.0, 0.0, 0.0, 0.0, 0.0, 1.6518373730486596E9, 0.0, 2022-05-06 12:42:53.048
42.0, -247.5832470166497, -110.61315103946254, -165.55415133852512, -172.60199280502275, 0.12800000607967377, 0.11200000531971455, 0.9600000455975533, 0.0, 0.0, 0.0, 0.0, 0.0, 1.6518373730486596E9, 0.0, 2022-05-06 12:42:53.048
43.0, -199.90326248155907, -45.32945741293952, -106.24681784119457, -130.31494400603697, 0.12800000607967377, 0.11200000531971455, 0.9600000455975533, 0.0, 0.0, 0.0, 0.0, 0.0, 1.6518373730616915E9, 0.0, 2022-05-06 12:42:53.061
43.0, -255.2463020258583, -196.3727969233878, -194.9422851903364, -198.02957260375842, 0.12800000607967377, 0.11200000531971455, 0.9600000455975533, 0.0, 0.0, 0.0, 0.0, 0.0, 1.6518373730616915E9, 0.0, 2022-05-06 12:42:53.061
44.0, -307.5413231062703, -260.20166946714744, -249.76547864079475, -236.89835284324363, 0.12800000607967377, 0.11200000531971455, 0.9600000455975533, 0.0, 0.0, 0.0, 0.0, 0.0, 1.6518373730776944E9, 0.0, 2022-05-06 12:42:53.077
44.0, -230.52182341879234, -96.86153890239075, -144.90616368316114, -155.7238243049942, 0.12800000607967377, 0.11200000531971455, 0.9600000455975533, 0.0, 0.0, 0.0, 0.0, 0.0, 1.6518373730776944E9, 0.0, 2022-05-06 12:42:53.077
45.0, -195.08253143867478, -47.4125816882588, -116.99529031384736, -150.52162346662953, 0.12800000607967377, 0.11200000531971455, 0.9600000455975533, 0.0, 0.0, 0.0, 0.0, 0.0, 1.6518373730786448E9, 0.0, 2022-05-06 12:42:53.078
45.0, -257.19105000281706, -208.2245398829691, -202.38094620220363, -211.88964183954522, 0.12800000607967377, 0.11200000531971455, 0.9600000455975533, 0.0, 0.0, 0.0, 0.0, 0.0, 1.6518373730786448E9, 0.0, 2022-05-06 12:42:53.078
46.0, -316.7639163970016, -269.87305075256154, -250.46857983246446, -241.92851828364655, 0.12800000607967377, 0.11200000531971455, 0.9600000455975533, 0.0, 0.0, 0.0, 0.0, 0.0, 1.6518373730916429E9, 0.0, 2022-05-06 12:42:53.091
46.0, -237.14892614027485, -102.27691403822973, -161.60107708536088, -155.3124353098683, 0.12800000607967377, 0.11200000531971455, 0.9600000455975533, 0.0, 0.0, 0.0, 0.0, 0.0, 1.6518373730916429E9, 0.0, 2022-05-06 12:42:53.091
47.0, -191.11823748564348, -40.85653706593439, -107.94847232103348, -125.87942265858874, 0.12800000607967377, 0.11200000531971455, 0.9600000455975533, 0.0, 0.0, 0.0, 0.0, 0.0, 1.6518373731077063E9, 0.0, 2022-05-06 12:42:53.107
47.0, -269.3382450588979, -215.4575063972734, -209.4007384190336, -219.26472455216572, 0.12800000607967377, 0.11200000531971455, 0.9600000455975533, 0.0, 0.0, 0.0, 0.0, 0.0, 1.6518373731077063E9, 0.0, 2022-05-06 12:42:53.107
48.0, -302.66449356405064, -266.05087299784645, -257.6491877473891, -246.7305498267524, 0.12800000607967377, 0.11200000531971455, 0.9600000455975533, 0.0, 0.0, 0.0, 0.0, 0.0, 1.651837373108648E9, 0.0, 2022-05-06 12:42:53.108
48.0, -248.67529780371115, -115.76299327844754, -173.05639064963907, -183.2569677787833, 0.12800000607967377, 0.11200000531971455, 0.9600000455975533, 0.0, 0.0, 0.0, 0.0, 0.0, 1.651837373108648E9, 0.0, 2022-05-06 12:42:53.108
49.0, -205.88336251070723, -41.71671405574307, -106.13088094256818, -130.13168890820816, 0.12800000607967377, 0.11200000531971455, 0.9600000455975533, 0.0, 0.0, 0.0, 0.0, 0.0, 1.651837373121632E9, 0.0, 2022-05-06 12:42:53.121
49.0, -262.57650593901053, -202.7418465479277, -198.74950334522873, -200.8531970703043, 0.12800000607967377, 0.11200000531971455, 0.9600000455975533, 0.0, 0.0, 0.0, 0.0, 0.0, 1.651837373121632E9, 0.0, 2022-05-06 12:42:53.121
50.0, -313.11003414029256, -267.86846437631175, -260.5214309133589, -249.97304308833554, 0.12800000607967377, 0.11200000531971455, 0.9920000471174717, 0.0, 0.0, 0.0, 0.0, 0.0, 1.65183737313771E9, 0.0, 2022-05-06 12:42:53.137
50.0, -259.0946590802632, -121.81041150679812, -178.74103858228773, -184.60333176283166, 0.12800000607967377, 0.11200000531971455, 0.9920000471174717, 0.0, 0.0, 0.0, 0.0, 0.0, 1.65183737313771E9, 0.0, 2022-05-06 12:42:53.137
51.0, -208.66210817778483, -66.98347815638408, -132.96466312464327, -157.85182737978175, 0.12800000607967377, 0.11200000531971455, 0.9920000471174717, 0.0, 0.0, 0.0, 0.0, 0.0, 1.6518373731387088E9, 0.0, 2022-05-06 12:42:53.138
51.0, -263.64985722629353, -196.83280461793765, -201.95833750721067, -216.0110115907155, 0.12800000607967377, 0.11200000531971455, 0.9920000471174717, 0.0, 0.0, 0.0, 0.0, 0.0, 1.6518373731387088E9, 0.0, 2022-05-06 12:42:53.138
52.0, -319.9203919596039, -277.1209768666886, -272.9341588662937, -252.67325085634366, 0.12800000607967377, 0.11200000531971455, 0.9920000471174717, 0.0, 0.0, 0.0, 0.0, 0.0, 1.6518373731516888E9, 0.0, 2022-05-06 12:42:53.151
52.0, -262.22121544322, -129.60810291441157, -173.55753724370152, -178.73916863230988, 0.12800000607967377, 0.11200000531971455, 0.9920000471174717, 0.0, 0.0, 0.0, 0.0, 0.0, 1.6518373731516888E9, 0.0, 2022-05-06 12:42:53.151
53.0, -197.45736791053787, -53.28048471873626, -113.3152287574485, -132.1923737837933, 0.12800000607967377, 0.11200000531971455, 0.9920000471174717, 0.0, 0.0, 0.0, 0.0, 0.0, 1.6518373731678536E9, 0.0, 2022-05-06 12:42:53.167
53.0, -254.0607537399046, -191.64930327935144, -192.70956491678953, -207.70095388917252, 0.12800000607967377, 0.11200000531971455, 0.9920000471174717, 0.0, 0.0, 0.0, 0.0, 0.0, 1.6518373731678536E9, 0.0, 2022-05-06 12:42:53.167
54.0, -312.6575062456541, -267.3336586826481, -255.8241165690124, -237.33966103801504, 0.12800000607967377, 0.11200000531971455, 0.9920000471174717, 0.0, 0.0, 0.0, 0.0, 0.0, 1.6518373731686006E9, 0.0, 2022-05-06 12:42:53.168
54.0, -268.42944936966524, -144.65372043615207, -194.36260069720447, -191.28653298364952, 0.12800000607967377, 0.11200000531971455, 0.9920000471174717, 0.0, 0.0, 0.0, 0.0, 0.0, 1.6518373731686006E9, 0.0, 2022-05-06 12:42:53.168
55.0, -201.62735636113212, -53.72179291350767, -119.79273548070341, -147.04351650783792, 0.12800000607967377, 0.11200000531971455, 0.9920000471174717, 0.0, 0.0, 0.0, 0.0, 0.0, 1.651837373181656E9, 0.0, 2022-05-06 12:42:53.181
55.0, -256.6936433087103, -195.60611743247136, -192.43281232006848, -198.98324709245935, 0.12800000607967377, 0.11200000531971455, 0.9920000471174717, 0.0, 0.0, 0.0, 0.0, 0.0, 1.651837373181656E9, 0.0, 2022-05-06 12:42:53.181
56.0, -309.25045738602057, -267.23268138384447, -244.2640858059749, -229.018383636605, 0.12800000607967377, 0.11200000531971455, 0.9920000471174717, 0.0, 0.0, 0.0, 0.0, 0.0, 1.6518373731976645E9, 0.0, 2022-05-06 12:42:53.197
56.0, -266.60437819128856, -139.65721409535035, -187.44378577917814, -191.97841447545215, 0.12800000607967377, 0.11200000531971455, 0.9920000471174717, 0.0, 0.0, 0.0, 0.0, 0.0, 1.6518373731976645E9, 0.0, 2022-05-06 12:42:53.197
57.0, -193.42575575830415, -51.64614843809977, -119.93485167901963, -149.15282008284703, 0.12800000607967377, 0.11200000531971455, 0.9920000471174717, 0.0, 0.0, 0.0, 0.0, 0.0, 1.65183737319872E9, 0.0, 2022-05-06 12:42:53.198
57.0, -253.79522084305063, -195.23960723681375, -195.88473997917026, -208.38909548101947, 0.12800000607967377, 0.11200000531971455, 0.9920000471174717, 0.0, 0.0, 0.0, 0.0, 0.0, 1.65183737319872E9, 0.0, 2022-05-06 12:42:53.198
58.0, -318.12150008091703, -261.45079605234787, -255.3080103751272, -248.60797960450873, 0.12800000607967377, 0.11200000531971455, 0.9920000471174717, 0.0, 0.0, 0.0, 0.0, 0.0, 1.6518373732116544E9, 0.0, 2022-05-06 12:42:53.211
58.0, -258.19708309089765, -124.78737187152728, -174.29055763501674, -174.0306345880963, 0.12800000607967377, 0.11200000531971455, 0.9920000471174717, 0.0, 0.0, 0.0, 0.0, 0.0, 1.6518373732116544E9, 0.0, 2022-05-06 12:42:53.211
59.0, -203.3738896404393, -57.45047316933051, -115.78730262815952, -150.87691396242008, 0.12800000607967377, 0.11200000531971455, 0.9920000471174717, 0.0, 0.0, 0.0, 0.0, 0.0, 1.65183737322787E9, 0.0, 2022-05-06 12:42:53.227
59.0, -248.8809923012741, -187.45313552906737, -191.30710243340582, -198.6728353961371, 0.12800000607967377, 0.11200000531971455, 0.9920000471174717, 0.0, 0.0, 0.0, 0.0, 0.0, 1.65183737322787E9, 0.0, 2022-05-06 12:42:53.227
60.0, -321.9062788360752, -267.12422428512946, -273.5362827591598, -247.03348172316328, 0.12800000607967377, 0.11200000531971455, 1.008000047877431, 0.0, 0.0, 0.0, 0.0, 0.0, 1.6518373732286346E9, 0.0, 2022-05-06 12:42:53.228
60.0, -270.6322504435666, -133.98378586256877, -187.99729097262025, -186.35734484205022, 0.12800000607967377, 0.11200000531971455, 1.008000047877431, 0.0, 0.0, 0.0, 0.0, 0.0, 1.6518373732286346E9, 0.0, 2022-05-06 12:42:53.228
61.0, -211.62410894269124, -65.45385907450691, -127.49318948946893, -159.6881182580255, 0.12800000607967377, 0.12800000607967377, 1.008000047877431, 0.0, 0.0, 0.0, 0.0, 0.0, 1.6518373732417047E9, 0.0, 2022-05-06 12:42:53.241
61.0, -272.02349322708324, -221.73679842287675, -214.23268916178495, -221.03369723120704, 0.12800000607967377, 0.12800000607967377, 1.008000047877431, 0.0, 0.0, 0.0, 0.0, 0.0, 1.6518373732417047E9, 0.0, 2022-05-06 12:42:53.241
62.0, -315.3165751141496, -268.16391647281125, -251.87104231584817, -241.52834898838773, 0.12800000607967377, 0.12800000607967377, 1.008000047877431, 0.0, 0.0, 0.0, 0.0, 0.0, 1.651837373257629E9, 0.0, 2022-05-06 12:42:53.257
62.0, -264.60727161495015, -114.43532879417762, -171.9680797625333, -178.22680233838037, 0.12800000607967377, 0.12800000607967377, 1.008000047877431, 0.0, 0.0, 0.0, 0.0, 0.0, 1.651837373257629E9, 0.0, 2022-05-06 12:42:53.257
63.0, -190.74424749007449, -38.41064249491319, -103.35213527549058, -129.73525951290503, 0.12800000607967377, 0.12800000607967377, 1.008000047877431, 0.0, 0.0, 0.0, 0.0, 0.0, 1.6518373732586904E9, 0.0, 2022-05-06 12:42:53.258
63.0, -267.94326237542555, -216.39996118610725, -211.0313347997144, -214.50009200861678, 0.12800000607967377, 0.12800000607967377, 1.008000047877431, 0.0, 0.0, 0.0, 0.0, 0.0, 1.6518373732586904E9, 0.0, 2022-05-06 12:42:53.258
64.0, -321.0872407457791, -266.9185297875665, -262.84764868579805, -243.86204656073824, 0.12800000607967377, 0.12800000607967377, 1.008000047877431, 0.0, 0.0, 0.0, 0.0, 0.0, 1.6518373732716615E9, 0.0, 2022-05-06 12:42:53.271
64.0, -243.67505156295374, -99.61036536982283, -159.19632141385227, -158.910219067242, 0.12800000607967377, 0.12800000607967377, 1.008000047877431, 0.0, 0.0, 0.0, 0.0, 0.0, 1.6518373732716615E9, 0.0, 2022-05-06 12:42:53.271
65.0, -206.80337789980695, -56.12654858501628, -115.21883783489466, -137.6750671188347, 0.12800000607967377, 0.12800000607967377, 1.008000047877431, 0.0, 0.0, 0.0, 0.0, 0.0, 1.651837373287634E9, 0.0, 2022-05-06 12:42:53.287
65.0, -259.52848747512326, -209.95985346240923, -193.536082806997, -206.40320860454813, 0.12800000607967377, 0.12800000607967377, 1.008000047877431, 0.0, 0.0, 0.0, 0.0, 0.0, 1.651837373287634E9, 0.0, 2022-05-06 12:42:53.287
66.0, -311.00073056528345, -270.2545205480419, -254.53759098425508, -247.51218891749159, 0.12800000607967377, 0.12800000607967377, 1.008000047877431, 0.0, 0.0, 0.0, 0.0, 0.0, 1.6518373732887812E9, 0.0, 2022-05-06 12:42:53.288
66.0, -256.6899034087546, -104.67418990982696, -166.06651763245463, -177.87525174254552, 0.12800000607967377, 0.12800000607967377, 1.008000047877431, 0.0, 0.0, 0.0, 0.0, 0.0, 1.6518373732887812E9, 0.0, 2022-05-06 12:42:53.288
67.0, -199.8209846825339, -56.84086947655305, -117.12244691234082, -146.25439761718735, 0.12800000607967377, 0.12800000607967377, 1.008000047877431, 0.0, 0.0, 0.0, 0.0, 0.0, 1.6518373733017051E9, 0.0, 2022-05-06 12:42:53.301
67.0, -276.54503227351233, -227.9749515489675, -218.52235441096127, -223.7189453993924, 0.12800000607967377, 0.12800000607967377, 1.008000047877431, 0.0, 0.0, 0.0, 0.0, 0.0, 1.6518373733017051E9, 0.0, 2022-05-06 12:42:53.301
68.0, -318.22247737972066, -269.49158095708117, -264.69889916386455, -233.902692978736, 0.12800000607967377, 0.12800000607967377, 1.008000047877431, 0.0, 0.0, 0.0, 0.0, 0.0, 1.6518373733176837E9, 0.0, 2022-05-06 12:42:53.317
68.0, -245.54874144075438, -97.96106948936358, -158.28004592470825, -157.69475158164278, 0.12800000607967377, 0.12800000607967377, 1.008000047877431, 0.0, 0.0, 0.0, 0.0, 0.0, 1.6518373733176837E9, 0.0, 2022-05-06 12:42:53.317
69.0, -201.10003046737984, -45.37807611236349, -107.29772972874343, -133.62849536677822, 0.12800000607967377, 0.12800000607967377, 1.008000047877431, 0.0, 0.0, 0.0, 0.0, 0.0, 1.6518373733187287E9, 0.0, 2022-05-06 12:42:53.318
69.0, -272.79017271799967, -221.9424929204397, -216.29337403737009, -213.29210432292894, 0.12800000607967377, 0.12800000607967377, 1.008000047877431, 0.0, 0.0, 0.0, 0.0, 0.0, 1.6518373733187287E9, 0.0, 2022-05-06 12:42:53.318
70.0, -305.3460018322803, -258.7393685844727, -257.4173139501363, -243.11032666964456, 0.12800000607967377, 0.12800000607967377, 1.008000047877431, 0.0, 0.0, 0.0, 0.0, 0.0, 1.6518373733316495E9, 0.0, 2022-05-06 12:42:53.331
70.0, -239.40782571351156, -101.89544424274936, -167.9289878103882, -182.30329329008237, 0.12800000607967377, 0.12800000607967377, 1.008000047877431, 0.0, 0.0, 0.0, 0.0, 0.0, 1.6518373733316495E9, 0.0, 2022-05-06 12:42:53.331
71.0, -210.80881075235084, -59.79539044154808, -120.5369755718857, -151.348141356837, 0.12800000607967377, 0.12800000607967377, 1.008000047877431, 0.0, 0.0, 0.0, 0.0, 0.0, 1.651837373347623E9, 0.0, 2022-05-06 12:42:53.347
71.0, -287.1551284478046, -235.56320855906233, -224.72684843745083, -231.056629112456, 0.12800000607967377, 0.12800000607967377, 1.008000047877431, 0.0, 0.0, 0.0, 0.0, 0.0, 1.651837373347623E9, 0.0, 2022-05-06 12:42:53.347
72.0, -327.130919074174, -272.8126121177338, -254.3805151861161, -245.23084994452074, 0.144000006839633, 0.12800000607967377, 1.008000047877431, 0.0, 0.0, 0.0, 0.0, 0.0, 1.6518373733486648E9, 0.0, 2022-05-06 12:42:53.348
72.0, -243.7984682614915, -100.85575205506757, -160.39308939967304, -156.3857865971513, 0.144000006839633, 0.12800000607967377, 1.008000047877431, 0.0, 0.0, 0.0, 0.0, 0.0, 1.6518373733486648E9, 0.0, 2022-05-06 12:42:53.348
73.0, -198.49706009821966, -45.516452410724014, -117.29448231030256, -143.8646015455015, 0.144000006839633, 0.12800000607967377, 1.008000047877431, 0.0, 0.0, 0.0, 0.0, 0.0, 1.6518373733617003E9, 0.0, 2022-05-06 12:42:53.361
73.0, -257.4042243002914, -192.1467099734582, -198.52136944793165, -205.6739281131886, 0.144000006839633, 0.12800000607967377, 1.008000047877431, 0.0, 0.0, 0.0, 0.0, 0.0, 1.6518373733617003E9, 0.0, 2022-05-06 12:42:53.361
74.0, -313.8692338312976, -263.34692532988265, -257.3761750506237, -241.92477838369086, 0.144000006839633, 0.12800000607967377, 1.008000047877431, 0.0, 0.0, 0.0, 0.0, 0.0, 1.6518373733776455E9, 0.0, 2022-05-06 12:42:53.377
74.0, -269.3270253590308, -136.9383068275638, -196.7598765688017, -199.90326248155907, 0.144000006839633, 0.12800000607967377, 1.008000047877431, 0.0, 0.0, 0.0, 0.0, 0.0, 1.6518373733776455E9, 0.0, 2022-05-06 12:42:53.377
75.0, -192.24020747235045, -50.681254249531776, -123.10628684144467, -144.76591743482277, 0.144000006839633, 0.12800000607967377, 1.008000047877431, 0.0, 0.0, 0.0, 0.0, 0.0, 1.6518373733788855E9, 0.0, 2022-05-06 12:42:53.378
75.0, -268.3696109703742, -203.49730633897707, -203.62633288744837, -209.70554026542231, 0.144000006839633, 0.12800000607967377, 1.008000047877431, 0.0, 0.0, 0.0, 0.0, 0.0, 1.6518373733788855E9, 0.0, 2022-05-06 12:42:53.378
76.0, -316.5694415993057, -267.6665097787045, -264.51190416608006, -244.67360485112295, 0.144000006839633, 0.12800000607967377, 1.008000047877431, 0.0, 0.0, 0.0, 0.0, 0.0, 1.6518373733917224E9, 0.0, 2022-05-06 12:42:53.391
76.0, -259.8837779709138, -125.9691802575253, -179.83682926930487, -177.71069614449516, 0.144000006839633, 0.12800000607967377, 1.008000047877431, 0.0, 0.0, 0.0, 0.0, 0.0, 1.6518373733917224E9, 0.0, 2022-05-06 12:42:53.391
77.0, -211.8185837403871, -63.142600901890546, -121.58788745943457, -145.70089242374524, 0.144000006839633, 0.12800000607967377, 1.008000047877431, 0.0, 0.0, 0.0, 0.0, 0.0, 1.651837373407726E9, 0.0, 2022-05-06 12:42:53.407
77.0, -263.0402535335161, -200.0790377794765, -202.41834520176053, -206.6724814013578, 0.144000006839633, 0.12800000607967377, 1.008000047877431, 0.0, 0.0, 0.0, 0.0, 0.0, 1.651837373407726E9, 0.0, 2022-05-06 12:42:53.407
78.0, -309.6094877817668, -261.2226621550508, -247.43552096839994, -229.41107313195243, 0.144000006839633, 0.12800000607967377, 1.008000047877431, 0.0, 0.0, 0.0, 0.0, 0.0, 1.6518373734086435E9, 0.0, 2022-05-06 12:42:53.408
78.0, -250.59012658102438, -124.9294880698435, -172.3832086576149, -173.05078079970554, 0.144000006839633, 0.12800000607967377, 1.008000047877431, 0.0, 0.0, 0.0, 0.0, 0.0, 1.6518373734086435E9, 0.0, 2022-05-06 12:42:53.408
79.0, -202.79794504726306, -47.064770992379636, -111.49389747902751, -145.715852023568, 0.144000006839633, 0.12800000607967377, 1.008000047877431, 0.0, 0.0, 0.0, 0.0, 0.0, 1.6518373734216833E9, 0.0, 2022-05-06 12:42:53.421
79.0, -254.74889533175156, -189.218368308153, -190.22627134621143, -195.1835087374784, 0.144000006839633, 0.12800000607967377, 1.008000047877431, 0.0, 0.0, 0.0, 0.0, 0.0, 1.6518373734216833E9, 0.0, 2022-05-06 12:42:53.421
80.0, -309.377613984514, -259.7080026729964, -256.88624815642834, -244.40433205431327, 0.144000006839633, 0.12800000607967377, 1.008000047877431, 0.0, 0.0, 0.0, 0.0, 0.0, 1.6518373734376488E9, 0.0, 2022-05-06 12:42:53.437
80.0, -254.65165793290362, -127.745632736478, -180.65212745964527, -185.12691775662825, 0.144000006839633, 0.12800000607967377, 1.008000047877431, 0.0, 0.0, 0.0, 0.0, 0.0, 1.6518373734376488E9, 0.0, 2022-05-06 12:42:53.437
81.0, -193.65762955555692, -56.47061938093975, -118.68946499377489, -134.95989975100383, 0.144000006839633, 0.12800000607967377, 1.008000047877431, 0.0, 0.0, 0.0, 0.0, 0.0, 1.651837373438604E9, 0.0, 2022-05-06 12:42:53.438
81.0, -272.8574909172021, -214.03634441411123, -209.67749101575464, -211.57549024326727, 0.144000006839633, 0.12800000607967377, 1.008000047877431, 0.0, 0.0, 0.0, 0.0, 0.0, 1.651837373438604E9, 0.0, 2022-05-06 12:42:53.438
82.0, -329.326240348164, -267.7749668774195, -252.64520160667598, -231.52037670696154, 0.12800000607967377, 0.12800000607967377, 1.008000047877431, 0.0, 0.0, 0.0, 0.0, 0.0, 1.651837373451642E9, 0.0, 2022-05-06 12:42:53.451
82.0, -269.1175909615122, -131.8183837882243, -189.74008435197175, -187.79346642503515, 0.12800000607967377, 0.12800000607967377, 1.008000047877431, 0.0, 0.0, 0.0, 0.0, 0.0, 1.651837373451642E9, 0.0, 2022-05-06 12:42:53.451
83.0, -208.53495157929137, -56.61647547921166, -124.14597902912647, -162.81841452093795, 0.12800000607967377, 0.12800000607967377, 1.008000047877431, 0.0, 0.0, 0.0, 0.0, 0.0, 1.6518373734676807E9, 0.0, 2022-05-06 12:42:53.467
83.0, -260.90477065881714, -199.6639088843949, -195.40977268479764, -209.76537866471335, 0.12800000607967377, 0.12800000607967377, 1.008000047877431, 0.0, 0.0, 0.0, 0.0, 0.0, 1.6518373734676807E9, 0.0, 2022-05-06 12:42:53.467
84.0, -311.5654554585926, -265.0411000098102, -256.9760057553649, -242.53064217651263, 0.12800000607967377, 0.12800000607967377, 1.008000047877431, 0.0, 0.0, 0.0, 0.0, 0.0, 1.6518373734685836E9, 0.0, 2022-05-06 12:42:53.468
84.0, -249.87206578953192, -119.20370123768225, -172.17377426009625, -175.57521326979622, 0.12800000607967377, 0.12800000607967377, 1.008000047877431, 0.0, 0.0, 0.0, 0.0, 0.0, 1.6518373734685836E9, 0.0, 2022-05-06 12:42:53.468
85.0, -200.82701777061448, -61.82241621753201, -124.4676104253158, -152.73938414035365, 0.12800000607967377, 0.12800000607967377, 1.008000047877431, 0.0, 0.0, 0.0, 0.0, 0.0, 1.6518373734817464E9, 0.0, 2022-05-06 12:42:53.481
85.0, -246.33786033140495, -183.7020158735104, -182.50711783766747, -189.9626083993353, 0.12800000607967377, 0.12800000607967377, 1.008000047877431, 0.0, 0.0, 0.0, 0.0, 0.0, 1.6518373734817464E9, 0.0, 2022-05-06 12:42:53.481
86.0, -315.9411384067498, -261.08428585669026, -250.6032162308693, -230.67515931697562, 0.12800000607967377, 0.12800000607967377, 1.008000047877431, 0.0, 0.0, 0.0, 0.0, 0.0, 1.651837373497664E9, 0.0, 2022-05-06 12:42:53.497
86.0, -259.4013308766298, -130.25510560674593, -183.29997662827373, -184.18820286775008, 0.12800000607967377, 0.12800000607967377, 1.008000047877431, 0.0, 0.0, 0.0, 0.0, 0.0, 1.651837373497664E9, 0.0, 2022-05-06 12:42:53.497
87.0, -205.1952209188603, -58.119915261399, -121.37097326200455, -151.47529795533046, 0.12800000607967377, 0.12800000607967377, 1.008000047877431, 0.0, 0.0, 0.0, 0.0, 0.0, 1.651837373528639E9, 0.0, 2022-05-06 12:42:53.528
87.0, -252.73682915559039, -195.116190538276, -196.59906087070704, -203.91243523405865, 0.12800000607967377, 0.12800000607967377, 1.008000047877431, 0.0, 0.0, 0.0, 0.0, 0.0, 1.651837373528639E9, 0.0, 2022-05-06 12:42:53.528
88.0, -310.9895108654164, -260.01841436931863, -259.77345092222095, -243.81342786131427, 0.12800000607967377, 0.12800000607967377, 1.008000047877431, 0.0, 0.0, 0.0, 0.0, 0.0, 1.6518373735295885E9, 0.0, 2022-05-06 12:42:53.529
88.0, -257.82309309532866, -122.55091169802472, -168.06736410874873, -176.81312015512958, 0.12800000607967377, 0.12800000607967377, 1.008000047877431, 0.0, 0.0, 0.0, 0.0, 0.0, 1.6518373735295885E9, 0.0, 2022-05-06 12:42:53.529
89.0, -199.77236598310992, -48.729026472661644, -110.73469778802246, -132.59254307905212, 0.12800000607967377, 0.12800000607967377, 1.008000047877431, 0.0, 0.0, 0.0, 0.0, 0.0, 1.6518373735305803E9, 0.0, 2022-05-06 12:42:53.530
89.0, -273.60547090834007, -209.35024976963177, -210.07018051110208, -220.1959596411325, 0.12800000607967377, 0.12800000607967377, 1.008000047877431, 0.0, 0.0, 0.0, 0.0, 0.0, 1.6518373735305803E9, 0.0, 2022-05-06 12:42:53.530
90.0, -309.5085104829632, -259.12831817986444, -254.51515158452094, -235.70158485742286, 0.12800000607967377, 0.12800000607967377, 1.0240000486373901, 0.0, 0.0, 0.0, 0.0, 0.0, 1.65183737353166E9, 0.0, 2022-05-06 12:42:53.531
90.0, -249.26994189666584, -122.64440919691697, -185.21480540558696, -173.26769499713555, 0.12800000607967377, 0.12800000607967377, 1.0240000486373901, 0.0, 0.0, 0.0, 0.0, 0.0, 1.65183737353166E9, 0.0, 2022-05-06 12:42:53.531
91.0, -202.2631393535994, -59.2680645477958, -112.09976127184927, -146.44887241488323, 0.12800000607967377, 0.11200000531971455, 1.0240000486373901, 0.0, 0.0, 0.0, 0.0, 0.0, 1.6518373735417366E9, 0.0, 2022-05-06 12:42:53.541
91.0, -249.94312388869002, -192.96948796370998, -201.77134250942618, -214.0812232135795, 0.12800000607967377, 0.11200000531971455, 1.0240000486373901, 0.0, 0.0, 0.0, 0.0, 0.0, 1.6518373735417366E9, 0.0, 2022-05-06 12:42:53.541
92.0, -320.9114654478617, -264.319299318362, -255.79419736936688, -239.31058831466362, 0.12800000607967377, 0.11200000531971455, 1.0240000486373901, 0.0, 0.0, 0.0, 0.0, 0.0, 1.6518373735576549E9, 0.0, 2022-05-06 12:42:53.557
92.0, -258.8403458832763, -115.13095018593594, -164.3349439529702, -167.171658069361, 0.12800000607967377, 0.11200000531971455, 1.0240000486373901, 0.0, 0.0, 0.0, 0.0, 0.0, 1.6518373735576549E9, 0.0, 2022-05-06 12:42:53.557
93.0, -202.77550564752892, -51.35069634160027, -114.51573664322495, -139.54501709667966, 0.12800000607967377, 0.11200000531971455, 1.0240000486373901, 0.0, 0.0, 0.0, 0.0, 0.0, 1.6518373735585856E9, 0.0, 2022-05-06 12:42:53.558
93.0, -268.57530546793714, -207.28582499409094, -224.38277764152735, -222.62315471237525, 0.12800000607967377, 0.11200000531971455, 1.0240000486373901, 0.0, 0.0, 0.0, 0.0, 0.0, 1.6518373735585856E9, 0.0, 2022-05-06 12:42:53.558
94.0, -315.4998302119784, -261.9893416459672, -260.1287414180115, -252.52365485811606, 0.12800000607967377, 0.11200000531971455, 1.0240000486373901, 0.0, 0.0, 0.0, 0.0, 0.0, 1.6518373735716436E9, 0.0, 2022-05-06 12:42:53.571
94.0, -251.24086917331442, -119.42809523502365, -171.7100266655907, -173.45095009496436, 0.12800000607967377, 0.11200000531971455, 1.0240000486373901, 0.0, 0.0, 0.0, 0.0, 0.0, 1.6518373735716436E9, 0.0, 2022-05-06 12:42:53.571
95.0, -198.57185809733346, -60.23669863631949, -123.26710253953934, -148.8349285866134, 0.12800000607967377, 0.11200000531971455, 1.0240000486373901, 0.0, 0.0, 0.0, 0.0, 0.0, 1.651837373587652E9, 0.0, 2022-05-06 12:42:53.587
95.0, -261.4059172528796, -203.83763723494485, -202.41086540184915, -213.62869531894103, 0.12800000607967377, 0.11200000531971455, 1.0240000486373901, 0.0, 0.0, 0.0, 0.0, 0.0, 1.651837373587652E9, 0.0, 2022-05-06 12:42:53.587
96.0, -318.56280827568844, -262.5540665392764, -249.42888764478266, -230.67141941701993, 0.12800000607967377, 0.11200000531971455, 1.0240000486373901, 0.0, 0.0, 0.0, 0.0, 0.0, 1.6518373735885797E9, 0.0, 2022-05-06 12:42:53.588
96.0, -247.16437822161242, -109.38646385399625, -163.8936357581988, -164.19843760458753, 0.12800000607967377, 0.11200000531971455, 1.0240000486373901, 0.0, 0.0, 0.0, 0.0, 0.0, 1.6518373735885797E9, 0.0, 2022-05-06 12:42:53.588
97.0, -205.80856451159343, -58.44528655754402, -126.40113870240748, -160.840007444378, 0.12800000607967377, 0.11200000531971455, 1.0240000486373901, 0.0, 0.0, 0.0, 0.0, 0.0, 1.6518373736017835E9, 0.0, 2022-05-06 12:42:53.601
97.0, -266.13315079687163, -207.88794888695702, -216.86557873059064, -220.5288107371889, 0.12800000607967377, 0.11200000531971455, 1.0240000486373901, 0.0, 0.0, 0.0, 0.0, 0.0, 1.6518373736017835E9, 0.0, 2022-05-06 12:42:53.601
98.0, -309.691765580792, -259.0983989802189, -254.0850630896166, -234.63945327000692, 0.12800000607967377, 0.11200000531971455, 1.0240000486373901, 0.0, 0.0, 0.0, 0.0, 0.0, 1.6518373736336408E9, 0.0, 2022-05-06 12:42:53.633
98.0, -248.59675990464166, -120.49396672239527, -173.63233524281532, -174.5878796814941, 0.12800000607967377, 0.11200000531971455, 1.0240000486373901, 0.0, 0.0, 0.0, 0.0, 0.0, 1.6518373736336408E9, 0.0, 2022-05-06 12:42:53.633
99.0, -196.5560520212166, -59.40270094620064, -113.22173125855625, -140.63332798378542, 0.12800000607967377, 0.11200000531971455, 1.0240000486373901, 0.0, 0.0, 0.0, 0.0, 0.0, 1.6518373736345737E9, 0.0, 2022-05-06 12:42:53.634
99.0, -258.60473218606785, -198.72519399551675, -196.67759876977652, -198.25022670114413, 0.12800000607967377, 0.11200000531971455, 1.0240000486373901, 0.0, 0.0, 0.0, 0.0, 0.0, 1.6518373736345737E9, 0.0, 2022-05-06 12:42:53.634
100.0, -311.22138466266915, -260.2091492670588, -253.03789110202342, -233.18463218724355, 0.12800000607967377, 0.11200000531971455, 1.0240000486373901, 0.0, 0.0, 0.0, 0.0, 0.0, 1.651837373635708E9, 0.0, 2022-05-06 12:42:53.635
100.0, -245.70207733893767, -112.89449001243338, -171.05554417334497, -161.82360113272443, 0.12800000607967377, 0.11200000531971455, 1.0240000486373901, 0.0, 0.0, 0.0, 0.0, 0.0, 1.651837373635708E9, 0.0, 2022-05-06 12:42:53.635
0.0, -184.88569420948625, -47.5416082367301, -101.83747579343617, -125.32591746514663, 0.12800000607967377, 0.11200000531971455, 1.0240000486373901, 0.0, 0.0, 0.0, 0.0, 0.0, 1.651837373636588E9, 0.0, 2022-05-06 12:42:53.636
1.0, -257.2677179519087, -202.96811049524695, -205.15595196932554, -213.6361751188524, 0.12800000607967377, 0.11200000531971455, 1.0240000486373901, 0.0, 0.0, 0.0, 0.0, 0.0, 1.651837373646663E9, 0.0, 2022-05-06 12:42:53.646
1.0, -309.42436273396015, -257.0844628540799, -253.4866790967062, -237.56779493531212, 0.12800000607967377, 0.11200000531971455, 1.0240000486373901, 0.0, 0.0, 0.0, 0.0, 0.0, 1.651837373646663E9, 0.0, 2022-05-06 12:42:53.646
2.0, -258.73749863449484, -117.01398981362581, -169.79519788827747, -179.0645399284549, 0.12800000607967377, 0.11200000531971455, 1.0240000486373901, 0.0, 0.0, 0.0, 0.0, 0.0, 1.6518373736626427E9, 0.0, 2022-05-06 12:42:53.662
2.0, -211.30434749647975, -64.09814534056932, -126.67789129912853, -161.69644453423098, 0.12800000607967377, 0.11200000531971455, 1.0240000486373901, 0.0, 0.0, 0.0, 0.0, 0.0, 1.6518373736626427E9, 0.0, 2022-05-06 12:42:53.662
3.0, -277.5828545112163, -213.5856864694506, -218.0324275167659, -226.47899156669155, 0.12800000607967377, 0.11200000531971455, 1.0240000486373901, 0.0, 0.0, 0.0, 0.0, 0.0, 1.6518373736636453E9, 0.0, 2022-05-06 12:42:53.663
3.0, -322.2372599821538, -270.70143859274685, -266.29957634489983, -252.79292765492573, 0.12800000607967377, 0.11200000531971455, 1.0240000486373901, 0.0, 0.0, 0.0, 0.0, 0.0, 1.6518373736636453E9, 0.0, 2022-05-06 12:42:53.663
4.0, -262.1557671939954, -128.843293373473, -180.18837986513972, -186.56677923956886, 0.12800000607967377, 0.11200000531971455, 1.0240000486373901, 0.0, 0.0, 0.0, 0.0, 0.0, 1.6518373736766412E9, 0.0, 2022-05-06 12:42:53.676
4.0, -187.96737177297473, -57.62811841722578, -118.88393979147077, -136.3474026345648, 0.12800000607967377, 0.11200000531971455, 1.0240000486373901, 0.0, 0.0, 0.0, 0.0, 0.0, 1.6518373736766412E9, 0.0, 2022-05-06 12:42:53.676
5.0, -264.14165407046676, -216.33825283683836, -207.3587530432269, -218.44942636182532, 0.12800000607967377, 0.11200000531971455, 1.0240000486373901, 0.0, 0.0, 0.0, 0.0, 0.0, 1.651837373692761E9, 0.0, 2022-05-06 12:42:53.692
5.0, -321.7473330879584, -265.0242704600096, -259.20872602891177, -241.99209658289328, 0.12800000607967377, 0.11200000531971455, 1.0240000486373901, 0.0, 0.0, 0.0, 0.0, 0.0, 1.651837373692761E9, 0.0, 2022-05-06 12:42:53.692
6.0, -254.7881642812863, -117.3543207095936, -169.39128869306296, -172.75906860316172, 0.12800000607967377, 0.11200000531971455, 1.0240000486373901, 0.0, 0.0, 0.0, 0.0, 0.0, 1.6518373736936476E9, 0.0, 2022-05-06 12:42:53.693
6.0, -199.11601354088634, -61.53631387092173, -113.21425145864487, -141.04097707895562, 0.12800000607967377, 0.11200000531971455, 1.0240000486373901, 0.0, 0.0, 0.0, 0.0, 0.0, 1.6518373736936476E9, 0.0, 2022-05-06 12:42:53.693
7.0, -257.95211964379996, -205.29432826768607, -201.40109241381288, -205.18026131903753, 0.12800000607967377, 0.11200000531971455, 1.0240000486373901, 0.0, 0.0, 0.0, 0.0, 0.0, 1.6518373737066367E9, 0.0, 2022-05-06 12:42:53.706
7.0, -287.5160287935287, -243.40016891621053, -240.87199654616416, -215.6407614951022, 0.12800000607967377, 0.11200000531971455, 1.0240000486373901, 0.0, 0.0, 0.0, 0.0, 0.0, 1.6518373737066367E9, 0.0, 2022-05-06 12:42:53.706
8.0, -244.87742939870805, -114.71021144092083, -162.35279697645456, -173.05078079970554, 0.12800000607967377, 0.11200000531971455, 1.0240000486373901, 0.0, 0.0, 0.0, 0.0, 0.0, 1.651837373722664E9, 0.0, 2022-05-06 12:42:53.722
8.0, -198.52136944793165, -49.78554821014404, -110.62624068930745, -131.339676593896, 0.12800000607967377, 0.11200000531971455, 1.0240000486373901, 0.0, 0.0, 0.0, 0.0, 0.0, 1.651837373722664E9, 0.0, 2022-05-06 12:42:53.722
9.0, -257.81000344548374, -197.69859145767987, -205.40652526635677, -209.0473178732209, 0.12800000607967377, 0.11200000531971455, 1.0240000486373901, 0.0, 0.0, 0.0, 0.0, 0.0, 1.651837373723614E9, 0.0, 2022-05-06 12:42:53.723
9.0, -306.7353746658191, -257.1293416535482, -256.1607075650245, -238.88423971971497, 0.12800000607967377, 0.11200000531971455, 1.0240000486373901, 0.0, 0.0, 0.0, 0.0, 0.0, 1.651837373723614E9, 0.0, 2022-05-06 12:42:53.723
10.0, -251.12680222466588, -114.03702944889665, -161.8591301823035, -178.4736357354559, 0.12800000607967377, 0.11200000531971455, 1.0240000486373901, 0.0, 0.0, 0.0, 0.0, 0.0, 1.6518373737366512E9, 0.0, 2022-05-06 12:42:53.736
10.0, -194.58699469454587, -58.62293180543929, -117.06260851304978, -156.22871079901233, 0.12800000607967377, 0.11200000531971455, 1.0240000486373901, 0.0, 0.0, 0.0, 0.0, 0.0, 1.6518373737366512E9, 0.0, 2022-05-06 12:42:53.736
11.0, -261.3853478031233, -205.66083846334368, -198.07632135320455, -195.13862993801013, 0.12800000607967377, 0.11200000531971455, 1.0240000486373901, 0.0, 0.0, 0.0, 0.0, 0.0, 1.6518373737527208E9, 0.0, 2022-05-06 12:42:53.752
11.0, -293.4811692228541, -248.93896075058728, -241.99396653287113, -221.96493232017383, 0.12800000607967377, 0.11200000531971455, 1.0240000486373901, 0.0, 0.0, 0.0, 0.0, 0.0, 1.6518373737527208E9, 0.0, 2022-05-06 12:42:53.752
12.0, -243.10471681971103, -114.29508254583925, -173.21346644777805, -185.12691775662825, 0.12800000607967377, 0.11200000531971455, 1.0240000486373901, 0.0, 0.0, 0.0, 0.0, 0.0, 1.6518373737536445E9, 0.0, 2022-05-06 12:42:53.753
12.0, -188.3114425688982, -51.98460938408971, -112.91879936214536, -135.48348574480042, 0.12800000607967377, 0.11200000531971455, 1.0240000486373901, 0.0, 0.0, 0.0, 0.0, 0.0, 1.6518373737536445E9, 0.0, 2022-05-06 12:42:53.753
13.0, -280.1633854806423, -215.3210000488907, -219.5844859983772, -224.66887998813763, 0.12800000607967377, 0.11200000531971455, 1.0240000486373901, 0.0, 0.0, 0.0, 0.0, 0.0, 1.6518373737666554E9, 0.0, 2022-05-06 12:42:53.766
13.0, -314.87339696940035, -263.77140397485346, -257.51081144902855, -241.69664448639378, 0.12800000607967377, 0.11200000531971455, 1.0240000486373901, 0.0, 0.0, 0.0, 0.0, 0.0, 1.6518373737666554E9, 0.0, 2022-05-06 12:42:53.766
14.0, -242.24079992994666, -109.15272010676563, -169.0472178971395, -180.57919941050932, 0.12800000607967377, 0.11200000531971455, 1.0240000486373901, 0.0, 0.0, 0.0, 0.0, 0.0, 1.6518373737826416E9, 0.0, 2022-05-06 12:42:53.782
14.0, -198.25957645103335, -64.85360513161868, -122.39570584986359, -156.06415520096198, 0.12800000607967377, 0.11200000531971455, 1.0240000486373901, 0.0, 0.0, 0.0, 0.0, 0.0, 1.6518373737826416E9, 0.0, 2022-05-06 12:42:53.782
15.0, -285.6872177151963, -221.94810277037323, -224.64083073846996, -229.609287829604, 0.12800000607967377, 0.11200000531971455, 1.0240000486373901, 0.0, 0.0, 0.0, 0.0, 0.0, 1.651837373783579E9, 0.0, 2022-05-06 12:42:53.783
15.0, -325.17308144737035, -271.07168868836015, -267.6496802289039, -254.57685993378982, 0.12800000607967377, 0.11200000531971455, 1.0240000486373901, 0.0, 0.0, 0.0, 0.0, 0.0, 1.651837373783579E9, 0.0, 2022-05-06 12:42:53.783
16.0, -260.3793147150427, -129.89420526102185, -182.29020364023745, -183.76559417275712, 0.12800000607967377, 0.11200000531971455, 1.0240000486373901, 0.0, 0.0, 0.0, 0.0, 0.0, 1.6518373737966692E9, 0.0, 2022-05-06 12:42:53.796
16.0, -210.82938020210713, -79.87304335366935, -135.46291629504412, -158.58484777109697, 0.12800000607967377, 0.11200000531971455, 1.0240000486373901, 0.0, 0.0, 0.0, 0.0, 0.0, 1.6518373737966692E9, 0.0, 2022-05-06 12:42:53.796
17.0, -264.235151569359, -214.01203506439924, -208.34608663152903, -215.5248245964758, 0.12800000607967377, 0.11200000531971455, 1.0240000486373901, 0.0, 0.0, 0.0, 0.0, 0.0, 1.6518373738126547E9, 0.0, 2022-05-06 12:42:53.812
17.0, -309.3271253351122, -266.55014964193106, -253.86814889218658, -238.84310082020238, 0.12800000607967377, 0.11200000531971455, 1.0240000486373901, 0.0, 0.0, 0.0, 0.0, 0.0, 1.6518373738126547E9, 0.0, 2022-05-06 12:42:53.812
18.0, -241.971527133137, -115.3871333329007, -169.8176372880116, -171.31172732030973, 0.12800000607967377, 0.11200000531971455, 1.0240000486373901, 0.0, 0.0, 0.0, 0.0, 0.0, 1.6518373738135884E9, 0.0, 2022-05-06 12:42:53.813
18.0, -194.8300881916657, -60.49662168323994, -122.47798364888877, -150.54032296640798, 0.12800000607967377, 0.11200000531971455, 1.0240000486373901, 0.0, 0.0, 0.0, 0.0, 0.0, 1.6518373738135884E9, 0.0, 2022-05-06 12:42:53.813
19.0, -256.4898187611252, -199.11227364093065, -194.60569419432431, -201.1860481663607, 0.12800000607967377, 0.11200000531971455, 1.0240000486373901, 0.0, 0.0, 0.0, 0.0, 0.0, 1.6518373738266392E9, 0.0, 2022-05-06 12:42:53.826
19.0, -294.9958287049085, -251.4484336208552, -245.8161442875862, -227.36160795623437, 0.12800000607967377, 0.11200000531971455, 1.0240000486373901, 0.0, 0.0, 0.0, 0.0, 0.0, 1.6518373738266392E9, 0.0, 2022-05-06 12:42:53.826
20.0, -228.82203888893127, -95.62550196703523, -148.82931873667985, -147.81019599875435, 0.12800000607967377, 0.11200000531971455, 1.0240000486373901, 0.0, 0.0, 0.0, 0.0, 0.0, 1.6518373738426466E9, 0.0, 2022-05-06 12:42:53.842
20.0, -197.3507807618007, -49.273181916214526, -109.56410910189152, -129.76517871255055, 0.12800000607967377, 0.11200000531971455, 1.0240000486373901, 0.0, 0.0, 0.0, 0.0, 0.0, 1.6518373738426466E9, 0.0, 2022-05-06 12:42:53.842
21.0, -261.2282720049843, -206.5808538524434, -216.74964183196425, -223.48707160213962, 0.12800000607967377, 0.11200000531971455, 1.0240000486373901, 0.0, 0.0, 0.0, 0.0, 0.0, 1.6518373738435965E9, 0.0, 2022-05-06 12:42:53.843
21.0, -315.2586066648364, -258.9693724317476, -247.25226587057114, -244.60628665192053, 0.12800000607967377, 0.11200000531971455, 1.0240000486373901, 0.0, 0.0, 0.0, 0.0, 0.0, 1.6518373738435965E9, 0.0, 2022-05-06 12:42:53.843
22.0, -238.65049597248435, -106.6806462360546, -165.748626136221, -163.29338181531057, 0.144000006839633, 0.11200000531971455, 1.0240000486373901, 0.0, 0.0, 0.0, 0.0, 0.0, 1.6518373738566718E9, 0.0, 2022-05-06 12:42:53.856
22.0, -181.69929944723845, -49.310580915771425, -110.42802599165589, -139.66095399530604, 0.144000006839633, 0.11200000531971455, 1.0240000486373901, 0.0, 0.0, 0.0, 0.0, 0.0, 1.6518373738566718E9, 0.0, 2022-05-06 12:42:53.856
23.0, -272.03284297697246, -213.18925707414746, -214.49448215868324, -224.70253908773884, 0.144000006839633, 0.11200000531971455, 1.0240000486373901, 0.0, 0.0, 0.0, 0.0, 0.0, 1.6518373738727033E9, 0.0, 2022-05-06 12:42:53.872
23.0, -309.076552038081, -263.11318158265203, -252.14779491256922, -240.91874529561028, 0.144000006839633, 0.11200000531971455, 1.0240000486373901, 0.0, 0.0, 0.0, 0.0, 0.0, 1.6518373738727033E9, 0.0, 2022-05-06 12:42:53.872
24.0, -245.31125779356807, -109.78102329932153, -165.14650224335492, -164.56120790028945, 0.144000006839633, 0.11200000531971455, 1.0240000486373901, 0.0, 0.0, 0.0, 0.0, 0.0, 1.651837373873601E9, 0.0, 2022-05-06 12:42:53.873
24.0, -213.0658403756097, -61.68590986914933, -127.59790668822825, -149.4220928796567, 0.144000006839633, 0.11200000531971455, 1.0240000486373901, 0.0, 0.0, 0.0, 0.0, 0.0, 1.651837373873601E9, 0.0, 2022-05-06 12:42:53.873
25.0, -260.158660617657, -201.0607615178451, -201.79378190916032, -213.88300851592794, 0.144000006839633, 0.11200000531971455, 1.0240000486373901, 0.0, 0.0, 0.0, 0.0, 0.0, 1.6518373738866658E9, 0.0, 2022-05-06 12:42:53.886
25.0, -305.8938971757889, -258.4196071382612, -237.9997533801943, -236.1728122518398, 0.144000006839633, 0.11200000531971455, 1.0240000486373901, 0.0, 0.0, 0.0, 0.0, 0.0, 1.6518373738866658E9, 0.0, 2022-05-06 12:42:53.886
26.0, -254.7096263822168, -121.19519796408713, -172.3084106585011, -179.4347900240682, 0.144000006839633, 0.11200000531971455, 1.0240000486373901, 0.0, 0.0, 0.0, 0.0, 0.0, 1.6518373739027483E9, 0.0, 2022-05-06 12:42:53.902
26.0, -188.96592506114393, -52.74754897505045, -111.8304884750396, -138.7858174056746, 0.144000006839633, 0.11200000531971455, 1.0240000486373901, 0.0, 0.0, 0.0, 0.0, 0.0, 1.6518373739027483E9, 0.0, 2022-05-06 12:42:53.902
27.0, -267.0886952355504, -212.5048553822562, -215.44441674742848, -223.95455909660086, 0.144000006839633, 0.11200000531971455, 1.0240000486373901, 0.0, 0.0, 0.0, 0.0, 0.0, 1.6518373739036417E9, 0.0, 2022-05-06 12:42:53.903
27.0, -315.4867405621335, -263.7601842749864, -250.7079334296286, -238.79074222082272, 0.144000006839633, 0.11200000531971455, 1.0240000486373901, 0.0, 0.0, 0.0, 0.0, 0.0, 1.6518373739036417E9, 0.0, 2022-05-06 12:42:53.903
28.0, -245.7450861884281, -109.88574049808085, -162.95866076927632, -164.060061306227, 0.144000006839633, 0.11200000531971455, 1.0240000486373901, 0.0, 0.0, 0.0, 0.0, 0.0, 1.6518373739166305E9, 0.0, 2022-05-06 12:42:53.916
28.0, -194.40747949667275, -54.79327425081283, -113.67425915319473, -129.44354731636122, 0.144000006839633, 0.11200000531971455, 1.0240000486373901, 0.0, 0.0, 0.0, 0.0, 0.0, 1.6518373739166305E9, 0.0, 2022-05-06 12:42:53.916
29.0, -256.66185415908694, -203.97040368337184, -208.1329123340547, -196.32417822396383, 0.144000006839633, 0.11200000531971455, 1.0240000486373901, 0.0, 0.0, 0.0, 0.0, 0.0, 1.6518373739326596E9, 0.0, 2022-05-06 12:42:53.932
29.0, -292.52375483419746, -248.8192839520052, -240.57280454970896, -236.96567104244605, 0.144000006839633, 0.11200000531971455, 1.0240000486373901, 0.0, 0.0, 0.0, 0.0, 0.0, 1.6518373739326596E9, 0.0, 2022-05-06 12:42:53.932
30.0, -233.08926473837346, -98.70717953052372, -157.7078412314877, -164.94267769576982, 0.144000006839633, 0.11200000531971455, 1.0240000486373901, 0.0, 0.0, 0.0, 0.0, 0.0, 1.651837373933598E9, 0.0, 2022-05-06 12:42:53.933
30.0, -199.42268533725291, -64.44595603644848, -124.80420142132789, -148.89102708594874, 0.144000006839633, 0.11200000531971455, 1.0240000486373901, 0.0, 0.0, 0.0, 0.0, 0.0, 1.651837373933598E9, 0.0, 2022-05-06 12:42:53.933
31.0, -261.07493610680103, -219.11699850391597, -217.18347022682428, -226.68842596421018, 0.144000006839633, 0.12800000607967377, 1.0240000486373901, 0.0, 0.0, 0.0, 0.0, 0.0, 1.6518373739466536E9, 0.0, 2022-05-06 12:42:53.946
31.0, -322.5140125788748, -267.3542281324044, -256.4860788611695, -250.3956517833285, 0.144000006839633, 0.12800000607967377, 1.0240000486373901, 0.0, 0.0, 0.0, 0.0, 0.0, 1.6518373739466536E9, 0.0, 2022-05-06 12:42:53.946
32.0, -243.1159365195781, -104.31328956410289, -162.16954187862575, -160.29024215089157, 0.144000006839633, 0.12800000607967377, 1.0240000486373901, 0.0, 0.0, 0.0, 0.0, 0.0, 1.6518373739626267E9, 0.0, 2022-05-06 12:42:53.962
32.0, -195.58554798271507, -62.01502106525004, -107.75773742329329, -142.05448996694759, 0.144000006839633, 0.12800000607967377, 1.0240000486373901, 0.0, 0.0, 0.0, 0.0, 0.0, 1.6518373739626267E9, 0.0, 2022-05-06 12:42:53.962
33.0, -261.8565751975402, -210.1748977098614, -218.05860681645572, -220.66718703554943, 0.144000006839633, 0.12800000607967377, 1.0240000486373901, 0.0, 0.0, 0.0, 0.0, 0.0, 1.6518373739635975E9, 0.0, 2022-05-06 12:42:53.963
33.0, -294.1319118151441, -253.83448979258537, -243.9648938095197, -235.77264295658097, 0.144000006839633, 0.12800000607967377, 1.0240000486373901, 0.0, 0.0, 0.0, 0.0, 0.0, 1.6518373739635975E9, 0.0, 2022-05-06 12:42:53.963
34.0, -243.46374721545726, -118.31921489816159, -168.4151748046279, -175.04040757613257, 0.144000006839633, 0.12800000607967377, 1.0240000486373901, 0.0, 0.0, 0.0, 0.0, 0.0, 1.6518373739766417E9, 0.0, 2022-05-06 12:42:53.976
34.0, -209.70741021540016, -63.2903269501403, -122.21245075203478, -142.91092705680057, 0.144000006839633, 0.12800000607967377, 1.0240000486373901, 0.0, 0.0, 0.0, 0.0, 0.0, 1.6518373739766417E9, 0.0, 2022-05-06 12:42:53.976
35.0, -275.4623312363401, -218.45877611171454, -213.35007277224213, -221.29923012806103, 0.144000006839633, 0.12800000607967377, 1.0240000486373901, 0.0, 0.0, 0.0, 0.0, 0.0, 1.6518373739927063E9, 0.0, 2022-05-06 12:42:53.992
35.0, -307.98076135106385, -253.73725239373744, -254.07384338974953, -240.52231590030715, 0.144000006839633, 0.12800000607967377, 1.0240000486373901, 0.0, 0.0, 0.0, 0.0, 0.0, 1.6518373739927063E9, 0.0, 2022-05-06 12:42:53.992
36.0, -236.5972908968106, -108.26636381726712, -163.04841836821288, -169.4679566421546, 0.144000006839633, 0.12800000607967377, 1.0240000486373901, 0.0, 0.0, 0.0, 0.0, 0.0, 1.6518373739936411E9, 0.0, 2022-05-06 12:42:53.993
36.0, -215.4705960471183, -66.2186686154455, -129.20232376921922, -153.40508633246645, 0.144000006839633, 0.12800000607967377, 1.0240000486373901, 0.0, 0.0, 0.0, 0.0, 0.0, 1.6518373739936411E9, 0.0, 2022-05-06 12:42:53.993
37.0, -277.212604415603, -221.77980727236718, -211.94387038890272, -228.28910314524546, 0.144000006839633, 0.12800000607967377, 1.0240000486373901, 0.0, 0.0, 0.0, 0.0, 0.0, 1.6518373740066366E9, 0.0, 2022-05-06 12:42:54.006
37.0, -318.57215802557766, -255.84281606879085, -252.46942630875856, -236.2027314514853, 0.144000006839633, 0.12800000607967377, 1.0240000486373901, 0.0, 0.0, 0.0, 0.0, 0.0, 1.6518373740066366E9, 0.0, 2022-05-06 12:42:54.006
38.0, -253.07155020162463, -108.17286631837487, -166.7845784239471, -172.7291494035162, 0.144000006839633, 0.12800000607967377, 1.0240000486373901, 0.0, 0.0, 0.0, 0.0, 0.0, 1.651837374022686E9, 0.0, 2022-05-06 12:42:54.022
38.0, -199.60220053512603, -62.65454395767301, -114.73639074061066, -140.3079566876404, 0.144000006839633, 0.12800000607967377, 1.0240000486373901, 0.0, 0.0, 0.0, 0.0, 0.0, 1.651837374022686E9, 0.0, 2022-05-06 12:42:54.022
39.0, -268.528556718491, -218.1072255158797, -208.34608663152903, -209.46992656821385, 0.144000006839633, 0.12800000607967377, 1.0240000486373901, 0.0, 0.0, 0.0, 0.0, 0.0, 1.6518373740236022E9, 0.0, 2022-05-06 12:42:54.023
39.0, -296.71992258448154, -242.61852982547134, -236.45143479853868, -214.72822590591386, 0.144000006839633, 0.12800000607967377, 1.0240000486373901, 0.0, 0.0, 0.0, 0.0, 0.0, 1.6518373740236022E9, 0.0, 2022-05-06 12:42:54.023
40.0, -229.72335477825254, -104.14499406609684, -157.31141183618456, -153.9398920261301, 0.144000006839633, 0.12800000607967377, 1.0240000486373901, 0.0, 0.0, 0.0, 0.0, 0.0, 1.651837374036658E9, 0.0, 2022-05-06 12:42:54.036
40.0, -206.42377805430442, -71.76120034977794, -124.19459772855043, -152.5748285423033, 0.144000006839633, 0.12800000607967377, 1.0240000486373901, 0.0, 0.0, 0.0, 0.0, 0.0, 1.651837374036658E9, 0.0, 2022-05-06 12:42:54.036
41.0, -280.7243704739958, -227.19892230816185, -221.68256987351924, -231.17256601108238, 0.144000006839633, 0.11200000531971455, 1.0240000486373901, 0.0, 0.0, 0.0, 0.0, 0.0, 1.6518373740526354E9, 0.0, 2022-05-06 12:42:54.052
41.0, -321.13772939518094, -268.77539011556655, -268.0498495241627, -249.74864909099415, 0.144000006839633, 0.11200000531971455, 1.0240000486373901, 0.0, 0.0, 0.0, 0.0, 0.0, 1.6518373740526354E9, 0.0, 2022-05-06 12:42:54.052
42.0, -245.5206921910867, -103.89442076906562, -159.7797458069399, -164.85292009683326, 0.144000006839633, 0.11200000531971455, 1.0240000486373901, 0.0, 0.0, 0.0, 0.0, 0.0, 1.6518373740535958E9, 0.0, 2022-05-06 12:42:54.053
42.0, -195.03578268922865, -61.14362437557429, -127.23139649257064, -145.80186972254887, 0.144000006839633, 0.11200000531971455, 1.0240000486373901, 0.0, 0.0, 0.0, 0.0, 0.0, 1.6518373740535958E9, 0.0, 2022-05-06 12:42:54.053
43.0, -265.3533816561103, -206.04604815877974, -209.86448601353914, -217.31623667525128, 0.144000006839633, 0.11200000531971455, 1.0240000486373901, 0.0, 0.0, 0.0, 0.0, 0.0, 1.6518373740666325E9, 0.0, 2022-05-06 12:42:54.066
43.0, -315.0416924674064, -252.7461789054796, -251.50079222023487, -231.98786420142278, 0.144000006839633, 0.11200000531971455, 1.0240000486373901, 0.0, 0.0, 0.0, 0.0, 0.0, 1.6518373740666325E9, 0.0, 2022-05-06 12:42:54.066
44.0, -250.61443593073636, -104.22353196516633, -165.1165830437094, -175.1376449749805, 0.144000006839633, 0.11200000531971455, 1.0240000486373901, 0.0, 0.0, 0.0, 0.0, 0.0, 1.6518373740827157E9, 0.0, 2022-05-06 12:42:54.082
44.0, -193.59966110624373, -52.78494797460735, -111.79682937543839, -133.23954577138647, 0.144000006839633, 0.11200000531971455, 1.0240000486373901, 0.0, 0.0, 0.0, 0.0, 0.0, 1.6518373740827157E9, 0.0, 2022-05-06 12:42:54.082
45.0, -265.1364674586803, -208.15161183383316, -198.7607230450958, -212.54412433179095, 0.144000006839633, 0.11200000531971455, 1.0240000486373901, 0.0, 0.0, 0.0, 0.0, 0.0, 1.651837374083645E9, 0.0, 2022-05-06 12:42:54.083
45.0, -312.4349821982905, -257.21909925248474, -250.02727163769305, -236.16159255197272, 0.144000006839633, 0.11200000531971455, 1.0240000486373901, 0.0, 0.0, 0.0, 0.0, 0.0, 1.651837374083645E9, 0.0, 2022-05-06 12:42:54.083
46.0, -243.62456291355193, -104.51150426175445, -161.0438319919631, -161.19155804021284, 0.144000006839633, 0.11200000531971455, 1.0240000486373901, 0.0, 0.0, 0.0, 0.0, 0.0, 1.6518373740966415E9, 0.0, 2022-05-06 12:42:54.096
46.0, -214.90961105376482, -66.42810301296413, -134.27736800909042, -147.1220544069074, 0.144000006839633, 0.11200000531971455, 1.0240000486373901, 0.0, 0.0, 0.0, 0.0, 0.0, 1.6518373740966415E9, 0.0, 2022-05-06 12:42:54.096
47.0, -271.5690953824669, -209.1688646217808, -205.90019206050783, -205.05684462049976, 0.144000006839633, 0.11200000531971455, 1.0240000486373901, 0.0, 0.0, 0.0, 0.0, 0.0, 1.6518373741126423E9, 0.0, 2022-05-06 12:42:54.112
47.0, -310.05266592651606, -247.50657906755805, -242.3417772287503, -229.65416662907228, 0.144000006839633, 0.11200000531971455, 1.0240000486373901, 0.0, 0.0, 0.0, 0.0, 0.0, 1.6518373741126423E9, 0.0, 2022-05-06 12:42:54.112
48.0, -237.34527088794857, -94.7466254774481, -153.95672157593071, -160.18552495213225, 0.144000006839633, 0.11200000531971455, 1.0240000486373901, 0.0, 0.0, 0.0, 0.0, 0.0, 1.651837374113606E9, 0.0, 2022-05-06 12:42:54.113
48.0, -208.53682152926922, -74.95133501198143, -124.49752962496132, -152.1970986467786, 0.144000006839633, 0.11200000531971455, 1.0240000486373901, 0.0, 0.0, 0.0, 0.0, 0.0, 1.651837374113606E9, 0.0, 2022-05-06 12:42:54.113
49.0, -282.0520349582657, -229.476521381177, -228.18999579641968, -235.19295846344903, 0.144000006839633, 0.11200000531971455, 1.0240000486373901, 0.0, 0.0, 0.0, 0.0, 0.0, 1.6518373741266332E9, 0.0, 2022-05-06 12:42:54.126
49.0, -315.95048815663904, -262.7915501864627, -258.50936473719776, -236.96193114249036, 0.144000006839633, 0.11200000531971455, 1.0240000486373901, 0.0, 0.0, 0.0, 0.0, 0.0, 1.6518373741266332E9, 0.0, 2022-05-06 12:42:54.126
50.0, -248.40041515696794, -110.67111948877573, -156.7429470429197, -160.73155034566298, 0.144000006839633, 0.11200000531971455, 1.0240000486373901, 0.0, 0.0, 0.0, 0.0, 0.0, 1.65183737414271E9, 0.0, 2022-05-06 12:42:54.142
50.0, -193.55478230677545, -56.8801384260878, -109.6089879013598, -142.4210001626052, 0.144000006839633, 0.11200000531971455, 1.0240000486373901, 0.0, 0.0, 0.0, 0.0, 0.0, 1.65183737414271E9, 0.0, 2022-05-06 12:42:54.142
51.0, -266.43795264326036, -208.19275073334575, -207.77388193830848, -214.24577881162986, 0.144000006839633, 0.11200000531971455, 1.0240000486373901, 0.0, 0.0, 0.0, 0.0, 0.0, 1.6518373741436453E9, 0.0, 2022-05-06 12:42:54.143
51.0, -311.1821157131344, -255.4164674738422, -250.4536202326417, -236.08305465290323, 0.144000006839633, 0.11200000531971455, 1.0240000486373901, 0.0, 0.0, 0.0, 0.0, 0.0, 1.6518373741436453E9, 0.0, 2022-05-06 12:42:54.143
52.0, -253.79709079302847, -109.7174450000748, -172.8993148515001, -177.40776424808428, 0.144000006839633, 0.11200000531971455, 1.0240000486373901, 0.0, 0.0, 0.0, 0.0, 0.0, 1.6518373741566484E9, 0.0, 2022-05-06 12:42:54.156
52.0, -211.506302094087, -70.23158126790076, -123.28954193927348, -151.14618675922975, 0.144000006839633, 0.11200000531971455, 1.0240000486373901, 0.0, 0.0, 0.0, 0.0, 0.0, 1.6518373741566484E9, 0.0, 2022-05-06 12:42:54.156
53.0, -274.3441011495888, -211.77931479085237, -205.01757567096502, -206.1114964080043, 0.144000006839633, 0.11200000531971455, 1.0240000486373901, 0.0, 0.0, 0.0, 0.0, 0.0, 1.6518373741726367E9, 0.0, 2022-05-06 12:42:54.172
53.0, -316.6722888480872, -256.88624815642834, -252.1178757129237, -239.6883182101883, 0.144000006839633, 0.11200000531971455, 1.0240000486373901, 0.0, 0.0, 0.0, 0.0, 0.0, 1.6518373741726367E9, 0.0, 2022-05-06 12:42:54.172
54.0, -247.97780646197498, -107.09577513113618, -176.17172731272876, -183.8478719717823, 0.144000006839633, 0.11200000531971455, 1.0240000486373901, 0.0, 0.0, 0.0, 0.0, 0.0, 1.6518373741735804E9, 0.0, 2022-05-06 12:42:54.173
54.0, -208.85471302550286, -69.04229308199137, -125.30908791534603, -153.70801822887734, 0.144000006839633, 0.11200000531971455, 1.0240000486373901, 0.0, 0.0, 0.0, 0.0, 0.0, 1.6518373741735804E9, 0.0, 2022-05-06 12:42:54.173
55.0, -273.7644166564569, -219.3301728013903, -212.81526707857847, -212.46184653276578, 0.144000006839633, 0.11200000531971455, 1.0240000486373901, 0.0, 0.0, 0.0, 0.0, 0.0, 1.6518373741866434E9, 0.0, 2022-05-06 12:42:54.186
55.0, -301.2826005304232, -249.75799884088337, -245.10930319596082, -242.19031128054485, 0.144000006839633, 0.11200000531971455, 1.0240000486373901, 0.0, 0.0, 0.0, 0.0, 0.0, 1.6518373741866434E9, 0.0, 2022-05-06 12:42:54.186
56.0, -249.7467791410163, -113.74531725235283, -167.8915888108313, -184.33779886597767, 0.144000006839633, 0.11200000531971455, 1.0240000486373901, 0.0, 0.0, 0.0, 0.0, 0.0, 1.6518373742026803E9, 0.0, 2022-05-06 12:42:54.202
56.0, -212.07102698739618, -67.7370679974556, -120.47339727263898, -143.3410155517049, 0.144000006839633, 0.11200000531971455, 1.0240000486373901, 0.0, 0.0, 0.0, 0.0, 0.0, 1.6518373742026803E9, 0.0, 2022-05-06 12:42:54.202
57.0, -272.58634817041457, -218.04738711658865, -217.05257372837514, -214.03634441411123, 0.144000006839633, 0.11200000531971455, 1.0240000486373901, 0.0, 0.0, 0.0, 0.0, 0.0, 1.651837374203605E9, 0.0, 2022-05-06 12:42:54.203
57.0, -314.94445506855845, -257.62674834765494, -249.2269330471754, -234.44871837226674, 0.144000006839633, 0.11200000531971455, 1.0240000486373901, 0.0, 0.0, 0.0, 0.0, 0.0, 1.651837374203605E9, 0.0, 2022-05-06 12:42:54.203
58.0, -243.5983836138621, -99.58605602011085, -153.73232757858932, -159.59462075913325, 0.144000006839633, 0.11200000531971455, 1.0240000486373901, 0.0, 0.0, 0.0, 0.0, 0.0, 1.6518373742166648E9, 0.0, 2022-05-06 12:42:54.216
58.0, -203.52535558864474, -68.3279721904546, -122.96043074317276, -148.00841069640592, 0.144000006839633, 0.11200000531971455, 1.0240000486373901, 0.0, 0.0, 0.0, 0.0, 0.0, 1.6518373742166648E9, 0.0, 2022-05-06 12:42:54.216
59.0, -272.84814116731286, -226.1031316211447, -221.2936202781275, -224.25001119310036, 0.144000006839633, 0.11200000531971455, 1.0240000486373901, 0.0, 0.0, 0.0, 0.0, 0.0, 1.6518373742327285E9, 0.0, 2022-05-06 12:42:54.232
59.0, -317.6259633367881, -255.01629817858338, -254.88166178017855, -246.86518622515723, 0.144000006839633, 0.11200000531971455, 1.0240000486373901, 0.0, 0.0, 0.0, 0.0, 0.0, 1.6518373742327285E9, 0.0, 2022-05-06 12:42:54.232
60.0, -240.76353944744915, -91.58641001489013, -154.4391686702147, -160.07332795346156, 0.144000006839633, 0.11200000531971455, 1.0240000486373901, 0.0, 0.0, 0.0, 0.0, 0.0, 1.6518373742336042E9, 0.0, 2022-05-06 12:42:54.233
60.0, -195.21529788710177, -59.06050010025501, -109.91565969772637, -132.196113683749, 0.144000006839633, 0.11200000531971455, 1.0240000486373901, 0.0, 0.0, 0.0, 0.0, 0.0, 1.6518373742336042E9, 0.0, 2022-05-06 12:42:54.233
61.0, -274.22816425096244, -214.42716395948082, -219.16935710329562, -216.21296618832275, 0.144000006839633, 0.11200000531971455, 1.0240000486373901, 0.0, 0.0, 0.0, 0.0, 0.0, 1.6518373742466588E9, 0.0, 2022-05-06 12:42:54.246
61.0, -306.2230083718896, -244.2229469064623, -243.1495956191793, -222.85128860967234, 0.144000006839633, 0.11200000531971455, 1.0240000486373901, 0.0, 0.0, 0.0, 0.0, 0.0, 1.6518373742466588E9, 0.0, 2022-05-06 12:42:54.246
62.0, -231.888756852597, -95.86485556419939, -157.82377813011408, -163.28964191535488, 0.12800000607967377, 0.11200000531971455, 1.0240000486373901, 0.0, 0.0, 0.0, 0.0, 0.0, 1.6518373742626295E9, 0.0, 2022-05-06 12:42:54.262
62.0, -202.70631749834865, -61.719568968750536, -117.81058850418776, -138.72971890633926, 0.12800000607967377, 0.11200000531971455, 1.0240000486373901, 0.0, 0.0, 0.0, 0.0, 0.0, 1.6518373742626295E9, 0.0, 2022-05-06 12:42:54.262
63.0, -279.18353169225156, -215.50051524676383, -219.59196579828858, -221.40020742686465, 0.12800000607967377, 0.11200000531971455, 1.0240000486373901, 0.0, 0.0, 0.0, 0.0, 0.0, 1.651837374263577E9, 0.0, 2022-05-06 12:42:54.263
63.0, -322.17368168290704, -255.06117697805166, -252.7499188054353, -252.94626355310902, 0.12800000607967377, 0.11200000531971455, 1.0240000486373901, 0.0, 0.0, 0.0, 0.0, 0.0, 1.651837374263577E9, 0.0, 2022-05-06 12:42:54.263
64.0, -240.80093844700605, -100.59582900814712, -172.90305475145578, -173.05078079970554, 0.12800000607967377, 0.11200000531971455, 1.0240000486373901, 0.0, 0.0, 0.0, 0.0, 0.0, 1.6518373742766485E9, 0.0, 2022-05-06 12:42:54.276
64.0, -188.76771036349237, -71.6265639513731, -126.99952269531786, -151.12000745953992, 0.12800000607967377, 0.11200000531971455, 1.0240000486373901, 0.0, 0.0, 0.0, 0.0, 0.0, 1.6518373742766485E9, 0.0, 2022-05-06 12:42:54.276
65.0, -288.56320078112185, -218.46625591162592, -211.99996888823807, -212.52168493205681, 0.12800000607967377, 0.11200000531971455, 1.0240000486373901, 0.0, 0.0, 0.0, 0.0, 0.0, 1.6518373742926352E9, 0.0, 2022-05-06 12:42:54.292
65.0, -323.4789067674428, -253.00049210246652, -249.14465524815023, -231.15012661134824, 0.12800000607967377, 0.11200000531971455, 1.0240000486373901, 0.0, 0.0, 0.0, 0.0, 0.0, 1.6518373742926352E9, 0.0, 2022-05-06 12:42:54.292
66.0, -241.39558253996074, -96.20518646016717, -148.52638684026897, -156.96547109028324, 0.12800000607967377, 0.11200000531971455, 1.0240000486373901, 0.0, 0.0, 0.0, 0.0, 0.0, 1.65183737429357E9, 0.0, 2022-05-06 12:42:54.293
66.0, -206.6519119516015, -71.46574825327843, -124.03004213050008, -141.32146957563236, 0.12800000607967377, 0.11200000531971455, 1.0240000486373901, 0.0, 0.0, 0.0, 0.0, 0.0, 1.65183737429357E9, 0.0, 2022-05-06 12:42:54.293
67.0, -279.2097109919414, -223.12617125641555, -220.68775648530573, -227.70941865211353, 0.12800000607967377, 0.11200000531971455, 1.0240000486373901, 0.0, 0.0, 0.0, 0.0, 0.0, 1.651837374306646E9, 0.0, 2022-05-06 12:42:54.306
67.0, -314.05809877905995, -254.90784107986838, -254.07010348979384, -239.2058711159043, 0.12800000607967377, 0.11200000531971455, 1.0240000486373901, 0.0, 0.0, 0.0, 0.0, 0.0, 1.651837374306646E9, 0.0, 2022-05-06 12:42:54.306
68.0, -233.7026083311066, -95.09069627337158, -151.4435088057071, -163.14378581708297, 0.12800000607967377, 0.11200000531971455, 1.0240000486373901, 0.0, 0.0, 0.0, 0.0, 0.0, 1.651837374338678E9, 0.0, 2022-05-06 12:42:54.338
68.0, -203.37575959041715, -72.31844544317573, -125.35770661477, -150.26731026964262, 0.12800000607967377, 0.11200000531971455, 1.0240000486373901, 0.0, 0.0, 0.0, 0.0, 0.0, 1.651837374338678E9, 0.0, 2022-05-06 12:42:54.338
69.0, -281.0946205696091, -219.7340819966048, -218.23812201432884, -215.91377419186756, 0.12800000607967377, 0.11200000531971455, 1.0240000486373901, 0.0, 0.0, 0.0, 0.0, 0.0, 1.6518373743396485E9, 0.0, 2022-05-06 12:42:54.339
69.0, -310.6211307197809, -248.91278145089746, -241.95656753331423, -231.10524781187996, 0.12800000607967377, 0.11200000531971455, 1.0240000486373901, 0.0, 0.0, 0.0, 0.0, 0.0, 1.6518373743396485E9, 0.0, 2022-05-06 12:42:54.339
70.0, -229.0688722860068, -86.06631768029183, -150.38511711824685, -155.88464000308886, 0.12800000607967377, 0.11200000531971455, 1.0240000486373901, 0.0, 0.0, 0.0, 0.0, 0.0, 1.6518373743406453E9, 0.0, 2022-05-06 12:42:54.340
70.0, -186.76686388719827, -57.699176516383886, -119.2803691867739, -146.05992281949148, 0.12800000607967377, 0.11200000531971455, 1.0240000486373901, 0.0, 0.0, 0.0, 0.0, 0.0, 1.6518373743406453E9, 0.0, 2022-05-06 12:42:54.340
71.0, -284.2136971326545, -224.28554024267942, -215.0704267518595, -222.97096540825441, 0.12800000607967377, 0.11200000531971455, 1.0240000486373901, 0.0, 0.0, 0.0, 0.0, 0.0, 1.6518373743416026E9, 0.0, 2022-05-06 12:42:54.341
71.0, -315.1464096661657, -252.4956056084484, -258.74123853445053, -241.74152328586206, 0.12800000607967377, 0.11200000531971455, 1.0240000486373901, 0.0, 0.0, 0.0, 0.0, 0.0, 1.6518373743416026E9, 0.0, 2022-05-06 12:42:54.341
72.0, -250.98842592630535, -103.69620607141405, -165.17268154304475, -168.48810285376385, 0.12800000607967377, 0.11200000531971455, 1.0240000486373901, 0.0, 0.0, 0.0, 0.0, 0.0, 1.6518373743516533E9, 0.0, 2022-05-06 12:42:54.351
72.0, -195.39481308497488, -60.881831378676, -105.41282015107572, -123.07075779186562, 0.12800000607967377, 0.11200000531971455, 1.0240000486373901, 0.0, 0.0, 0.0, 0.0, 0.0, 1.6518373743516533E9, 0.0, 2022-05-06 12:42:54.351
73.0, -252.03933781385422, -204.5052093770355, -207.5831470405683, -192.52817976893857, 0.12800000607967377, 0.11200000531971455, 1.0240000486373901, 0.0, 0.0, 0.0, 0.0, 0.0, 1.6518373743666356E9, 0.0, 2022-05-06 12:42:54.366
73.0, -300.0409537451342, -242.1136433314532, -252.53674450796098, -247.18307772139087, 0.12800000607967377, 0.11200000531971455, 1.0240000486373901, 0.0, 0.0, 0.0, 0.0, 0.0, 1.6518373743666356E9, 0.0, 2022-05-06 12:42:54.366
74.0, -245.1878410950303, -94.36141578201205, -143.72435529716313, -160.9073256435804, 0.12800000607967377, 0.11200000531971455, 1.0240000486373901, 0.0, 0.0, 0.0, 0.0, 0.0, 1.6518373743826923E9, 0.0, 2022-05-06 12:42:54.382
74.0, -195.4247322846204, -61.955182665959, -109.4967909026891, -135.15063464874402, 0.12800000607967377, 0.11200000531971455, 1.0240000486373901, 0.0, 0.0, 0.0, 0.0, 0.0, 1.6518373743826923E9, 0.0, 2022-05-06 12:42:54.382
75.0, -280.2905420791358, -222.1388376681134, -219.94351639412344, -229.35871453257278, 0.12800000607967377, 0.11200000531971455, 1.0240000486373901, 0.0, 0.0, 0.0, 0.0, 0.0, 1.6518373743836381E9, 0.0, 2022-05-06 12:42:54.383
75.0, -313.9720810800791, -251.0033855261281, -250.14320853631943, -241.03842209419236, 0.12800000607967377, 0.11200000531971455, 1.0240000486373901, 0.0, 0.0, 0.0, 0.0, 0.0, 1.6518373743836381E9, 0.0, 2022-05-06 12:42:54.383
76.0, -245.9694801857695, -107.70911872386932, -166.50408592727035, -178.18566343886778, 0.12800000607967377, 0.11200000531971455, 1.0240000486373901, 0.0, 0.0, 0.0, 0.0, 0.0, 1.6518373743966453E9, 0.0, 2022-05-06 12:42:54.396
76.0, -213.4398303711787, -81.02493254002184, -116.62878011818975, -154.80754881585017, 0.12800000607967377, 0.11200000531971455, 1.0240000486373901, 0.0, 0.0, 0.0, 0.0, 0.0, 1.6518373743966453E9, 0.0, 2022-05-06 12:42:54.396
77.0, -283.1253862455487, -224.42017664108425, -218.3951978124678, -215.18823360046372, 0.12800000607967377, 0.11200000531971455, 1.0240000486373901, 0.0, 0.0, 0.0, 0.0, 0.0, 1.6518373744127548E9, 0.0, 2022-05-06 12:42:54.412
77.0, -309.6562365312129, -254.98637897893786, -254.99385877884924, -250.2871946846135, 0.12800000607967377, 0.11200000531971455, 1.0240000486373901, 0.0, 0.0, 0.0, 0.0, 0.0, 1.6518373744127548E9, 0.0, 2022-05-06 12:42:54.412
78.0, -238.82627127040178, -88.86750274710357, -154.30453227180988, -146.06366271944717, 0.12800000607967377, 0.11200000531971455, 1.0240000486373901, 0.0, 0.0, 0.0, 0.0, 0.0, 1.6518373744135857E9, 0.0, 2022-05-06 12:42:54.413
78.0, -205.12229286972433, -73.23472093231976, -134.67379740439355, -155.00202361354604, 0.12800000607967377, 0.11200000531971455, 1.0240000486373901, 0.0, 0.0, 0.0, 0.0, 0.0, 1.6518373744135857E9, 0.0, 2022-05-06 12:42:54.413
79.0, -277.3883797135204, -225.59824512712657, -224.1434240443632, -226.1648399704136, 0.12800000607967377, 0.11200000531971455, 1.0240000486373901, 0.0, 0.0, 0.0, 0.0, 0.0, 1.6518373744266253E9, 0.0, 2022-05-06 12:42:54.426
79.0, -310.27705992385745, -248.27325855847448, -251.897221615538, -236.35980724962428, 0.12800000607967377, 0.11200000531971455, 1.0240000486373901, 0.0, 0.0, 0.0, 0.0, 0.0, 1.6518373744266253E9, 0.0, 2022-05-06 12:42:54.426
80.0, -241.6311962371692, -98.6024623317644, -153.91558267641813, -173.59680619323626, 0.12800000607967377, 0.11200000531971455, 1.0240000486373901, 0.0, 0.0, 0.0, 0.0, 0.0, 1.65183737444269E9, 0.0, 2022-05-06 12:42:54.442
80.0, -202.18647140450776, -70.91224305983633, -121.7973218569532, -147.80271619884297, 0.12800000607967377, 0.11200000531971455, 1.0240000486373901, 0.0, 0.0, 0.0, 0.0, 0.0, 1.65183737444269E9, 0.0, 2022-05-06 12:42:54.442
81.0, -269.1979988105595, -219.55830669868737, -221.20760257914662, -215.05733710201457, 0.12800000607967377, 0.11200000531971455, 1.0240000486373901, 0.0, 0.0, 0.0, 0.0, 0.0, 1.651837374443644E9, 0.0, 2022-05-06 12:42:54.443
81.0, -305.1384373847395, -244.8961288984865, -240.40450905170292, -231.4605383076705, 0.12800000607967377, 0.11200000531971455, 1.0240000486373901, 0.0, 0.0, 0.0, 0.0, 0.0, 1.651837374443644E9, 0.0, 2022-05-06 12:42:54.443
82.0, -224.39773724135011, -80.56492484547198, -144.93608288280666, -145.88788742152974, 0.12800000607967377, 0.11200000531971455, 1.0240000486373901, 0.0, 0.0, 0.0, 0.0, 0.0, 1.6518373744566247E9, 0.0, 2022-05-06 12:42:54.456
82.0, -204.98017667140812, -70.59809146355838, -122.77343574538827, -154.75145031651482, 0.12800000607967377, 0.11200000531971455, 1.0240000486373901, 0.0, 0.0, 0.0, 0.0, 0.0, 1.6518373744566247E9, 0.0, 2022-05-06 12:42:54.456
83.0, -272.67236586939543, -231.91493615228683, -228.59764489158988, -228.52845674240962, 0.12800000607967377, 0.11200000531971455, 1.0240000486373901, 0.0, 0.0, 0.0, 0.0, 0.0, 1.651837374472654E9, 0.0, 2022-05-06 12:42:54.472
83.0, -306.17064977250993, -240.47930705081671, -237.3340511880815, -208.88650217512622, 0.12800000607967377, 0.11200000531971455, 1.0240000486373901, 0.0, 0.0, 0.0, 0.0, 0.0, 1.651837374472654E9, 0.0, 2022-05-06 12:42:54.472
84.0, -228.6275640912354, -85.79704488348216, -138.9597227536142, -150.10649457154796, 0.12800000607967377, 0.11200000531971455, 1.0240000486373901, 0.0, 0.0, 0.0, 0.0, 0.0, 1.6518373744735804E9, 0.0, 2022-05-06 12:42:54.473
84.0, -209.09406662266701, -70.46719496510923, -122.18627145234495, -155.46951110800728, 0.12800000607967377, 0.11200000531971455, 1.0240000486373901, 0.0, 0.0, 0.0, 0.0, 0.0, 1.6518373744735804E9, 0.0, 2022-05-06 12:42:54.473
85.0, -271.63267368171364, -220.46710238792002, -212.22810278553516, -215.0087184025906, 0.12800000607967377, 0.11200000531971455, 1.0240000486373901, 0.0, 0.0, 0.0, 0.0, 0.0, 1.6518373744866283E9, 0.0, 2022-05-06 12:42:54.486
85.0, -304.4054169934243, -240.93931474536657, -251.43347402103245, -231.56525550642982, 0.12800000607967377, 0.11200000531971455, 1.0240000486373901, 0.0, 0.0, 0.0, 0.0, 0.0, 1.6518373744866283E9, 0.0, 2022-05-06 12:42:54.486
86.0, -252.55544400773942, -99.20458622463048, -161.7768523832783, -177.74435524409637, 0.12800000607967377, 0.11200000531971455, 1.0240000486373901, 0.0, 0.0, 0.0, 0.0, 0.0, 1.651837374502711E9, 0.0, 2022-05-06 12:42:54.502
86.0, -204.23593658022583, -72.78593293763697, -129.86802596133202, -156.00431680167094, 0.12800000607967377, 0.11200000531971455, 1.0240000486373901, 0.0, 0.0, 0.0, 0.0, 0.0, 1.651837374502711E9, 0.0, 2022-05-06 12:42:54.502
87.0, -274.1945051513612, -224.76798733696342, -209.30724092014134, -213.1612078244798, 0.12800000607967377, 0.11200000531971455, 1.0240000486373901, 0.0, 0.0, 0.0, 0.0, 0.0, 1.6518373745036025E9, 0.0, 2022-05-06 12:42:54.503
87.0, -307.98076135106385, -243.8601766107604, -245.9320811862126, -216.8674486805685, 0.12800000607967377, 0.11200000531971455, 1.0240000486373901, 0.0, 0.0, 0.0, 0.0, 0.0, 1.6518373745036025E9, 0.0, 2022-05-06 12:42:54.503
88.0, -235.13125011418015, -89.47336653992534, -159.15892241429538, -179.1430778275244, 0.12800000607967377, 0.11200000531971455, 1.0240000486373901, 0.0, 0.0, 0.0, 0.0, 0.0, 1.6518373745166576E9, 0.0, 2022-05-06 12:42:54.516
88.0, -206.9511039480567, -75.63573670387268, -127.61286628805101, -160.88488624384627, 0.12800000607967377, 0.11200000531971455, 1.0240000486373901, 0.0, 0.0, 0.0, 0.0, 0.0, 1.6518373745166576E9, 0.0, 2022-05-06 12:42:54.516
89.0, -268.3453016206622, -216.6636241329834, -208.44332403037697, -216.94598657963797, 0.12800000607967377, 0.11200000531971455, 1.0240000486373901, 0.0, 0.0, 0.0, 0.0, 0.0, 1.6518373745327003E9, 0.0, 2022-05-06 12:42:54.532
89.0, -304.5849321912974, -238.79635207075626, -247.80577106401324, -230.02815662464127, 0.12800000607967377, 0.11200000531971455, 1.0240000486373901, 0.0, 0.0, 0.0, 0.0, 0.0, 1.6518373745327003E9, 0.0, 2022-05-06 12:42:54.532
90.0, -234.4057095227763, -88.71790674887598, -152.98808748740703, -166.04220828274265, 0.12800000607967377, 0.11200000531971455, 1.0240000486373901, 0.0, 0.0, 0.0, 0.0, 0.0, 1.6518373745336483E9, 0.0, 2022-05-06 12:42:54.533
90.0, -203.48421668913215, -86.03265858069062, -123.92532493174076, -151.25090395798907, 0.12800000607967377, 0.11200000531971455, 1.0240000486373901, 0.0, 0.0, 0.0, 0.0, 0.0, 1.6518373745336483E9, 0.0, 2022-05-06 12:42:54.533
91.0, -270.9033931903541, -219.90985729452223, -213.56698696967214, -210.1580681600608, 0.12800000607967377, 0.11200000531971455, 1.0240000486373901, 0.0, 0.0, 0.0, 0.0, 0.0, 1.6518373745466824E9, 0.0, 2022-05-06 12:42:54.546
91.0, -298.97134235780686, -242.1510423310101, -235.34068451169878, -231.32216200930998, 0.12800000607967377, 0.11200000531971455, 1.0240000486373901, 0.0, 0.0, 0.0, 0.0, 0.0, 1.6518373745466824E9, 0.0, 2022-05-06 12:42:54.546
92.0, -228.87813738826662, -90.33354352973402, -138.7652479559183, -159.52730255993083, 0.12800000607967377, 0.11200000531971455, 1.0240000486373901, 0.0, 0.0, 0.0, 0.0, 0.0, 1.6518373745626352E9, 0.0, 2022-05-06 12:42:54.562
92.0, -197.73599045723677, -70.09320496954024, -121.25503636337817, -147.754097499419, 0.12800000607967377, 0.11200000531971455, 1.0240000486373901, 0.0, 0.0, 0.0, 0.0, 0.0, 1.6518373745626352E9, 0.0, 2022-05-06 12:42:54.562
93.0, -267.9787914250046, -214.37106546014547, -208.60039982851595, -214.21959951194003, 0.12800000607967377, 0.11200000531971455, 1.0240000486373901, 0.0, 0.0, 0.0, 0.0, 0.0, 1.6518373745635889E9, 0.0, 2022-05-06 12:42:54.563
93.0, -285.690957615152, -228.37699079420418, -223.80309314839542, -194.8543975413777, 0.12800000607967377, 0.11200000531971455, 1.0240000486373901, 0.0, 0.0, 0.0, 0.0, 0.0, 1.6518373745635889E9, 0.0, 2022-05-06 12:42:54.563
94.0, -232.80129244178534, -90.73371282499284, -155.54617905709893, -168.82843374973163, 0.12800000607967377, 0.11200000531971455, 1.0240000486373901, 0.0, 0.0, 0.0, 0.0, 0.0, 1.6518373745766351E9, 0.0, 2022-05-06 12:42:54.576
94.0, -194.44861839618534, -77.28877248428762, -124.05622143018991, -158.30435527442023, 0.12800000607967377, 0.11200000531971455, 1.0240000486373901, 0.0, 0.0, 0.0, 0.0, 0.0, 1.6518373745766351E9, 0.0, 2022-05-06 12:42:54.576
95.0, -279.901592483744, -231.26419355999678, -228.09649829752743, -226.55004966584966, 0.12800000607967377, 0.11200000531971455, 1.0240000486373901, 0.0, 0.0, 0.0, 0.0, 0.0, 1.6518373745926921E9, 0.0, 2022-05-06 12:42:54.592
95.0, -304.78688678890467, -233.336098135449, -234.5141666214913, -226.389233967755, 0.12800000607967377, 0.11200000531971455, 1.0240000486373901, 0.0, 0.0, 0.0, 0.0, 0.0, 1.6518373745926921E9, 0.0, 2022-05-06 12:42:54.592
96.0, -236.34297769982368, -95.9359136633575, -151.56318560428917, -165.03991509461775, 0.12800000607967377, 0.11200000531971455, 1.0240000486373901, 0.0, 0.0, 0.0, 0.0, 0.0, 1.651837374593645E9, 0.0, 2022-05-06 12:42:54.593
96.0, -213.89609816577286, -84.5217389985919, -135.26096169743687, -161.21399743994698, 0.12800000607967377, 0.11200000531971455, 1.0240000486373901, 0.0, 0.0, 0.0, 0.0, 0.0, 1.651837374593645E9, 0.0, 2022-05-06 12:42:54.593
97.0, -287.56838739290833, -229.09505158569664, -224.5884721390903, -225.17002658220008, 0.12800000607967377, 0.11200000531971455, 1.0240000486373901, 0.0, 0.0, 0.0, 0.0, 0.0, 1.6518373746066587E9, 0.0, 2022-05-06 12:42:54.606
97.0, -295.1080257035792, -228.61260449141264, -222.28469376638532, -205.95816050982103, 0.12800000607967377, 0.11200000531971455, 1.0240000486373901, 0.0, 0.0, 0.0, 0.0, 0.0, 1.6518373746066587E9, 0.0, 2022-05-06 12:42:54.606
98.0, -229.68969567865133, -82.2628394253552, -143.6944360975176, -154.6803922173567, 0.12800000607967377, 0.11200000531971455, 1.0240000486373901, 0.0, 0.0, 0.0, 0.0, 0.0, 1.651837374622707E9, 0.0, 2022-05-06 12:42:54.622
98.0, -202.78485539741814, -70.74020766187459, -130.16721795778722, -159.58714095922187, 0.12800000607967377, 0.11200000531971455, 1.0240000486373901, 0.0, 0.0, 0.0, 0.0, 0.0, 1.651837374622707E9, 0.0, 2022-05-06 12:42:54.622
99.0, -287.01488219946623, -236.12980340234935, -219.03846060484648, -223.8648014976643, 0.12800000607967377, 0.11200000531971455, 1.0240000486373901, 0.0, 0.0, 0.0, 0.0, 0.0, 1.6518373746235907E9, 0.0, 2022-05-06 12:42:54.623
99.0, -308.97557473927736, -240.35215045232326, -239.39099616371095, -223.32251600408927, 0.12800000607967377, 0.11200000531971455, 1.0240000486373901, 0.0, 0.0, 0.0, 0.0, 0.0, 1.6518373746235907E9, 0.0, 2022-05-06 12:42:54.623
100.0, -232.93218894023448, -90.46444002818316, -157.24035373702645, -165.6943975868635, 0.12800000607967377, 0.11200000531971455, 1.0240000486373901, 0.0, 0.0, 0.0, 0.0, 0.0, 1.6518373746376965E9, 0.0, 2022-05-06 12:42:54.637
100.0, -211.5811000932008, -80.84541734214872, -134.71493630390614, -169.41559804277495, 0.12800000607967377, 0.11200000531971455, 1.0240000486373901, 0.0, 0.0, 0.0, 0.0, 0.0, 1.6518373746376965E9, 0.0, 2022-05-06 12:42:54.637
0.0, -270.77249669190496, -230.2712501217611, -220.74759488459677, -224.91571338521317, 0.12800000607967377, 0.11200000531971455, 1.0240000486373901, 0.0, 0.0, 0.0, 0.0, 0.0, 1.6518373746385908E9, 0.0, 2022-05-06 12:42:54.638
1.0, -313.12312379013747, -249.4718964942731, -251.82990341633558, -235.0957210646011, 0.12800000607967377, 0.11200000531971455, 1.0240000486373901, 0.0, 0.0, 0.0, 0.0, 0.0, 1.6518373746517031E9, 0.0, 2022-05-06 12:42:54.651
1.0, -225.98719472251832, -83.45773746119812, -145.2913733785972, -150.00925717270002, 0.12800000607967377, 0.11200000531971455, 1.0240000486373901, 0.0, 0.0, 0.0, 0.0, 0.0, 1.6518373746517031E9, 0.0, 2022-05-06 12:42:54.651
2.0, -199.0973140411079, -63.269757500384, -119.02605598978698, -141.09333567833528, 0.12800000607967377, 0.11200000531971455, 1.0240000486373901, 0.0, 0.0, 0.0, 0.0, 0.0, 1.651837374667772E9, 0.0, 2022-05-06 12:42:54.667
2.0, -270.66029969323426, -215.42758719762787, -213.53706777002662, -211.23889924725518, 0.12800000607967377, 0.11200000531971455, 1.0240000486373901, 0.0, 0.0, 0.0, 0.0, 0.0, 1.651837374667772E9, 0.0, 2022-05-06 12:42:54.667
3.0, -302.23627501912415, -243.04300847044215, -246.17143478337675, -240.38393960194662, 0.12800000607967377, 0.11200000531971455, 1.0240000486373901, 0.0, 0.0, 0.0, 0.0, 0.0, 1.6518373746686387E9, 0.0, 2022-05-06 12:42:54.668
3.0, -226.6603767145425, -88.25976900430396, -151.0695188101381, -157.93036527885124, 0.12800000607967377, 0.11200000531971455, 1.0240000486373901, 0.0, 0.0, 0.0, 0.0, 0.0, 1.6518373746686387E9, 0.0, 2022-05-06 12:42:54.668
4.0, -197.48915706016123, -66.02980366768315, -108.52067701425403, -133.54621756775305, 0.12800000607967377, 0.11200000531971455, 1.0240000486373901, 0.0, 0.0, 0.0, 0.0, 0.0, 1.6518373746816816E9, 0.0, 2022-05-06 12:42:54.681
4.0, -280.52989567629993, -227.44014585530385, -220.08563259243965, -216.10076918965206, 0.12800000607967377, 0.11200000531971455, 1.0240000486373901, 0.0, 0.0, 0.0, 0.0, 0.0, 1.6518373746816816E9, 0.0, 2022-05-06 12:42:54.681
5.0, -315.39324306324124, -251.59989956906065, -255.02377797849476, -242.538121976424, 0.12800000607967377, 0.11200000531971455, 1.0240000486373901, 0.0, 0.0, 0.0, 0.0, 0.0, 1.651837374697657E9, 0.0, 2022-05-06 12:42:54.697
5.0, -237.46868758648634, -101.0651864525862, -160.31829140055925, -178.97852222947404, 0.12800000607967377, 0.11200000531971455, 1.0240000486373901, 0.0, 0.0, 0.0, 0.0, 0.0, 1.651837374697657E9, 0.0, 2022-05-06 12:42:54.697
6.0, -212.09346638713032, -88.0989533062093, -130.85161964967847, -154.40363962063566, 0.12800000607967377, 0.11200000531971455, 1.0240000486373901, 0.0, 0.0, 0.0, 0.0, 0.0, 1.651837374698602E9, 0.0, 2022-05-06 12:42:54.698
6.0, -276.4272254249081, -240.29418200301006, -228.38821049407125, -227.81039595091715, 0.12800000607967377, 0.11200000531971455, 1.0240000486373901, 0.0, 0.0, 0.0, 0.0, 0.0, 1.651837374698602E9, 0.0, 2022-05-06 12:42:54.698
7.0, -284.9953362233937, -230.14409352326766, -234.84327781759202, -204.81375112337992, 0.12800000607967377, 0.11200000531971455, 1.0240000486373901, 0.0, 0.0, 0.0, 0.0, 0.0, 1.6518373747116342E9, 0.0, 2022-05-06 12:42:54.711
7.0, -231.24923396017402, -77.2420237348415, -143.17085010372102, -151.51269695488736, 0.12800000607967377, 0.11200000531971455, 1.0240000486373901, 0.0, 0.0, 0.0, 0.0, 0.0, 1.6518373747116342E9, 0.0, 2022-05-06 12:42:54.711
8.0, -199.74805663339794, -77.45145813236013, -124.73314332216978, -156.99539028992876, 0.12800000607967377, 0.11200000531971455, 1.0240000486373901, 0.0, 0.0, 0.0, 0.0, 0.0, 1.6518373747276573E9, 0.0, 2022-05-06 12:42:54.727
8.0, -271.954305077903, -228.65187344094738, -225.42994962912053, -222.95600580843166, 0.12800000607967377, 0.11200000531971455, 1.0240000486373901, 0.0, 0.0, 0.0, 0.0, 0.0, 1.6518373747276573E9, 0.0, 2022-05-06 12:42:54.727
9.0, -306.5147205684334, -244.36319315480068, -258.25131164025515, -241.0982604934834, 0.12800000607967377, 0.11200000531971455, 1.0240000486373901, 0.0, 0.0, 0.0, 0.0, 0.0, 1.6518373747285805E9, 0.0, 2022-05-06 12:42:54.728
9.0, -242.54373182635754, -92.90472474927083, -153.4780143816024, -171.18831062177196, 0.12800000607967377, 0.11200000531971455, 1.0240000486373901, 0.0, 0.0, 0.0, 0.0, 0.0, 1.6518373747285805E9, 0.0, 2022-05-06 12:42:54.728
10.0, -208.78739482630044, -79.48596370825544, -126.7639089981094, -148.3524814923294, 0.12800000607967377, 0.11200000531971455, 1.0240000486373901, 0.0, 0.0, 0.0, 0.0, 0.0, 1.6518373747416859E9, 0.0, 2022-05-06 12:42:54.741
10.0, -269.26157710980624, -223.20657910546288, -218.63829130958766, -218.0155979669653, 0.12800000607967377, 0.11200000531971455, 1.0240000486373901, 0.0, 0.0, 0.0, 0.0, 0.0, 1.6518373747416859E9, 0.0, 2022-05-06 12:42:54.741
11.0, -298.89654435869306, -235.37621356127784, -248.46025355625898, -230.62280071759596, 0.12800000607967377, 0.11200000531971455, 1.0240000486373901, 0.0, 0.0, 0.0, 0.0, 0.0, 1.6518373747576485E9, 0.0, 2022-05-06 12:42:54.757
11.0, -231.28289305977523, -85.21549044037238, -143.91135029494762, -159.06355496542528, 0.12800000607967377, 0.11200000531971455, 1.0240000486373901, 0.0, 0.0, 0.0, 0.0, 0.0, 1.6518373747576485E9, 0.0, 2022-05-06 12:42:54.757
12.0, -201.17669841647148, -72.91121958615258, -120.08444767724723, -142.64913405990228, 0.12800000607967377, 0.11200000531971455, 1.0240000486373901, 0.0, 0.0, 0.0, 0.0, 0.0, 1.65183737475865E9, 0.0, 2022-05-06 12:42:54.758
12.0, -271.6438933815807, -223.03454370750114, -215.75482844375074, -210.8611693517305, 0.12800000607967377, 0.11200000531971455, 1.0240000486373901, 0.0, 0.0, 0.0, 0.0, 0.0, 1.65183737475865E9, 0.0, 2022-05-06 12:42:54.758
13.0, -299.850218847394, -240.67939169844612, -243.4899265151471, -223.72642519930378, 0.12800000607967377, 0.11200000531971455, 1.0240000486373901, 0.0, 0.0, 0.0, 0.0, 0.0, 1.6518373747716413E9, 0.0, 2022-05-06 12:42:54.771
13.0, -221.71248907316476, -80.71639079367742, -141.63375122193247, -154.59811441833153, 0.12800000607967377, 0.11200000531971455, 1.0240000486373901, 0.0, 0.0, 0.0, 0.0, 0.0, 1.6518373747716413E9, 0.0, 2022-05-06 12:42:54.771
14.0, -189.08186195977032, -63.236098400782794, -112.34285476896912, -140.03494399087504, 0.12800000607967377, 0.11200000531971455, 1.0240000486373901, 0.0, 0.0, 0.0, 0.0, 0.0, 1.651837374787641E9, 0.0, 2022-05-06 12:42:54.787
14.0, -268.2443243218586, -217.59672917192802, -210.18611740972847, -214.5300112082623, 0.12800000607967377, 0.11200000531971455, 1.0240000486373901, 0.0, 0.0, 0.0, 0.0, 0.0, 1.651837374787641E9, 0.0, 2022-05-06 12:42:54.787
15.0, -293.4736894229427, -244.74092305032536, -246.9717733738944, -229.81872222712263, 0.12800000607967377, 0.11200000531971455, 1.0240000486373901, 0.0, 0.0, 0.0, 0.0, 0.0, 1.651837374788658E9, 0.0, 2022-05-06 12:42:54.788
15.0, -224.12846444454044, -85.45484403753653, -134.30354730878025, -144.14135414222255, 0.12800000607967377, 0.11200000531971455, 1.0240000486373901, 0.0, 0.0, 0.0, 0.0, 0.0, 1.651837374788658E9, 0.0, 2022-05-06 12:42:54.788
16.0, -218.05112701654434, -87.94187750807032, -129.37809906713665, -142.40978046273813, 0.12800000607967377, 0.11200000531971455, 1.0240000486373901, 0.0, 0.0, 0.0, 0.0, 0.0, 1.6518373748016284E9, 0.0, 2022-05-06 12:42:54.801
16.0, -285.33566711936146, -235.2378372629173, -225.35889152996242, -229.9084798260592, 0.12800000607967377, 0.11200000531971455, 1.0240000486373901, 0.0, 0.0, 0.0, 0.0, 0.0, 1.6518373748016284E9, 0.0, 2022-05-06 12:42:54.801
17.0, -296.57406648620963, -233.10609428817406, -237.31535168830305, -220.69336633523926, 0.12800000607967377, 0.11200000531971455, 1.0240000486373901, 0.0, 0.0, 0.0, 0.0, 0.0, 1.6518373748176904E9, 0.0, 2022-05-06 12:42:54.817
17.0, -226.05451292172074, -88.31586750363931, -151.697822002694, -162.55662152403966, 0.12800000607967377, 0.11200000531971455, 1.0240000486373901, 0.0, 0.0, 0.0, 0.0, 0.0, 1.6518373748176904E9, 0.0, 2022-05-06 12:42:54.817
18.0, -206.8725660489872, -79.31018841033801, -125.45120411366224, -155.47699090791866, 0.12800000607967377, 0.11200000531971455, 1.0240000486373901, 0.0, 0.0, 0.0, 0.0, 0.0, 1.6518373748186417E9, 0.0, 2022-05-06 12:42:54.818
18.0, -275.9522581305355, -232.99389728950337, -225.53466682787985, -232.5376294949092, 0.12800000607967377, 0.11200000531971455, 1.0240000486373901, 0.0, 0.0, 0.0, 0.0, 0.0, 1.6518373748186417E9, 0.0, 2022-05-06 12:42:54.818
19.0, -293.49238892272115, -234.5758749707602, -239.61165026109666, -228.25170414568856, 0.12800000607967377, 0.11200000531971455, 1.0240000486373901, 0.0, 0.0, 0.0, 0.0, 0.0, 1.6518373748316936E9, 0.0, 2022-05-06 12:42:54.831
19.0, -224.92880303505808, -85.0210156426765, -152.48694089334458, -154.11940722400323, 0.12800000607967377, 0.11200000531971455, 1.0240000486373901, 0.0, 0.0, 0.0, 0.0, 0.0, 1.6518373748316936E9, 0.0, 2022-05-06 12:42:54.831
20.0, -200.36140022613108, -77.47389753209427, -121.34105406235904, -150.11397437145934, 0.12800000607967377, 0.11200000531971455, 1.0240000486373901, 0.0, 0.0, 0.0, 0.0, 0.0, 1.6518373748476875E9, 0.0, 2022-05-06 12:42:54.847
20.0, -266.7259249398485, -231.85696770297363, -222.7372216610238, -225.1999457818456, 0.12800000607967377, 0.11200000531971455, 1.0240000486373901, 0.0, 0.0, 0.0, 0.0, 0.0, 1.6518373748476875E9, 0.0, 2022-05-06 12:42:54.847
21.0, -300.9609691342339, -228.80520933913067, -234.9292955165729, -224.39960719132796, 0.12800000607967377, 0.11200000531971455, 1.0240000486373901, 0.0, 0.0, 0.0, 0.0, 0.0, 1.6518373748485816E9, 0.0, 2022-05-06 12:42:54.848
21.0, -221.53297387529165, -71.8303884989582, -155.4414618583396, -148.03085009614006, 0.12800000607967377, 0.11200000531971455, 1.0240000486373901, 0.0, 0.0, 0.0, 0.0, 0.0, 1.6518373748485816E9, 0.0, 2022-05-06 12:42:54.848
22.0, -201.7676026094705, -77.89276632713154, -126.79756809771061, -148.4983375906013, 0.12800000607967377, 0.11200000531971455, 1.0240000486373901, 0.0, 0.0, 0.0, 0.0, 0.0, 1.6518373748776467E9, 0.0, 2022-05-06 12:42:54.877
22.0, -274.6582527458668, -229.44473223155364, -220.48580188769847, -209.88131556333974, 0.12800000607967377, 0.11200000531971455, 1.0240000486373901, 0.0, 0.0, 0.0, 0.0, 0.0, 1.6518373748776467E9, 0.0, 2022-05-06 12:42:54.877
23.0, -306.42496296949685, -239.29562871484086, -235.58003810886294, -229.84490152681246, 0.12800000607967377, 0.11200000531971455, 1.0240000486373901, 0.0, 0.0, 0.0, 0.0, 0.0, 1.6518373748936439E9, 0.0, 2022-05-06 12:42:54.893
23.0, -224.05740634538233, -81.21005758782849, -128.12523258198053, -156.6475795940496, 0.12800000607967377, 0.11200000531971455, 1.0240000486373901, 0.0, 0.0, 0.0, 0.0, 0.0, 1.6518373748936439E9, 0.0, 2022-05-06 12:42:54.893
24.0, -200.43993812520057, -79.70661780564114, -130.74316255096346, -160.8736665439792, 0.12800000607967377, 0.11200000531971455, 1.0240000486373901, 0.0, 0.0, 0.0, 0.0, 0.0, 1.6518373748945825E9, 0.0, 2022-05-06 12:42:54.894
24.0, -285.70217731501907, -238.06894152937457, -224.5847322391346, -224.9792916844599, 0.12800000607967377, 0.11200000531971455, 1.0240000486373901, 0.0, 0.0, 0.0, 0.0, 0.0, 1.6518373748945825E9, 0.0, 2022-05-06 12:42:54.894
25.0, -309.7497340301052, -242.34738707868382, -243.08975721988827, -230.9780912133865, 0.12800000607967377, 0.11200000531971455, 1.0240000486373901, 0.0, 0.0, 0.0, 0.0, 0.0, 1.6518373748955946E9, 0.0, 2022-05-06 12:42:54.895
25.0, -218.40641751233488, -83.79432845721021, -146.3983837654814, -131.94554038671777, 0.12800000607967377, 0.11200000531971455, 1.0240000486373901, 0.0, 0.0, 0.0, 0.0, 0.0, 1.6518373748955946E9, 0.0, 2022-05-06 12:42:54.895
26.0, -200.15570572856814, -77.99748352589086, -132.74400902725756, -148.4646784910001, 0.12800000607967377, 0.11200000531971455, 1.0240000486373901, 0.0, 0.0, 0.0, 0.0, 0.0, 1.6518373748965802E9, 0.0, 2022-05-06 12:42:54.896
26.0, -283.4769368413836, -241.4685105890967, -231.56338555645198, -238.06520162941888, 0.12800000607967377, 0.11200000531971455, 1.0240000486373901, 0.0, 0.0, 0.0, 0.0, 0.0, 1.6518373748965802E9, 0.0, 2022-05-06 12:42:54.896
27.0, -306.71667516604066, -234.41879917262122, -244.7502728002146, -219.2759442520328, 0.12800000607967377, 0.11200000531971455, 1.0240000486373901, 0.0, 0.0, 0.0, 0.0, 0.0, 1.6518373749066396E9, 0.0, 2022-05-06 12:42:54.906
27.0, -232.9658480398357, -87.41081171436235, -155.9949670517817, -173.37241219589487, 0.12800000607967377, 0.11200000531971455, 1.0240000486373901, 0.0, 0.0, 0.0, 0.0, 0.0, 1.6518373749066396E9, 0.0, 2022-05-06 12:42:54.906
28.0, -206.84638674929738, -87.7623623101972, -132.87116562575102, -171.2070101215504, 0.12800000607967377, 0.11200000531971455, 1.0240000486373901, 0.0, 0.0, 0.0, 0.0, 0.0, 1.6518373749216785E9, 0.0, 2022-05-06 12:42:54.921
28.0, -281.48357016500086, -234.19440517527983, -226.26394731923938, -226.76696386327967, 0.12800000607967377, 0.11200000531971455, 1.0240000486373901, 0.0, 0.0, 0.0, 0.0, 0.0, 1.6518373749216785E9, 0.0, 2022-05-06 12:42:54.921
29.0, -313.91598258074373, -248.24146940885112, -257.32007655128837, -246.18452443322167, 0.12800000607967377, 0.11200000531971455, 1.0240000486373901, 0.0, 0.0, 0.0, 0.0, 0.0, 1.651837374937713E9, 0.0, 2022-05-06 12:42:54.937
29.0, -239.31619816459715, -93.32733344426379, -154.67852226737887, -166.25912248017266, 0.12800000607967377, 0.11200000531971455, 1.0240000486373901, 0.0, 0.0, 0.0, 0.0, 0.0, 1.651837374937713E9, 0.0, 2022-05-06 12:42:54.937
30.0, -201.6928046103567, -76.92039233865216, -132.71408982761204, -156.22871079901233, 0.12800000607967377, 0.11200000531971455, 1.0240000486373901, 0.0, 0.0, 0.0, 0.0, 0.0, 1.6518373749386137E9, 0.0, 2022-05-06 12:42:54.938
30.0, -285.27208882011473, -233.54740248294547, -227.34851830638945, -226.7894032630138, 0.12800000607967377, 0.11200000531971455, 1.0240000486373901, 0.0, 0.0, 0.0, 0.0, 0.0, 1.6518373749386137E9, 0.0, 2022-05-06 12:42:54.938
31.0, -320.94325459748507, -245.59736014017835, -254.2645782874897, -235.22661756305024, 0.12800000607967377, 0.12800000607967377, 1.0240000486373901, 0.0, 0.0, 0.0, 0.0, 0.0, 1.651837374951688E9, 0.0, 2022-05-06 12:42:54.951
31.0, -232.87609044089913, -92.49707565410063, -156.10342415049672, -167.29133486794308, 0.12800000607967377, 0.12800000607967377, 1.0240000486373901, 0.0, 0.0, 0.0, 0.0, 0.0, 1.651837374951688E9, 0.0, 2022-05-06 12:42:54.951
32.0, -215.94556334149092, -90.35037307953462, -132.654251428321, -160.82878774451092, 0.12800000607967377, 0.12800000607967377, 1.0240000486373901, 0.0, 0.0, 0.0, 0.0, 0.0, 1.6518373749676795E9, 0.0, 2022-05-06 12:42:54.967
32.0, -290.53038815781474, -239.63595961080864, -229.13993038516492, -223.7937433985062, 0.12800000607967377, 0.12800000607967377, 1.0240000486373901, 0.0, 0.0, 0.0, 0.0, 0.0, 1.6518373749676795E9, 0.0, 2022-05-06 12:42:54.967
33.0, -316.9714808445424, -245.7993147377856, -253.54277759604156, -243.07666757004336, 0.12800000607967377, 0.12800000607967377, 1.0240000486373901, 0.0, 0.0, 0.0, 0.0, 0.0, 1.6518373749686346E9, 0.0, 2022-05-06 12:42:54.968
33.0, -220.57181958667934, -72.49235079111531, -132.85620602592826, -147.29408980486915, 0.12800000607967377, 0.12800000607967377, 1.0240000486373901, 0.0, 0.0, 0.0, 0.0, 0.0, 1.6518373749686346E9, 0.0, 2022-05-06 12:42:54.968
34.0, -205.46262376569211, -79.91605220315978, -124.40777202602476, -143.3410155517049, 0.12800000607967377, 0.12800000607967377, 1.0240000486373901, 0.0, 0.0, 0.0, 0.0, 0.0, 1.651837374981708E9, 0.0, 2022-05-06 12:42:54.981
34.0, -284.5428083287552, -235.76890305662528, -226.7015156140551, -224.0181373958476, 0.12800000607967377, 0.12800000607967377, 1.0240000486373901, 0.0, 0.0, 0.0, 0.0, 0.0, 1.651837374981708E9, 0.0, 2022-05-06 12:42:54.981
35.0, -312.94360859226435, -239.82669450854883, -248.88660215120763, -232.48527089552954, 0.12800000607967377, 0.12800000607967377, 1.0240000486373901, 0.0, 0.0, 0.0, 0.0, 0.0, 1.651837374997646E9, 0.0, 2022-05-06 12:42:54.997
35.0, -242.43901462759823, -87.71748351072893, -157.13189663831145, -170.25333563284948, 0.12800000607967377, 0.12800000607967377, 1.0240000486373901, 0.0, 0.0, 0.0, 0.0, 0.0, 1.651837374997646E9, 0.0, 2022-05-06 12:42:54.997
36.0, -202.9082720959559, -86.61795292375609, -133.12921872269362, -151.17610595887527, 0.12800000607967377, 0.12800000607967377, 1.0240000486373901, 0.0, 0.0, 0.0, 0.0, 0.0, 1.6518373749986005E9, 0.0, 2022-05-06 12:42:54.998
36.0, -268.637013817206, -230.92947251396254, -211.94013048894703, -216.33264298690483, 0.12800000607967377, 0.12800000607967377, 1.0240000486373901, 0.0, 0.0, 0.0, 0.0, 0.0, 1.6518373749986005E9, 0.0, 2022-05-06 12:42:54.998
37.0, -309.50664053298533, -233.56610198272392, -238.49342017434537, -228.5733355418779, 0.12800000607967377, 0.12800000607967377, 1.0240000486373901, 0.0, 0.0, 0.0, 0.0, 0.0, 1.6518373750116398E9, 0.0, 2022-05-06 12:42:55.011
37.0, -242.76438592374325, -88.86937269708142, -152.8459712890908, -170.20471693342552, 0.12800000607967377, 0.12800000607967377, 1.0240000486373901, 0.0, 0.0, 0.0, 0.0, 0.0, 1.6518373750116398E9, 0.0, 2022-05-06 12:42:55.011
38.0, -218.64203120954335, -80.73509029345587, -128.1401921818033, -153.70801822887734, 0.12800000607967377, 0.12800000607967377, 1.0240000486373901, 0.0, 0.0, 0.0, 0.0, 0.0, 1.651837375027688E9, 0.0, 2022-05-06 12:42:55.027
38.0, -288.9446705766022, -231.67745250510052, -225.05969953350723, -220.02766414312646, 0.12800000607967377, 0.12800000607967377, 1.0240000486373901, 0.0, 0.0, 0.0, 0.0, 0.0, 1.651837375027688E9, 0.0, 2022-05-06 12:42:55.027
39.0, -324.3016847576946, -242.90089227212593, -255.4538664733991, -251.2483489732258, 0.12800000607967377, 0.12800000607967377, 1.0240000486373901, 0.0, 0.0, 0.0, 0.0, 0.0, 1.6518373750286129E9, 0.0, 2022-05-06 12:42:55.028
39.0, -238.42984187509865, -88.0578144066967, -160.17243530228734, -176.68596355663612, 0.12800000607967377, 0.12800000607967377, 1.0240000486373901, 0.0, 0.0, 0.0, 0.0, 0.0, 1.6518373750286129E9, 0.0, 2022-05-06 12:42:55.028
40.0, -212.63949178066105, -89.19100409327075, -141.34203902538866, -165.38398589054123, 0.12800000607967377, 0.12800000607967377, 1.0240000486373901, 0.0, 0.0, 0.0, 0.0, 0.0, 1.6518373750416796E9, 0.0, 2022-05-06 12:42:55.041
40.0, -284.3296340312809, -236.8310346440412, -226.6641166144982, -228.2367445458658, 0.12800000607967377, 0.12800000607967377, 1.0240000486373901, 0.0, 0.0, 0.0, 0.0, 0.0, 1.6518373750416796E9, 0.0, 2022-05-06 12:42:55.041
41.0, -309.2560672359541, -233.11357408808544, -235.92036900483072, -228.51723704254255, 0.12800000607967377, 0.12800000607967377, 1.0240000486373901, 0.0, 0.0, 0.0, 0.0, 0.0, 1.6518373750576918E9, 0.0, 2022-05-06 12:42:55.057
41.0, -226.27890691906214, -78.75294331694022, -141.45049612410367, -158.66338567016646, 0.12800000607967377, 0.12800000607967377, 1.0240000486373901, 0.0, 0.0, 0.0, 0.0, 0.0, 1.6518373750576918E9, 0.0, 2022-05-06 12:42:55.057
42.0, -202.3959058020264, -80.09930730098858, -121.35975356213748, -144.39940723916516, 0.144000006839633, 0.12800000607967377, 1.0240000486373901, 0.0, 0.0, 0.0, 0.0, 0.0, 1.6518373750586026E9, 0.0, 2022-05-06 12:42:55.058
42.0, -289.1017463747412, -243.3608999666758, -231.23801426030695, -222.6418542121537, 0.144000006839633, 0.12800000607967377, 1.0240000486373901, 0.0, 0.0, 0.0, 0.0, 0.0, 1.6518373750586026E9, 0.0, 2022-05-06 12:42:55.058
43.0, -310.1947821248323, -233.39780648471788, -243.2318734182045, -238.29333552671596, 0.144000006839633, 0.12800000607967377, 1.0240000486373901, 0.0, 0.0, 0.0, 0.0, 0.0, 1.6518373750717037E9, 0.0, 2022-05-06 12:42:55.071
43.0, -240.3409307524562, -87.17893791710958, -151.1854557087645, -161.30749493883923, 0.144000006839633, 0.12800000607967377, 1.0240000486373901, 0.0, 0.0, 0.0, 0.0, 0.0, 1.6518373750717037E9, 0.0, 2022-05-06 12:42:55.071
44.0, -210.52644830569625, -83.77562895743176, -131.38268544338644, -154.80754881585017, 0.144000006839633, 0.12800000607967377, 1.0240000486373901, 0.0, 0.0, 0.0, 0.0, 0.0, 1.6518373750876558E9, 0.0, 2022-05-06 12:42:55.087
44.0, -285.64233891572803, -239.5761212115176, -222.288433666341, -226.03768337192014, 0.144000006839633, 0.12800000607967377, 1.0240000486373901, 0.0, 0.0, 0.0, 0.0, 0.0, 1.6518373750876558E9, 0.0, 2022-05-06 12:42:55.087
45.0, -309.8806305285543, -236.6477795462124, -246.42200808040798, -220.0501035428606, 0.144000006839633, 0.12800000607967377, 1.0240000486373901, 0.0, 0.0, 0.0, 0.0, 0.0, 1.6518373750885673E9, 0.0, 2022-05-06 12:42:55.088
45.0, -236.94510159268975, -86.94332421990111, -154.43542877025902, -156.19505169941112, 0.144000006839633, 0.12800000607967377, 1.0240000486373901, 0.0, 0.0, 0.0, 0.0, 0.0, 1.6518373750885673E9, 0.0, 2022-05-06 12:42:55.088
46.0, -199.84903393220156, -77.85162742761895, -131.35276624374092, -155.71634450508282, 0.144000006839633, 0.12800000607967377, 1.0240000486373901, 0.0, 0.0, 0.0, 0.0, 0.0, 1.6518373751016908E9, 0.0, 2022-05-06 12:42:55.101
46.0, -264.81109616253525, -225.56271607754752, -212.78160797897726, -211.98313933843747, 0.144000006839633, 0.12800000607967377, 1.0240000486373901, 0.0, 0.0, 0.0, 0.0, 0.0, 1.6518373751016908E9, 0.0, 2022-05-06 12:42:55.101
47.0, -308.16775634884834, -241.48347018891945, -251.98697921447456, -240.95988419512287, 0.144000006839633, 0.12800000607967377, 1.0240000486373901, 0.0, 0.0, 0.0, 0.0, 0.0, 1.651837375117752E9, 0.0, 2022-05-06 12:42:55.117
47.0, -248.7145667532459, -87.41455161431804, -158.79241221863776, -174.74495547963306, 0.144000006839633, 0.12800000607967377, 1.0240000486373901, 0.0, 0.0, 0.0, 0.0, 0.0, 1.651837375117752E9, 0.0, 2022-05-06 12:42:55.117
48.0, -212.9125044774264, -92.52699485374615, -141.8057866198942, -161.78246223321185, 0.144000006839633, 0.12800000607967377, 1.0240000486373901, 0.0, 0.0, 0.0, 0.0, 0.0, 1.6518373751186423E9, 0.0, 2022-05-06 12:42:55.118
48.0, -299.42761015240103, -251.85047286609188, -242.2632393296808, -246.44257753016427, 0.144000006839633, 0.12800000607967377, 1.0240000486373901, 0.0, 0.0, 0.0, 0.0, 0.0, 1.6518373751186423E9, 0.0, 2022-05-06 12:42:55.118
49.0, -318.7815924230963, -242.96073067141697, -255.1958133764565, -244.0976602579467, 0.144000006839633, 0.12800000607967377, 1.0240000486373901, 0.0, 0.0, 0.0, 0.0, 0.0, 1.6518373751316996E9, 0.0, 2022-05-06 12:42:55.131
49.0, -237.0423389915377, -76.20981134707108, -141.663670421578, -151.89042685041204, 0.144000006839633, 0.12800000607967377, 1.0240000486373901, 0.0, 0.0, 0.0, 0.0, 0.0, 1.6518373751316996E9, 0.0, 2022-05-06 12:42:55.131
50.0, -198.7270639454946, -78.63326651835814, -122.93051154352725, -137.44319332158193, 0.144000006839633, 0.12800000607967377, 1.0240000486373901, 0.0, 0.0, 0.0, 0.0, 0.0, 1.6518373751477149E9, 0.0, 2022-05-06 12:42:55.147
50.0, -272.0104035772383, -228.80520933913067, -216.01662144064903, -219.0889492542483, 0.144000006839633, 0.12800000607967377, 1.0240000486373901, 0.0, 0.0, 0.0, 0.0, 0.0, 1.6518373751477149E9, 0.0, 2022-05-06 12:42:55.147
51.0, -319.32013801671565, -236.79737554444, -250.91736782714725, -246.14338553370908, 0.144000006839633, 0.12800000607967377, 1.0240000486373901, 0.0, 0.0, 0.0, 0.0, 0.0, 1.6518373751486435E9, 0.0, 2022-05-06 12:42:55.148
51.0, -225.74784112535417, -74.70263166492805, -140.5155211351812, -158.73070386936888, 0.144000006839633, 0.12800000607967377, 1.0240000486373901, 0.0, 0.0, 0.0, 0.0, 0.0, 1.6518373751486435E9, 0.0, 2022-05-06 12:42:55.148
52.0, -222.61006506253034, -91.0983530706726, -135.49283549468964, -162.3584068263881, 0.144000006839633, 0.12800000607967377, 1.0240000486373901, 0.0, 0.0, 0.0, 0.0, 0.0, 1.651837375161693E9, 0.0, 2022-05-06 12:42:55.161
52.0, -283.14782564528286, -236.25882995082065, -223.11495155654848, -221.77419742243364, 0.144000006839633, 0.12800000607967377, 1.0240000486373901, 0.0, 0.0, 0.0, 0.0, 0.0, 1.651837375161693E9, 0.0, 2022-05-06 12:42:55.161
53.0, -308.8446782408282, -234.78156946832314, -239.31993806455284, -220.85044213337824, 0.144000006839633, 0.12800000607967377, 1.0240000486373901, 0.0, 0.0, 0.0, 0.0, 0.0, 1.6518373751777031E9, 0.0, 2022-05-06 12:42:55.177
53.0, -225.5907653272152, -71.25070400582626, -135.2497419975698, -145.7495111231692, 0.144000006839633, 0.12800000607967377, 1.0240000486373901, 0.0, 0.0, 0.0, 0.0, 0.0, 1.6518373751777031E9, 0.0, 2022-05-06 12:42:55.177
54.0, -212.4300573831424, -86.45713722566143, -139.2850940497592, -156.84953419165686, 0.144000006839633, 0.12800000607967377, 1.0240000486373901, 0.0, 0.0, 0.0, 0.0, 0.0, 1.6518373751789923E9, 0.0, 2022-05-06 12:42:55.178
54.0, -285.67599801532924, -243.92936475994065, -236.3728968994692, -233.685778781306, 0.144000006839633, 0.12800000607967377, 1.0240000486373901, 0.0, 0.0, 0.0, 0.0, 0.0, 1.6518373751789923E9, 0.0, 2022-05-06 12:42:55.178
55.0, -311.90017650462687, -245.99378953548148, -255.0798764778301, -238.5775679233484, 0.144000006839633, 0.12800000607967377, 1.0240000486373901, 0.0, 0.0, 0.0, 0.0, 0.0, 1.651837375191631E9, 0.0, 2022-05-06 12:42:55.191
55.0, -228.90805658791214, -90.22695638099685, -161.12984969094396, -176.9140974539332, 0.144000006839633, 0.12800000607967377, 1.0240000486373901, 0.0, 0.0, 0.0, 0.0, 0.0, 1.651837375191631E9, 0.0, 2022-05-06 12:42:55.191
56.0, -221.08418588060886, -98.67539038090035, -138.02100786473602, -158.2744360747747, 0.144000006839633, 0.12800000607967377, 1.0240000486373901, 0.0, 0.0, 0.0, 0.0, 0.0, 1.6518373752076535E9, 0.0, 2022-05-06 12:42:55.207
56.0, -293.4063712237403, -242.70267757447436, -236.9600611925125, -233.11731398804113, 0.144000006839633, 0.12800000607967377, 1.0240000486373901, 0.0, 0.0, 0.0, 0.0, 0.0, 1.6518373752076535E9, 0.0, 2022-05-06 12:42:55.207
57.0, -315.68869515974075, -238.99269681842998, -247.2335663707927, -244.16497845714912, 0.144000006839633, 0.12800000607967377, 1.0240000486373901, 0.0, 0.0, 0.0, 0.0, 0.0, 1.6518373752086165E9, 0.0, 2022-05-06 12:42:55.208
57.0, -235.73337400704622, -82.4292649733834, -154.5962444683537, -170.12991893431172, 0.144000006839633, 0.12800000607967377, 1.0240000486373901, 0.0, 0.0, 0.0, 0.0, 0.0, 1.6518373752086165E9, 0.0, 2022-05-06 12:42:55.208
58.0, -218.79162720777094, -92.59057315299287, -136.5512271821499, -168.4656634540297, 0.144000006839633, 0.12800000607967377, 1.0240000486373901, 0.0, 0.0, 0.0, 0.0, 0.0, 1.6518373752216525E9, 0.0, 2022-05-06 12:42:55.221
58.0, -270.55932239443064, -225.0466098836623, -214.2177295619622, -223.603008500766, 0.144000006839633, 0.12800000607967377, 1.0240000486373901, 0.0, 0.0, 0.0, 0.0, 0.0, 1.6518373752216525E9, 0.0, 2022-05-06 12:42:55.221
59.0, -305.5498263798654, -234.77782956836745, -240.45312775112689, -226.87916086195037, 0.144000006839633, 0.12800000607967377, 1.0240000486373901, 0.0, 0.0, 0.0, 0.0, 0.0, 1.6518373752376757E9, 0.0, 2022-05-06 12:42:55.237
59.0, -242.30811812914908, -83.94018455548212, -146.72375506162643, -162.97175041912124, 0.144000006839633, 0.12800000607967377, 1.0240000486373901, 0.0, 0.0, 0.0, 0.0, 0.0, 1.6518373752376757E9, 0.0, 2022-05-06 12:42:55.237
60.0, -205.81043446157128, -92.7663484509103, -139.41225064825267, -163.9441244076006, 0.144000006839633, 0.12800000607967377, 1.0240000486373901, 0.0, 0.0, 0.0, 0.0, 0.0, 1.6518373752386837E9, 0.0, 2022-05-06 12:42:55.238
60.0, -299.9175370465964, -250.26849518483505, -235.7745129065588, -233.70447828108445, 0.144000006839633, 0.12800000607967377, 1.0240000486373901, 0.0, 0.0, 0.0, 0.0, 0.0, 1.6518373752386837E9, 0.0, 2022-05-06 12:42:55.238
61.0, -303.34702530596405, -228.28162334533408, -237.36023048777133, -225.99654447240755, 0.144000006839633, 0.11200000531971455, 1.0240000486373901, 0.0, 0.0, 0.0, 0.0, 0.0, 1.6518373752516427E9, 0.0, 2022-05-06 12:42:55.251
61.0, -225.96849522273988, -79.30644851038232, -144.19558269158006, -153.59208133025095, 0.144000006839633, 0.11200000531971455, 1.0240000486373901, 0.0, 0.0, 0.0, 0.0, 0.0, 1.6518373752516427E9, 0.0, 2022-05-06 12:42:55.251
62.0, -206.42003815434873, -92.34747965587303, -134.2474488094449, -154.04460922488943, 0.144000006839633, 0.11200000531971455, 1.0240000486373901, 0.0, 0.0, 0.0, 0.0, 0.0, 1.6518373752676485E9, 0.0, 2022-05-06 12:42:55.267
62.0, -296.3982911882922, -248.0993532105349, -240.46060755103827, -232.48153099557385, 0.144000006839633, 0.11200000531971455, 1.0240000486373901, 0.0, 0.0, 0.0, 0.0, 0.0, 1.6518373752676485E9, 0.0, 2022-05-06 12:42:55.267
63.0, -315.0416924674064, -235.0957210646011, -249.51864524371922, -234.41131937270984, 0.144000006839633, 0.11200000531971455, 1.0240000486373901, 0.0, 0.0, 0.0, 0.0, 0.0, 1.6518373752685807E9, 0.0, 2022-05-06 12:42:55.268
63.0, -230.41897617001086, -75.67126575345173, -134.3970448076725, -136.59049613168463, 0.144000006839633, 0.11200000531971455, 1.0240000486373901, 0.0, 0.0, 0.0, 0.0, 0.0, 1.6518373752685807E9, 0.0, 2022-05-06 12:42:55.268
64.0, -197.99404355417937, -78.92497871490195, -118.54360889550298, -142.82116945786402, 0.144000006839633, 0.11200000531971455, 1.0240000486373901, 0.0, 0.0, 0.0, 0.0, 0.0, 1.6518373752816286E9, 0.0, 2022-05-06 12:42:55.281
64.0, -291.71219654381275, -244.74466295028105, -236.42899539880455, -229.29513623332605, 0.144000006839633, 0.11200000531971455, 1.0240000486373901, 0.0, 0.0, 0.0, 0.0, 0.0, 1.6518373752816286E9, 0.0, 2022-05-06 12:42:55.281
