%OpenBCI Raw EEG Data
%Number of channels = 4
%Sample Rate = 200 Hz
%Board = OpenBCI_GUI$BoardGanglionBLE
Sample Index, EXG Channel 0, EXG Channel 1, EXG Channel 2, EXG Channel 3, Accel Channel 0, Accel Channel 1, Accel Channel 2, Other, Other, Other, Other, Other, Timestamp, Other, Timestamp (Formatted)
0.0, -314.5218463735655, -272.30772562371567, -253.56147709582, -237.81088843243197, 0.0, 0.0, 0.0, 0.0, 0.0, 0.0, 0.0, 0.0, 1.6518373226337252E9, 0.0, 2022-05-06 12:42:02.633
1.0, -294.8499726066366, -190.68814899073914, -224.109764944762, -212.70120012992993, 0.0, 0.06400000303983688, 0.0, 0.0, 0.0, 0.0, 0.0, 0.0, 1.6518373226337428E9, 0.0, 2022-05-06 12:42:02.633
1.0, -222.83445905987173, -59.47001914540306, -135.6947900922969, -169.10892624640837, 0.0, 0.06400000303983688, 0.0, 0.0, 0.0, 0.0, 0.0, 0.0, 1.6518373226337428E9, 0.0, 2022-05-06 12:42:02.633
2.0, -244.14440900739282, -157.93410517880693, -177.57792969606817, -199.25251988926902, 0.06400000303983688, 0.06400000303983688, 0.0, 0.0, 0.0, 0.0, 0.0, 0.0, 1.6518373226466987E9, 0.0, 2022-05-06 12:42:02.646
2.0, -317.56986483745277, -275.01915309159085, -266.322015744634, -242.04445518227294, 0.06400000303983688, 0.06400000303983688, 0.0, 0.0, 0.0, 0.0, 0.0, 0.0, 1.6518373226466987E9, 0.0, 2022-05-06 12:42:02.646
3.0, -297.0752130802721, -181.8806845950894, -226.26768721919507, -216.6430546832271, 0.06400000303983688, 0.06400000303983688, 0.0, 0.0, 0.0, 0.0, 0.0, 0.0, 1.65183732264771E9, 0.0, 2022-05-06 12:42:02.647
3.0, -221.81720627192408, -70.69719881238416, -138.26410136185586, -154.89356651483104, 0.06400000303983688, 0.06400000303983688, 0.0, 0.0, 0.0, 0.0, 0.0, 0.0, 1.65183732264771E9, 0.0, 2022-05-06 12:42:02.647
4.0, -245.65158868953586, -151.76701015187427, -178.68494008295238, -190.4039165941067, 0.06400000303983688, 0.06400000303983688, 0.0, 0.0, 0.0, 0.0, 0.0, 0.0, 1.6518373226627133E9, 0.0, 2022-05-06 12:42:02.662
4.0, -329.02891830168664, -280.0006998325698, -269.18303921073675, -249.96182338846847, 0.06400000303983688, 0.06400000303983688, 0.0, 0.0, 0.0, 0.0, 0.0, 0.0, 1.6518373226627133E9, 0.0, 2022-05-06 12:42:02.662
5.0, -294.53582101035863, -181.813366395887, -212.5871331812814, -206.88191579887643, 0.06400000303983688, 0.06400000303983688, 0.0, 0.0, 0.0, 0.0, 0.0, 0.0, 1.651837322676788E9, 0.0, 2022-05-06 12:42:02.676
5.0, -224.46505544055253, -71.69575210055336, -141.46545572392642, -176.36807206040248, 0.06400000303983688, 0.06400000303983688, 0.0, 0.0, 0.0, 0.0, 0.0, 0.0, 1.651837322676788E9, 0.0, 2022-05-06 12:42:02.676
6.0, -247.35698306933045, -162.0592148299329, -176.7850709054619, -197.80143870646134, 0.06400000303983688, 0.06400000303983688, 0.0, 0.0, 0.0, 0.0, 0.0, 0.0, 1.651837322677755E9, 0.0, 2022-05-06 12:42:02.677
6.0, -325.95472053810954, -271.9599149278365, -260.14370101783425, -247.11201962223276, 0.06400000303983688, 0.06400000303983688, 0.0, 0.0, 0.0, 0.0, 0.0, 0.0, 1.651837322677755E9, 0.0, 2022-05-06 12:42:02.677
7.0, -308.20889524836093, -192.98444756353274, -235.35938401147723, -230.72751791635528, 0.06400000303983688, 0.06400000303983688, 0.0, 0.0, 0.0, 0.0, 0.0, 0.0, 1.6518373226908076E9, 0.0, 2022-05-06 12:42:02.690
7.0, -213.6978834681213, -58.325609758961946, -128.12149268202484, -160.0957673531957, 0.06400000303983688, 0.06400000303983688, 0.0, 0.0, 0.0, 0.0, 0.0, 0.0, 1.6518373226908076E9, 0.0, 2022-05-06 12:42:02.690
8.0, -247.28592497017235, -157.80694858031347, -175.94359341543168, -187.11654453305528, 0.06400000303983688, 0.06400000303983688, 0.0, 0.0, 0.0, 0.0, 0.0, 0.0, 1.6518373227228231E9, 0.0, 2022-05-06 12:42:02.722
8.0, -338.50582478940487, -298.1878333170898, -282.6616386510432, -267.1803227844648, 0.06400000303983688, 0.06400000303983688, 0.0, 0.0, 0.0, 0.0, 0.0, 0.0, 1.6518373227228231E9, 0.0, 2022-05-06 12:42:02.722
9.0, -291.5177217461169, -180.2126892148517, -216.98151562921703, -214.3018773109652, 0.06400000303983688, 0.06400000303983688, 0.0, 0.0, 0.0, 0.0, 0.0, 0.0, 1.651837322723724E9, 0.0, 2022-05-06 12:42:02.723
9.0, -221.23752177879214, -67.6790995481424, -134.03427451197058, -157.67605208186433, 0.06400000303983688, 0.06400000303983688, 0.0, 0.0, 0.0, 0.0, 0.0, 0.0, 1.651837322723724E9, 0.0, 2022-05-06 12:42:02.723
10.0, -234.30473222397268, -159.2019312637858, -179.8966676685959, -192.56931866845116, 0.06400000303983688, 0.06400000303983688, 0.5120000243186951, 0.0, 0.0, 0.0, 0.0, 0.0, 1.6518373227247815E9, 0.0, 2022-05-06 12:42:02.724
10.0, -315.8195916581899, -291.0184451020323, -273.69709845725447, -255.05182722816244, 0.06400000303983688, 0.06400000303983688, 0.5120000243186951, 0.0, 0.0, 0.0, 0.0, 0.0, 1.6518373227247815E9, 0.0, 2022-05-06 12:42:02.724
11.0, -308.12661744933575, -170.3206538320519, -217.2096495265141, -217.0507037783973, 0.06400000303983688, 0.0800000037997961, 0.5120000243186951, 0.0, 0.0, 0.0, 0.0, 0.0, 1.6518373227367463E9, 0.0, 2022-05-06 12:42:02.736
11.0, -213.01722167618573, -53.25056551909074, -125.3913657143712, -145.6485338243656, 0.06400000303983688, 0.0800000037997961, 0.5120000243186951, 0.0, 0.0, 0.0, 0.0, 0.0, 1.6518373227367463E9, 0.0, 2022-05-06 12:42:02.736
12.0, -268.32660212088376, -191.38377038249746, -201.17669841647148, -220.7120658350177, 0.09600000455975533, 0.0800000037997961, 0.5120000243186951, 0.0, 0.0, 0.0, 0.0, 0.0, 1.6518373227377114E9, 0.0, 2022-05-06 12:42:02.737
12.0, -333.17646735254675, -294.8219233569689, -276.947071518749, -268.05171947414055, 0.09600000455975533, 0.0800000037997961, 0.5120000243186951, 0.0, 0.0, 0.0, 0.0, 0.0, 1.6518373227377114E9, 0.0, 2022-05-06 12:42:02.737
13.0, -264.8372754622251, -140.0461636907421, -197.59761415887624, -188.16371652064845, 0.09600000455975533, 0.0800000037997961, 0.5120000243186951, 0.0, 0.0, 0.0, 0.0, 0.0, 1.6518373227507467E9, 0.0, 2022-05-06 12:42:02.750
13.0, -230.1085644736886, -59.133428149390966, -133.49198901839554, -168.92941104853526, 0.09600000455975533, 0.0800000037997961, 0.5120000243186951, 0.0, 0.0, 0.0, 0.0, 0.0, 1.6518373227507467E9, 0.0, 2022-05-06 12:42:02.750
14.0, -276.8797533195466, -197.83509780606255, -197.91550565510988, -220.81678303377703, 0.09600000455975533, 0.0800000037997961, 0.5120000243186951, 0.0, 0.0, 0.0, 0.0, 0.0, 1.6518373227667508E9, 0.0, 2022-05-06 12:42:02.766
14.0, -334.0553438421339, -287.9367675385438, -266.1350207468495, -254.8012539311312, 0.09600000455975533, 0.0800000037997961, 0.5120000243186951, 0.0, 0.0, 0.0, 0.0, 0.0, 1.6518373227667508E9, 0.0, 2022-05-06 12:42:02.766
15.0, -281.78276216145605, -144.94917253265157, -204.1723582809791, -203.28039214154705, 0.09600000455975533, 0.0800000037997961, 0.5120000243186951, 0.0, 0.0, 0.0, 0.0, 0.0, 1.6518373227677107E9, 0.0, 2022-05-06 12:42:02.767
15.0, -215.4705960471183, -55.928333887364715, -130.20461695734411, -158.99249686626717, 0.09600000455975533, 0.0800000037997961, 0.5120000243186951, 0.0, 0.0, 0.0, 0.0, 0.0, 1.6518373227677107E9, 0.0, 2022-05-06 12:42:02.767
16.0, -264.81483606249094, -204.07325093215331, -205.8366137612611, -215.33034979877993, 0.09600000455975533, 0.0800000037997961, 0.5120000243186951, 0.0, 0.0, 0.0, 0.0, 0.0, 1.6518373227807524E9, 0.0, 2022-05-06 12:42:02.780
16.0, -335.1623542290181, -289.7767983167432, -272.1263404758647, -252.55731395771727, 0.09600000455975533, 0.0800000037997961, 0.5120000243186951, 0.0, 0.0, 0.0, 0.0, 0.0, 1.6518373227807524E9, 0.0, 2022-05-06 12:42:02.780
17.0, -275.41371253691614, -150.1251940713264, -201.21409741602838, -198.10437060287222, 0.09600000455975533, 0.0800000037997961, 0.5120000243186951, 0.0, 0.0, 0.0, 0.0, 0.0, 1.6518373227967644E9, 0.0, 2022-05-06 12:42:02.796
17.0, -222.4791685640812, -55.68898029020056, -132.38123873155564, -158.17719867592677, 0.09600000455975533, 0.0800000037997961, 0.5120000243186951, 0.0, 0.0, 0.0, 0.0, 0.0, 1.6518373227967644E9, 0.0, 2022-05-06 12:42:02.796
18.0, -265.80964945070446, -193.68006895529106, -192.84420131519437, -208.39657528093085, 0.09600000455975533, 0.0800000037997961, 0.5120000243186951, 0.0, 0.0, 0.0, 0.0, 0.0, 1.651837322797806E9, 0.0, 2022-05-06 12:42:02.797
18.0, -322.1250629834831, -277.6296032606624, -261.7069791993126, -245.54874144075438, 0.09600000455975533, 0.0800000037997961, 0.5120000243186951, 0.0, 0.0, 0.0, 0.0, 0.0, 1.651837322797806E9, 0.0, 2022-05-06 12:42:02.797
19.0, -286.65585180372, -162.19385122833773, -213.4697495708242, -211.3436164460145, 0.09600000455975533, 0.0800000037997961, 0.5120000243186951, 0.0, 0.0, 0.0, 0.0, 0.0, 1.6518373228107429E9, 0.0, 2022-05-06 12:42:02.810
19.0, -220.82239288371056, -58.12365516135469, -132.1755442339927, -159.73299705749378, 0.09600000455975533, 0.0800000037997961, 0.5120000243186951, 0.0, 0.0, 0.0, 0.0, 0.0, 1.6518373228107429E9, 0.0, 2022-05-06 12:42:02.810
20.0, -266.4229930434376, -202.04996505612507, -202.93819129560143, -215.88011509226635, 0.09600000455975533, 0.0800000037997961, 0.7680000364780426, 0.0, 0.0, 0.0, 0.0, 0.0, 1.6518373228267713E9, 0.0, 2022-05-06 12:42:02.826
20.0, -339.1303880820051, -287.8956286390312, -276.3225082261488, -258.93010348221287, 0.09600000455975533, 0.0800000037997961, 0.7680000364780426, 0.0, 0.0, 0.0, 0.0, 0.0, 1.6518373228267713E9, 0.0, 2022-05-06 12:42:02.826
21.0, -283.8658864367753, -150.13641377119347, -200.9523044191301, -195.42286233464256, 0.09600000455975533, 0.09600000455975533, 0.7680000364780426, 0.0, 0.0, 0.0, 0.0, 0.0, 1.6518373228277404E9, 0.0, 2022-05-06 12:42:02.827
21.0, -207.77762183826417, -45.16116191493347, -116.96911101415753, -142.06570966681466, 0.09600000455975533, 0.09600000455975533, 0.7680000364780426, 0.0, 0.0, 0.0, 0.0, 0.0, 1.6518373228277404E9, 0.0, 2022-05-06 12:42:02.827
22.0, -270.6191607937217, -198.72893389547244, -200.3913194257766, -217.0806229780428, 0.11200000531971455, 0.09600000455975533, 0.7680000364780426, 0.0, 0.0, 0.0, 0.0, 0.0, 1.6518373228407512E9, 0.0, 2022-05-06 12:42:02.840
22.0, -319.76892601139843, -280.90575562184677, -267.0849553355947, -239.60230051120743, 0.11200000531971455, 0.09600000455975533, 0.7680000364780426, 0.0, 0.0, 0.0, 0.0, 0.0, 1.6518373228407512E9, 0.0, 2022-05-06 12:42:02.840
23.0, -271.7261711806059, -144.3433087398298, -199.92757183127105, -210.25156565895304, 0.11200000531971455, 0.09600000455975533, 0.7680000364780426, 0.0, 0.0, 0.0, 0.0, 0.0, 1.651837322856766E9, 0.0, 2022-05-06 12:42:02.856
23.0, -210.00286231189966, -46.86655629472807, -116.55024221912026, -141.28407057607546, 0.11200000531971455, 0.09600000455975533, 0.7680000364780426, 0.0, 0.0, 0.0, 0.0, 0.0, 1.651837322856766E9, 0.0, 2022-05-06 12:42:02.856
24.0, -258.6402612356469, -187.48679462866858, -188.96218516118824, -191.36133098276332, 0.11200000531971455, 0.09600000455975533, 0.7680000364780426, 0.0, 0.0, 0.0, 0.0, 0.0, 1.6518373228577373E9, 0.0, 2022-05-06 12:42:02.857
24.0, -327.4955593198538, -294.6461480590515, -293.05108072794974, -280.94315462140366, 0.11200000531971455, 0.09600000455975533, 0.7680000364780426, 0.0, 0.0, 0.0, 0.0, 0.0, 1.6518373228577373E9, 0.0, 2022-05-06 12:42:02.857
25.0, -277.5117964120582, -146.74806441133842, -203.3570600906387, -207.24094619462267, 0.11200000531971455, 0.09600000455975533, 0.7680000364780426, 0.0, 0.0, 0.0, 0.0, 0.0, 1.651837322870751E9, 0.0, 2022-05-06 12:42:02.870
25.0, -229.06139248609543, -56.2686647833325, -138.28654076159, -157.73589048115537, 0.11200000531971455, 0.09600000455975533, 0.7680000364780426, 0.0, 0.0, 0.0, 0.0, 0.0, 1.651837322870751E9, 0.0, 2022-05-06 12:42:02.870
26.0, -267.66463982872665, -206.99411279754713, -205.42148486617953, -217.5630700723268, 0.11200000531971455, 0.09600000455975533, 0.7680000364780426, 0.0, 0.0, 0.0, 0.0, 0.0, 1.6518373228867548E9, 0.0, 2022-05-06 12:42:02.886
26.0, -319.99332000873983, -279.76134623540565, -271.1726659871638, -249.01936859963462, 0.11200000531971455, 0.09600000455975533, 0.7680000364780426, 0.0, 0.0, 0.0, 0.0, 0.0, 1.6518373228867548E9, 0.0, 2022-05-06 12:42:02.886
27.0, -287.11959939822555, -152.15969964722171, -194.73285079281777, -194.37943024700508, 0.11200000531971455, 0.09600000455975533, 0.7680000364780426, 0.0, 0.0, 0.0, 0.0, 0.0, 1.651837322887706E9, 0.0, 2022-05-06 12:42:02.887
27.0, -210.56384730525315, -44.37952282419428, -119.2766292868182, -147.32774890447035, 0.11200000531971455, 0.09600000455975533, 0.7680000364780426, 0.0, 0.0, 0.0, 0.0, 0.0, 1.651837322887706E9, 0.0, 2022-05-06 12:42:02.887
28.0, -271.3073023855686, -201.8180912588723, -200.43619822524488, -216.13816818920895, 0.11200000531971455, 0.09600000455975533, 0.7680000364780426, 0.0, 0.0, 0.0, 0.0, 0.0, 1.6518373229007623E9, 0.0, 2022-05-06 12:42:02.900
28.0, -319.5520118139684, -279.79500533500686, -263.9023004733026, -241.8761596842669, 0.11200000531971455, 0.09600000455975533, 0.7680000364780426, 0.0, 0.0, 0.0, 0.0, 0.0, 1.6518373229007623E9, 0.0, 2022-05-06 12:42:02.900
29.0, -281.56584796402603, -144.59388203686103, -198.64478614646941, -206.50792580330744, 0.11200000531971455, 0.09600000455975533, 0.7680000364780426, 0.0, 0.0, 0.0, 0.0, 0.0, 1.6518373229167662E9, 0.0, 2022-05-06 12:42:02.916
29.0, -207.49712934158742, -50.03799145715311, -115.61526723019779, -149.76242377562448, 0.11200000531971455, 0.09600000455975533, 0.7680000364780426, 0.0, 0.0, 0.0, 0.0, 0.0, 1.6518373229167662E9, 0.0, 2022-05-06 12:42:02.916
30.0, -267.17471293453127, -206.44434750406072, -208.07681383471936, -221.47126552602276, 0.11200000531971455, 0.09600000455975533, 0.8960000425577164, 0.0, 0.0, 0.0, 0.0, 0.0, 1.6518373229176908E9, 0.0, 2022-05-06 12:42:02.917
30.0, -325.3712961450219, -289.6085028187372, -269.07084221206605, -258.30554018961266, 0.11200000531971455, 0.09600000455975533, 0.8960000425577164, 0.0, 0.0, 0.0, 0.0, 0.0, 1.6518373229176908E9, 0.0, 2022-05-06 12:42:02.917
31.0, -277.04430891759694, -140.3042167876847, -194.54959569498897, -191.85873767687008, 0.11200000531971455, 0.11200000531971455, 0.8960000425577164, 0.0, 0.0, 0.0, 0.0, 0.0, 1.651837322930756E9, 0.0, 2022-05-06 12:42:02.930
31.0, -212.49363568238914, -58.796837153378874, -126.90228529646993, -154.54575581895187, 0.11200000531971455, 0.11200000531971455, 0.8960000425577164, 0.0, 0.0, 0.0, 0.0, 0.0, 1.651837322930756E9, 0.0, 2022-05-06 12:42:02.930
32.0, -267.77309692744166, -203.5234856386669, -203.22616359218955, -207.75331248855218, 0.12800000607967377, 0.11200000531971455, 0.8960000425577164, 0.0, 0.0, 0.0, 0.0, 0.0, 1.651837322946743E9, 0.0, 2022-05-06 12:42:02.946
32.0, -330.31918378639966, -284.0809306842275, -272.4666713718325, -250.34703308390453, 0.12800000607967377, 0.11200000531971455, 0.8960000425577164, 0.0, 0.0, 0.0, 0.0, 0.0, 1.651837322946743E9, 0.0, 2022-05-06 12:42:02.946
33.0, -251.57559021934867, -129.9671333101578, -173.9390070391819, -169.2809616443701, 0.12800000607967377, 0.11200000531971455, 0.8960000425577164, 0.0, 0.0, 0.0, 0.0, 0.0, 1.6518373229477043E9, 0.0, 2022-05-06 12:42:02.947
33.0, -198.4241320490837, -43.115436639171094, -116.14633302390575, -135.07583664963022, 0.12800000607967377, 0.11200000531971455, 0.8960000425577164, 0.0, 0.0, 0.0, 0.0, 0.0, 1.6518373229477043E9, 0.0, 2022-05-06 12:42:02.947
34.0, -253.17626740038395, -202.34541715262458, -208.16283153370023, -224.73245828738436, 0.12800000607967377, 0.11200000531971455, 0.8960000425577164, 0.0, 0.0, 0.0, 0.0, 0.0, 1.6518373229607692E9, 0.0, 2022-05-06 12:42:02.960
34.0, -326.58676363062114, -281.35828351648524, -269.7290646042675, -248.6565983039327, 0.12800000607967377, 0.11200000531971455, 0.8960000425577164, 0.0, 0.0, 0.0, 0.0, 0.0, 1.6518373229607692E9, 0.0, 2022-05-06 12:42:02.960
35.0, -273.2744897622615, -133.03759117377922, -191.74841062817723, -194.32333174766973, 0.12800000607967377, 0.11200000531971455, 0.8960000425577164, 0.0, 0.0, 0.0, 0.0, 0.0, 1.6518373229767444E9, 0.0, 2022-05-06 12:42:02.976
35.0, -215.2499419497326, -53.82651011226699, -124.22077702824026, -152.6084876419045, 0.12800000607967377, 0.11200000531971455, 0.8960000425577164, 0.0, 0.0, 0.0, 0.0, 0.0, 1.6518373229767444E9, 0.0, 2022-05-06 12:42:02.976
36.0, -267.3130892328918, -197.1880951137282, -196.19141177553684, -213.62869531894103, 0.12800000607967377, 0.11200000531971455, 0.8960000425577164, 0.0, 0.0, 0.0, 0.0, 0.0, 1.6518373229777143E9, 0.0, 2022-05-06 12:42:02.977
36.0, -334.87812183238566, -294.55265056015924, -278.06904150545597, -254.49832203472033, 0.12800000607967377, 0.11200000531971455, 0.8960000425577164, 0.0, 0.0, 0.0, 0.0, 0.0, 1.6518373229777143E9, 0.0, 2022-05-06 12:42:02.977
37.0, -276.70771792158484, -138.1238551135175, -194.55707549490035, -191.27157338382676, 0.12800000607967377, 0.11200000531971455, 0.8960000425577164, 0.0, 0.0, 0.0, 0.0, 0.0, 1.6518373229907773E9, 0.0, 2022-05-06 12:42:02.990
37.0, -200.63815282285213, -38.9267486887984, -119.07841458916664, -144.47046533832327, 0.12800000607967377, 0.11200000531971455, 0.8960000425577164, 0.0, 0.0, 0.0, 0.0, 0.0, 1.6518373229907773E9, 0.0, 2022-05-06 12:42:02.990
38.0, -257.5033316491172, -195.10123093845323, -195.52196968346834, -205.93946101004258, 0.12800000607967377, 0.11200000531971455, 0.8960000425577164, 0.0, 0.0, 0.0, 0.0, 0.0, 1.6518373230067413E9, 0.0, 2022-05-06 12:42:03.006
38.0, -310.1424235254526, -278.69547474803403, -271.8234085794538, -261.60787185048684, 0.12800000607967377, 0.11200000531971455, 0.8960000425577164, 0.0, 0.0, 0.0, 0.0, 0.0, 1.6518373230067413E9, 0.0, 2022-05-06 12:42:03.006
39.0, -267.0886952355504, -132.68230067798868, -189.89342025015503, -187.30727943079546, 0.12800000607967377, 0.11200000531971455, 0.8960000425577164, 0.0, 0.0, 0.0, 0.0, 0.0, 1.651837323007762E9, 0.0, 2022-05-06 12:42:03.007
39.0, -208.83227362576872, -52.03509803349152, -117.83676780387759, -132.0427777855657, 0.12800000607967377, 0.11200000531971455, 0.8960000425577164, 0.0, 0.0, 0.0, 0.0, 0.0, 1.651837323007762E9, 0.0, 2022-05-06 12:42:03.007
40.0, -270.52192339487374, -208.25445908261463, -216.57760643400252, -226.81558256270364, 0.12800000607967377, 0.11200000531971455, 0.9600000455975533, 0.0, 0.0, 0.0, 0.0, 0.0, 1.6518373230207894E9, 0.0, 2022-05-06 12:42:03.020
40.0, -316.5862711491063, -276.20096147758886, -255.99615196697414, -241.31143479095772, 0.12800000607967377, 0.11200000531971455, 0.9600000455975533, 0.0, 0.0, 0.0, 0.0, 0.0, 1.6518373230207894E9, 0.0, 2022-05-06 12:42:03.020
41.0, -260.77200421039015, -132.6710809781216, -186.39661379158497, -173.5107884942554, 0.12800000607967377, 0.11200000531971455, 0.9600000455975533, 0.0, 0.0, 0.0, 0.0, 0.0, 1.6518373230367448E9, 0.0, 2022-05-06 12:42:03.036
41.0, -206.33402045536786, -45.2621392137371, -119.50476318411529, -154.51583661930636, 0.12800000607967377, 0.11200000531971455, 0.9600000455975533, 0.0, 0.0, 0.0, 0.0, 0.0, 1.6518373230367448E9, 0.0, 2022-05-06 12:42:03.036
42.0, -270.39850669633597, -208.4489338803105, -206.6556518515572, -213.38560182182118, 0.12800000607967377, 0.11200000531971455, 0.9600000455975533, 0.0, 0.0, 0.0, 0.0, 0.0, 1.6518373230377307E9, 0.0, 2022-05-06 12:42:03.037
42.0, -322.13254278339446, -280.2924120291136, -264.7512577632442, -241.8051015851088, 0.12800000607967377, 0.11200000531971455, 0.9600000455975533, 0.0, 0.0, 0.0, 0.0, 0.0, 1.6518373230377307E9, 0.0, 2022-05-06 12:42:03.037
43.0, -258.6402612356469, -125.01176586886868, -184.92683310899884, -185.90481694741175, 0.12800000607967377, 0.11200000531971455, 0.9600000455975533, 0.0, 0.0, 0.0, 0.0, 0.0, 1.6518373230507855E9, 0.0, 2022-05-06 12:42:03.050
43.0, -206.10962645802647, -56.20134658413008, -125.62697941157967, -154.25778352236375, 0.12800000607967377, 0.11200000531971455, 0.9600000455975533, 0.0, 0.0, 0.0, 0.0, 0.0, 1.6518373230507855E9, 0.0, 2022-05-06 12:42:03.050
44.0, -263.76766407489777, -207.1175294960849, -207.5831470405683, -214.20090001216158, 0.12800000607967377, 0.11200000531971455, 0.9600000455975533, 0.0, 0.0, 0.0, 0.0, 0.0, 1.6518373230667408E9, 0.0, 2022-05-06 12:42:03.066
44.0, -325.14316224772483, -285.3450168692507, -275.70542473345995, -253.64936474477872, 0.12800000607967377, 0.11200000531971455, 0.9600000455975533, 0.0, 0.0, 0.0, 0.0, 0.0, 1.6518373230667408E9, 0.0, 2022-05-06 12:42:03.066
45.0, -264.28751016873866, -135.16559424856678, -190.21505164634436, -190.04862609831616, 0.12800000607967377, 0.11200000531971455, 0.9600000455975533, 0.0, 0.0, 0.0, 0.0, 0.0, 1.65183732306769E9, 0.0, 2022-05-06 12:42:03.067
45.0, -204.9539973717183, -53.69561361381784, -121.41585206147283, -148.24402439361438, 0.12800000607967377, 0.11200000531971455, 0.9600000455975533, 0.0, 0.0, 0.0, 0.0, 0.0, 1.65183732306769E9, 0.0, 2022-05-06 12:42:03.067
46.0, -261.8266559978947, -201.24588656565174, -197.63875305838883, -202.304278253112, 0.12800000607967377, 0.11200000531971455, 0.9600000455975533, 0.0, 0.0, 0.0, 0.0, 0.0, 1.6518373230807698E9, 0.0, 2022-05-06 12:42:03.080
46.0, -297.79327387176454, -261.56299305101857, -242.12112313136458, -219.37318165088072, 0.12800000607967377, 0.11200000531971455, 0.9600000455975533, 0.0, 0.0, 0.0, 0.0, 0.0, 1.6518373230807698E9, 0.0, 2022-05-06 12:42:03.080
47.0, -263.5619695773348, -118.35848384769633, -175.40504782181233, -175.68367036851123, 0.12800000607967377, 0.11200000531971455, 0.9600000455975533, 0.0, 0.0, 0.0, 0.0, 0.0, 1.6518373230967813E9, 0.0, 2022-05-06 12:42:03.096
47.0, -197.71355105750263, -40.80791836651042, -114.22402444668114, -142.11432836623862, 0.12800000607967377, 0.11200000531971455, 0.9600000455975533, 0.0, 0.0, 0.0, 0.0, 0.0, 1.6518373230967813E9, 0.0, 2022-05-06 12:42:03.096
48.0, -245.21776029467583, -196.4849939220585, -199.71439753379673, -209.13707547215745, 0.12800000607967377, 0.11200000531971455, 0.9600000455975533, 0.0, 0.0, 0.0, 0.0, 0.0, 1.6518373230977108E9, 0.0, 2022-05-06 12:42:03.097
48.0, -309.43184253387153, -265.8563982001506, -253.5689568957314, -229.39611353212968, 0.12800000607967377, 0.11200000531971455, 0.9600000455975533, 0.0, 0.0, 0.0, 0.0, 0.0, 1.6518373230977108E9, 0.0, 2022-05-06 12:42:03.097
49.0, -247.92170796263963, -109.4388224533759, -156.20440144930035, -146.47879161452875, 0.12800000607967377, 0.11200000531971455, 0.9600000455975533, 0.0, 0.0, 0.0, 0.0, 0.0, 1.6518373231107612E9, 0.0, 2022-05-06 12:42:03.110
49.0, -214.77497465535998, -59.48497874522582, -138.3276796611026, -169.83072693785653, 0.12800000607967377, 0.11200000531971455, 0.9600000455975533, 0.0, 0.0, 0.0, 0.0, 0.0, 1.6518373231107612E9, 0.0, 2022-05-06 12:42:03.110
50.0, -268.1358672231436, -202.24069995386526, -202.5043629007414, -212.4207076332532, 0.12800000607967377, 0.11200000531971455, 0.9920000471174717, 0.0, 0.0, 0.0, 0.0, 0.0, 1.6518373231267743E9, 0.0, 2022-05-06 12:42:03.126
50.0, -315.2212076652795, -282.2932585054077, -267.9114732258022, -251.52884146990255, 0.12800000607967377, 0.11200000531971455, 0.9920000471174717, 0.0, 0.0, 0.0, 0.0, 0.0, 1.6518373231267743E9, 0.0, 2022-05-06 12:42:03.126
51.0, -268.22562482208014, -121.77675240719691, -180.55489006079733, -184.9586222586222, 0.12800000607967377, 0.12800000607967377, 0.9920000471174717, 0.0, 0.0, 0.0, 0.0, 0.0, 1.6518373231277163E9, 0.0, 2022-05-06 12:42:03.127
51.0, -212.5085952822119, -57.62998836720362, -133.52190821804106, -162.9081721198745, 0.12800000607967377, 0.12800000607967377, 0.9920000471174717, 0.0, 0.0, 0.0, 0.0, 0.0, 1.6518373231277163E9, 0.0, 2022-05-06 12:42:03.127
52.0, -267.1335740350187, -207.68973418930545, -213.41365107148886, -222.16688691778108, 0.12800000607967377, 0.12800000607967377, 0.9920000471174717, 0.0, 0.0, 0.0, 0.0, 0.0, 1.6518373231407747E9, 0.0, 2022-05-06 12:42:03.140
52.0, -324.5298186549917, -285.2365597705357, -274.7928891442716, -259.89499767078087, 0.12800000607967377, 0.12800000607967377, 0.9920000471174717, 0.0, 0.0, 0.0, 0.0, 0.0, 1.6518373231407747E9, 0.0, 2022-05-06 12:42:03.140
53.0, -270.2676101978868, -139.73575199441984, -192.1635395232588, -191.33889158302918, 0.12800000607967377, 0.12800000607967377, 0.9920000471174717, 0.0, 0.0, 0.0, 0.0, 0.0, 1.6518373231567538E9, 0.0, 2022-05-06 12:42:03.156
53.0, -211.67833749204874, -61.930873316247016, -131.86887243762612, -159.80405515665188, 0.12800000607967377, 0.12800000607967377, 0.9920000471174717, 0.0, 0.0, 0.0, 0.0, 0.0, 1.6518373231567538E9, 0.0, 2022-05-06 12:42:03.156
54.0, -254.16360098868608, -194.71228134306148, -194.4224390964955, -201.98638675687835, 0.12800000607967377, 0.12800000607967377, 0.9920000471174717, 0.0, 0.0, 0.0, 0.0, 0.0, 1.6518373231576972E9, 0.0, 2022-05-06 12:42:03.157
54.0, -320.64780250098556, -276.98260056832805, -267.8254555268213, -251.25956867309287, 0.12800000607967377, 0.12800000607967377, 0.9920000471174717, 0.0, 0.0, 0.0, 0.0, 0.0, 1.6518373231576972E9, 0.0, 2022-05-06 12:42:03.157
55.0, -257.4883720492944, -128.12336263200268, -180.09488236624748, -182.44540948839858, 0.12800000607967377, 0.12800000607967377, 0.9920000471174717, 0.0, 0.0, 0.0, 0.0, 0.0, 1.6518373231707401E9, 0.0, 2022-05-06 12:42:03.170
55.0, -178.58770268410444, -32.00793377077207, -98.06391673814505, -122.10212370334193, 0.12800000607967377, 0.12800000607967377, 0.9920000471174717, 0.0, 0.0, 0.0, 0.0, 0.0, 1.6518373231707401E9, 0.0, 2022-05-06 12:42:03.170
56.0, -269.3588145086542, -206.64630210166797, -210.05148101132363, -216.09702928969637, 0.12800000607967377, 0.12800000607967377, 0.9920000471174717, 0.0, 0.0, 0.0, 0.0, 0.0, 1.6518373231867454E9, 0.0, 2022-05-06 12:42:03.186
56.0, -326.43716763239354, -282.94400109769776, -273.9476717542857, -259.1769368792884, 0.12800000607967377, 0.12800000607967377, 0.9920000471174717, 0.0, 0.0, 0.0, 0.0, 0.0, 1.6518373231867454E9, 0.0, 2022-05-06 12:42:03.186
57.0, -258.9431931320578, -127.9326277342625, -182.6791532356292, -191.94101547589526, 0.12800000607967377, 0.12800000607967377, 0.9920000471174717, 0.0, 0.0, 0.0, 0.0, 0.0, 1.651837323187698E9, 0.0, 2022-05-06 12:42:03.187
57.0, -200.15944562852383, -49.64904186176136, -107.7539975233376, -129.60436301445588, 0.12800000607967377, 0.12800000607967377, 0.9920000471174717, 0.0, 0.0, 0.0, 0.0, 0.0, 1.651837323187698E9, 0.0, 2022-05-06 12:42:03.187
58.0, -262.5260172896087, -207.14744869573042, -207.43729094229639, -210.19920705957338, 0.12800000607967377, 0.12800000607967377, 0.9920000471174717, 0.0, 0.0, 0.0, 0.0, 0.0, 1.6518373232178147E9, 0.0, 2022-05-06 12:42:03.217
58.0, -332.8211768567562, -286.5642242548056, -285.74331621453166, -271.7018618308939, 0.12800000607967377, 0.12800000607967377, 0.9920000471174717, 0.0, 0.0, 0.0, 0.0, 0.0, 1.6518373232178147E9, 0.0, 2022-05-06 12:42:03.217
59.0, -253.87188879214227, -123.56442458601668, -180.57732946053147, -177.97622904134914, 0.12800000607967377, 0.12800000607967377, 0.9920000471174717, 0.0, 0.0, 0.0, 0.0, 0.0, 1.6518373232187116E9, 0.0, 2022-05-06 12:42:03.218
59.0, -181.32530945166945, -35.54587912885472, -100.59208910819143, -119.83200443023816, 0.12800000607967377, 0.12800000607967377, 0.9920000471174717, 0.0, 0.0, 0.0, 0.0, 0.0, 1.6518373232187116E9, 0.0, 2022-05-06 12:42:03.218
60.0, -252.91821430344135, -197.5209462097846, -192.11492082383484, -207.8991685868241, 0.12800000607967377, 0.12800000607967377, 1.008000047877431, 0.0, 0.0, 0.0, 0.0, 0.0, 1.6518373232197464E9, 0.0, 2022-05-06 12:42:03.219
60.0, -312.4873407976702, -265.13085760874674, -255.10605577751994, -242.86349327256903, 0.12800000607967377, 0.12800000607967377, 1.008000047877431, 0.0, 0.0, 0.0, 0.0, 0.0, 1.6518373232197464E9, 0.0, 2022-05-06 12:42:03.219
61.0, -257.80626354552805, -121.15592901455238, -176.95710630342364, -177.31426674919203, 0.12800000607967377, 0.12800000607967377, 1.008000047877431, 0.0, 0.0, 0.0, 0.0, 0.0, 1.6518373232477813E9, 0.0, 2022-05-06 12:42:03.247
61.0, -196.2811693744734, -54.95595989888534, -119.16443228814751, -135.59194284351543, 0.12800000607967377, 0.12800000607967377, 1.008000047877431, 0.0, 0.0, 0.0, 0.0, 0.0, 1.6518373232477813E9, 0.0, 2022-05-06 12:42:03.247
62.0, -254.39921468589455, -197.58078460907564, -195.06570188887417, -194.3382913474925, 0.12800000607967377, 0.12800000607967377, 1.008000047877431, 0.0, 0.0, 0.0, 0.0, 0.0, 1.6518373232487104E9, 0.0, 2022-05-06 12:42:03.248
62.0, -315.4792607622221, -274.42824889859185, -272.88928006682545, -261.6677102497779, 0.12800000607967377, 0.12800000607967377, 1.008000047877431, 0.0, 0.0, 0.0, 0.0, 0.0, 1.6518373232487104E9, 0.0, 2022-05-06 12:42:03.248
63.0, -246.55290457885712, -113.05904561048374, -172.17377426009625, -182.46784888813272, 0.12800000607967377, 0.12800000607967377, 1.008000047877431, 0.0, 0.0, 0.0, 0.0, 0.0, 1.6518373232497592E9, 0.0, 2022-05-06 12:42:03.249
63.0, -182.94842603243887, -41.065971463453025, -103.91312026884407, -129.44354731636122, 0.12800000607967377, 0.12800000607967377, 1.008000047877431, 0.0, 0.0, 0.0, 0.0, 0.0, 1.6518373232497592E9, 0.0, 2022-05-06 12:42:03.249
64.0, -268.2779834214598, -207.0838703964837, -210.37311240751296, -224.47440519044176, 0.12800000607967377, 0.12800000607967377, 1.008000047877431, 0.0, 0.0, 0.0, 0.0, 0.0, 1.6518373232607355E9, 0.0, 2022-05-06 12:42:03.260
64.0, -302.82717921212316, -266.01721389824525, -257.57812964823097, -245.71703693876043, 0.12800000607967377, 0.12800000607967377, 1.008000047877431, 0.0, 0.0, 0.0, 0.0, 0.0, 1.6518373232607355E9, 0.0, 2022-05-06 12:42:03.260
65.0, -246.7436394765973, -116.92984206462279, -170.16170808393508, -173.94087698915973, 0.12800000607967377, 0.12800000607967377, 1.008000047877431, 0.0, 0.0, 0.0, 0.0, 0.0, 1.6518373232767668E9, 0.0, 2022-05-06 12:42:03.276
65.0, -194.99464378971606, -46.36540970066562, -109.35841460432857, -134.1558212605305, 0.12800000607967377, 0.12800000607967377, 1.008000047877431, 0.0, 0.0, 0.0, 0.0, 0.0, 1.6518373232767668E9, 0.0, 2022-05-06 12:42:03.276
66.0, -267.3766675321385, -204.84367032302544, -204.53512857668102, -217.73136557033285, 0.12800000607967377, 0.12800000607967377, 1.008000047877431, 0.0, 0.0, 0.0, 0.0, 0.0, 1.6518373232776952E9, 0.0, 2022-05-06 12:42:03.277
66.0, -319.68290831241757, -268.0629391740076, -255.03499767836183, -240.8028083969839, 0.12800000607967377, 0.12800000607967377, 1.008000047877431, 0.0, 0.0, 0.0, 0.0, 0.0, 1.6518373232776952E9, 0.0, 2022-05-06 12:42:03.277
67.0, -258.31862983945757, -124.11044997954741, -181.31782965175807, -183.6571370740421, 0.12800000607967377, 0.12800000607967377, 1.008000047877431, 0.0, 0.0, 0.0, 0.0, 0.0, 1.6518373232907438E9, 0.0, 2022-05-06 12:42:03.290
67.0, -182.28272384032607, -38.82577138999477, -108.78247001115233, -134.75794515339658, 0.12800000607967377, 0.12800000607967377, 1.008000047877431, 0.0, 0.0, 0.0, 0.0, 0.0, 1.6518373232907438E9, 0.0, 2022-05-06 12:42:03.290
68.0, -261.8303958978504, -200.13513627881184, -196.26620977465063, -205.59165031416342, 0.12800000607967377, 0.12800000607967377, 1.008000047877431, 0.0, 0.0, 0.0, 0.0, 0.0, 1.6518373233067725E9, 0.0, 2022-05-06 12:42:03.306
68.0, -314.6677024718374, -266.4772215927951, -256.4262404618785, -240.66817199857906, 0.12800000607967377, 0.12800000607967377, 1.008000047877431, 0.0, 0.0, 0.0, 0.0, 0.0, 1.6518373233067725E9, 0.0, 2022-05-06 12:42:03.306
69.0, -241.94534783344716, -111.61170432763174, -169.9747130861506, -163.30834141513333, 0.12800000607967377, 0.12800000607967377, 1.008000047877431, 0.0, 0.0, 0.0, 0.0, 0.0, 1.6518373233076952E9, 0.0, 2022-05-06 12:42:03.307
69.0, -202.11541330534965, -51.83688333583996, -119.01109638996422, -148.37118099210784, 0.12800000607967377, 0.12800000607967377, 1.008000047877431, 0.0, 0.0, 0.0, 0.0, 0.0, 1.6518373233076952E9, 0.0, 2022-05-06 12:42:03.307
70.0, -250.7528122290969, -195.51261993357912, -192.60484771803021, -203.9273948338814, 0.12800000607967377, 0.12800000607967377, 1.0240000486373901, 0.0, 0.0, 0.0, 0.0, 0.0, 1.651837323320768E9, 0.0, 2022-05-06 12:42:03.320
70.0, -315.35584406368434, -273.04822581494227, -266.03404344804585, -252.66577105643228, 0.12800000607967377, 0.12800000607967377, 1.0240000486373901, 0.0, 0.0, 0.0, 0.0, 0.0, 1.651837323320768E9, 0.0, 2022-05-06 12:42:03.320
71.0, -242.02014583256096, -111.5556058282964, -162.10596357937902, -160.88114634389058, 0.12800000607967377, 0.12800000607967377, 1.0240000486373901, 0.0, 0.0, 0.0, 0.0, 0.0, 1.6518373233367753E9, 0.0, 2022-05-06 12:42:03.336
71.0, -182.5632163370028, -43.511866034474224, -112.36903406865895, -127.36416294099763, 0.12800000607967377, 0.12800000607967377, 1.0240000486373901, 0.0, 0.0, 0.0, 0.0, 0.0, 1.6518373233367753E9, 0.0, 2022-05-06 12:42:03.336
72.0, -262.7952900864184, -213.5651170196943, -213.82877996657044, -223.24397810501978, 0.12800000607967377, 0.12800000607967377, 1.0240000486373901, 0.0, 0.0, 0.0, 0.0, 0.0, 1.6518373233377063E9, 0.0, 2022-05-06 12:42:03.337
72.0, -321.7922118874267, -266.2266482957639, -251.0482643255964, -245.73947633849457, 0.12800000607967377, 0.12800000607967377, 1.0240000486373901, 0.0, 0.0, 0.0, 0.0, 0.0, 1.6518373233377063E9, 0.0, 2022-05-06 12:42:03.337
73.0, -252.596582907252, -137.07294322596863, -183.72632522322237, -173.61176579305902, 0.12800000607967377, 0.12800000607967377, 1.0240000486373901, 0.0, 0.0, 0.0, 0.0, 0.0, 1.6518373233677473E9, 0.0, 2022-05-06 12:42:03.367
73.0, -201.10938021726906, -50.4119814527221, -120.15550577640533, -140.31917638750747, 0.12800000607967377, 0.12800000607967377, 1.0240000486373901, 0.0, 0.0, 0.0, 0.0, 0.0, 1.6518373233677473E9, 0.0, 2022-05-06 12:42:03.367
74.0, -256.99096535518765, -185.85993814794347, -195.23025748692453, -209.73919936502352, 0.12800000607967377, 0.12800000607967377, 1.0240000486373901, 0.0, 0.0, 0.0, 0.0, 0.0, 1.651837323368763E9, 0.0, 2022-05-06 12:42:03.368
74.0, -313.7140279831365, -268.2162750721909, -268.9810846131295, -256.6861635087989, 0.12800000607967377, 0.12800000607967377, 1.0240000486373901, 0.0, 0.0, 0.0, 0.0, 0.0, 1.651837323368763E9, 0.0, 2022-05-06 12:42:03.368
75.0, -265.0055709602311, -142.49953806167468, -198.95519784279168, -198.85983039392158, 0.12800000607967377, 0.12800000607967377, 1.0240000486373901, 0.0, 0.0, 0.0, 0.0, 0.0, 1.6518373233697023E9, 0.0, 2022-05-06 12:42:03.369
75.0, -208.79113472625613, -60.737845230381936, -128.41320487856865, -150.36080776853487, 0.12800000607967377, 0.12800000607967377, 1.0240000486373901, 0.0, 0.0, 0.0, 0.0, 0.0, 1.6518373233697023E9, 0.0, 2022-05-06 12:42:03.369
76.0, -259.07034973055124, -187.771027025301, -197.54899545945227, -201.27206586534157, 0.12800000607967377, 0.12800000607967377, 1.0240000486373901, 0.0, 0.0, 0.0, 0.0, 0.0, 1.6518373233807926E9, 0.0, 2022-05-06 12:42:03.380
76.0, -324.200707458891, -279.42849513934925, -268.7529507158324, -254.67035743268207, 0.12800000607967377, 0.12800000607967377, 1.0240000486373901, 0.0, 0.0, 0.0, 0.0, 0.0, 1.6518373233807926E9, 0.0, 2022-05-06 12:42:03.380
77.0, -254.33563638664782, -130.38600210519508, -184.11153491865844, -180.8035934078507, 0.12800000607967377, 0.12800000607967377, 1.0240000486373901, 0.0, 0.0, 0.0, 0.0, 0.0, 1.6518373233967488E9, 0.0, 2022-05-06 12:42:03.396
77.0, -203.01298929471523, -55.06815689755604, -125.21185051649809, -151.85676775081083, 0.12800000607967377, 0.12800000607967377, 1.0240000486373901, 0.0, 0.0, 0.0, 0.0, 0.0, 1.6518373233967488E9, 0.0, 2022-05-06 12:42:03.396
78.0, -250.6406152304262, -185.45602895272896, -189.39227365609258, -208.3816156811081, 0.12800000607967377, 0.12800000607967377, 1.0240000486373901, 0.0, 0.0, 0.0, 0.0, 0.0, 1.6518373233977027E9, 0.0, 2022-05-06 12:42:03.397
78.0, -318.3328044284135, -269.4429622576572, -258.5729430364445, -246.44257753016427, 0.12800000607967377, 0.12800000607967377, 1.0240000486373901, 0.0, 0.0, 0.0, 0.0, 0.0, 1.6518373233977027E9, 0.0, 2022-05-06 12:42:03.397
79.0, -262.0473100952804, -130.38600210519508, -178.6026622839272, -184.64821056229994, 0.12800000607967377, 0.12800000607967377, 1.0240000486373901, 0.0, 0.0, 0.0, 0.0, 0.0, 1.6518373234107766E9, 0.0, 2022-05-06 12:42:03.410
79.0, -199.36658683791757, -57.73470556596294, -122.33960735052824, -145.36804132768884, 0.12800000607967377, 0.12800000607967377, 1.0240000486373901, 0.0, 0.0, 0.0, 0.0, 0.0, 1.6518373234107766E9, 0.0, 2022-05-06 12:42:03.410
80.0, -264.4857248663902, -196.0698650269769, -199.36658683791757, -207.98518628580496, 0.12800000607967377, 0.12800000607967377, 1.0240000486373901, 0.0, 0.0, 0.0, 0.0, 0.0, 1.6518373234267766E9, 0.0, 2022-05-06 12:42:03.426
80.0, -318.893789421767, -266.140630596783, -259.77719082217664, -244.96905694762245, 0.12800000607967377, 0.12800000607967377, 1.0240000486373901, 0.0, 0.0, 0.0, 0.0, 0.0, 1.6518373234267766E9, 0.0, 2022-05-06 12:42:03.426
81.0, -271.47559788357466, -143.943139444571, -195.3873332850635, -197.76777960686013, 0.12800000607967377, 0.12800000607967377, 1.0240000486373901, 0.0, 0.0, 0.0, 0.0, 0.0, 1.65183732342769E9, 0.0, 2022-05-06 12:42:03.427
81.0, -202.73997659794986, -54.705386601854116, -117.17106561176479, -146.89018060965464, 0.12800000607967377, 0.12800000607967377, 1.0240000486373901, 0.0, 0.0, 0.0, 0.0, 0.0, 1.65183732342769E9, 0.0, 2022-05-06 12:42:03.427
82.0, -264.43710616696626, -194.17373574944213, -199.759276333265, -205.82726401137188, 0.12800000607967377, 0.12800000607967377, 1.0240000486373901, 0.0, 0.0, 0.0, 0.0, 0.0, 1.651837323440765E9, 0.0, 2022-05-06 12:42:03.440
82.0, -301.2115424312651, -255.1752439267002, -240.50922625046223, -215.72677919408306, 0.12800000607967377, 0.12800000607967377, 1.0240000486373901, 0.0, 0.0, 0.0, 0.0, 0.0, 1.651837323440765E9, 0.0, 2022-05-06 12:42:03.440
83.0, -246.97925317380577, -125.60267006186768, -181.6768600475043, -174.0306345880963, 0.12800000607967377, 0.12800000607967377, 1.0240000486373901, 0.0, 0.0, 0.0, 0.0, 0.0, 1.6518373234567387E9, 0.0, 2022-05-06 12:42:03.456
83.0, -224.35659834183753, -67.37990755168721, -143.9898881940171, -176.61490545747802, 0.12800000607967377, 0.12800000607967377, 1.0240000486373901, 0.0, 0.0, 0.0, 0.0, 0.0, 1.6518373234567387E9, 0.0, 2022-05-06 12:42:03.456
84.0, -259.1675871293992, -196.82906471798196, -202.93819129560143, -222.54087691335008, 0.12800000607967377, 0.12800000607967377, 1.0240000486373901, 0.0, 0.0, 0.0, 0.0, 0.0, 1.6518373234577012E9, 0.0, 2022-05-06 12:42:03.457
84.0, -312.87629039306194, -265.41882990533486, -257.18544015288353, -239.3143282146193, 0.12800000607967377, 0.12800000607967377, 1.0240000486373901, 0.0, 0.0, 0.0, 0.0, 0.0, 1.6518373234577012E9, 0.0, 2022-05-06 12:42:03.457
85.0, -277.7324505094439, -139.42908019805327, -193.22193121071905, -195.26952643645927, 0.12800000607967377, 0.12800000607967377, 1.0240000486373901, 0.0, 0.0, 0.0, 0.0, 0.0, 1.6518373234878025E9, 0.0, 2022-05-06 12:42:03.487
85.0, -210.66108470410109, -59.084809449967, -123.97020373120904, -148.65541338874027, 0.12800000607967377, 0.12800000607967377, 1.0240000486373901, 0.0, 0.0, 0.0, 0.0, 0.0, 1.6518373234878025E9, 0.0, 2022-05-06 12:42:03.487
86.0, -252.22259291168302, -184.0722659691237, -186.0188838960603, -189.48764110496268, 0.12800000607967377, 0.12800000607967377, 1.0240000486373901, 0.0, 0.0, 0.0, 0.0, 0.0, 1.6518373234887016E9, 0.0, 2022-05-06 12:42:03.488
86.0, -309.45428193360567, -253.41375104757026, -254.91906077973545, -238.52520932396874, 0.12800000607967377, 0.12800000607967377, 1.0240000486373901, 0.0, 0.0, 0.0, 0.0, 0.0, 1.6518373234887016E9, 0.0, 2022-05-06 12:42:03.488
87.0, -276.7525967210531, -141.3813079749234, -192.04386272467673, -203.24299314199015, 0.12800000607967377, 0.12800000607967377, 1.0240000486373901, 0.0, 0.0, 0.0, 0.0, 0.0, 1.6518373234896927E9, 0.0, 2022-05-06 12:42:03.489
87.0, -195.14049988798797, -41.006133064161986, -106.18323954194784, -134.40265465760604, 0.12800000607967377, 0.12800000607967377, 1.0240000486373901, 0.0, 0.0, 0.0, 0.0, 0.0, 1.6518373234896927E9, 0.0, 2022-05-06 12:42:03.489
88.0, -254.76572488155216, -184.86512475972995, -191.54645603056997, -203.01485924469307, 0.12800000607967377, 0.12800000607967377, 1.0240000486373901, 0.0, 0.0, 0.0, 0.0, 0.0, 1.6518373235007608E9, 0.0, 2022-05-06 12:42:03.500
88.0, -322.2185604823753, -278.7029545479454, -265.357121556066, -253.16691765049472, 0.12800000607967377, 0.12800000607967377, 1.0240000486373901, 0.0, 0.0, 0.0, 0.0, 0.0, 1.6518373235007608E9, 0.0, 2022-05-06 12:42:03.500
89.0, -282.9870099471882, -147.3838474038057, -199.93505163118243, -199.3721966878511, 0.12800000607967377, 0.12800000607967377, 1.0240000486373901, 0.0, 0.0, 0.0, 0.0, 0.0, 1.6518373235167603E9, 0.0, 2022-05-06 12:42:03.516
89.0, -213.1780373742804, -67.85487484605983, -133.72012291569263, -159.43380506103858, 0.12800000607967377, 0.12800000607967377, 1.0240000486373901, 0.0, 0.0, 0.0, 0.0, 0.0, 1.6518373235167603E9, 0.0, 2022-05-06 12:42:03.516
90.0, -260.7533047106117, -197.8575372057967, -200.91864531952888, -210.81255065230653, 0.12800000607967377, 0.12800000607967377, 1.0240000486373901, 0.0, 0.0, 0.0, 0.0, 0.0, 1.6518373235177016E9, 0.0, 2022-05-06 12:42:03.517
90.0, -317.2968521406874, -276.39169637532905, -268.95864521339536, -247.08210042258725, 0.12800000607967377, 0.12800000607967377, 1.0240000486373901, 0.0, 0.0, 0.0, 0.0, 0.0, 1.6518373235177016E9, 0.0, 2022-05-06 12:42:03.517
91.0, -260.36435511521995, -134.83648305246606, -182.43979963846505, -180.13041141582653, 0.12800000607967377, 0.11200000531971455, 1.0240000486373901, 0.0, 0.0, 0.0, 0.0, 0.0, 1.651837323530771E9, 0.0, 2022-05-06 12:42:03.530
91.0, -214.1728507624939, -59.25310494797304, -124.71444382239133, -150.82455536304042, 0.12800000607967377, 0.11200000531971455, 1.0240000486373901, 0.0, 0.0, 0.0, 0.0, 0.0, 1.651837323530771E9, 0.0, 2022-05-06 12:42:03.530
92.0, -256.03355096653104, -189.19218900846317, -198.07258145324886, -193.60901085613295, 0.144000006839633, 0.11200000531971455, 1.0240000486373901, 0.0, 0.0, 0.0, 0.0, 0.0, 1.6518373235467432E9, 0.0, 2022-05-06 12:42:03.546
92.0, -313.2988990880549, -262.89813733519986, -256.456159661524, -239.56864141160622, 0.144000006839633, 0.11200000531971455, 1.0240000486373901, 0.0, 0.0, 0.0, 0.0, 0.0, 1.6518373235467432E9, 0.0, 2022-05-06 12:42:03.546
93.0, -247.8992685629055, -124.98184666922316, -176.66913400683552, -179.22535562654957, 0.144000006839633, 0.11200000531971455, 1.0240000486373901, 0.0, 0.0, 0.0, 0.0, 0.0, 1.6518373235477066E9, 0.0, 2022-05-06 12:42:03.547
93.0, -201.96955720707774, -60.805163429584354, -122.62383974716067, -140.4538127859123, 0.144000006839633, 0.11200000531971455, 1.0240000486373901, 0.0, 0.0, 0.0, 0.0, 0.0, 1.6518373235477066E9, 0.0, 2022-05-06 12:42:03.547
94.0, -278.52156940009445, -202.88396274624392, -199.60594043508172, -213.4566599209793, 0.144000006839633, 0.11200000531971455, 1.0240000486373901, 0.0, 0.0, 0.0, 0.0, 0.0, 1.6518373235607612E9, 0.0, 2022-05-06 12:42:03.560
94.0, -314.38720997516066, -267.01202728645876, -258.69635973498225, -238.93285841913894, 0.144000006839633, 0.11200000531971455, 1.0240000486373901, 0.0, 0.0, 0.0, 0.0, 0.0, 1.6518373235607612E9, 0.0, 2022-05-06 12:42:03.560
95.0, -252.0131585141644, -125.6699882610701, -173.66599434241652, -187.1464637327008, 0.144000006839633, 0.11200000531971455, 1.0240000486373901, 0.0, 0.0, 0.0, 0.0, 0.0, 1.651837323576753E9, 0.0, 2022-05-06 12:42:03.576
95.0, -201.74890310969204, -58.99505185103044, -125.28664851561189, -155.11048071226105, 0.144000006839633, 0.11200000531971455, 1.0240000486373901, 0.0, 0.0, 0.0, 0.0, 0.0, 1.651837323576753E9, 0.0, 2022-05-06 12:42:03.576
96.0, -276.2813693266362, -205.21018051868305, -205.51124246511608, -217.2002997766249, 0.144000006839633, 0.11200000531971455, 1.0240000486373901, 0.0, 0.0, 0.0, 0.0, 0.0, 1.6518373235777087E9, 0.0, 2022-05-06 12:42:03.577
96.0, -329.0064789019525, -273.79246590612456, -266.6885259402916, -240.77288919733837, 0.144000006839633, 0.11200000531971455, 1.0240000486373901, 0.0, 0.0, 0.0, 0.0, 0.0, 1.6518373235777087E9, 0.0, 2022-05-06 12:42:03.577
97.0, -268.95864521339536, -132.38310868153349, -185.0465099075809, -189.89903010008857, 0.144000006839633, 0.11200000531971455, 1.0240000486373901, 0.0, 0.0, 0.0, 0.0, 0.0, 1.6518373235908084E9, 0.0, 2022-05-06 12:42:03.590
97.0, -184.59024211298674, -44.54407842224464, -103.7523045707494, -132.87303557572886, 0.144000006839633, 0.11200000531971455, 1.0240000486373901, 0.0, 0.0, 0.0, 0.0, 0.0, 1.6518373235908084E9, 0.0, 2022-05-06 12:42:03.590
98.0, -238.14186957851052, -193.49681385746226, -208.07307393476367, -213.6735741184093, 0.144000006839633, 0.11200000531971455, 1.0240000486373901, 0.0, 0.0, 0.0, 0.0, 0.0, 1.6518373236067672E9, 0.0, 2022-05-06 12:42:03.606
98.0, -336.8939279085025, -275.7521734829061, -263.5021311780438, -246.0199688351713, 0.144000006839633, 0.11200000531971455, 1.0240000486373901, 0.0, 0.0, 0.0, 0.0, 0.0, 1.6518373236067672E9, 0.0, 2022-05-06 12:42:03.606
99.0, -270.0207768008113, -129.73525951290503, -177.67142719496042, -174.77861457923427, 0.144000006839633, 0.11200000531971455, 1.0240000486373901, 0.0, 0.0, 0.0, 0.0, 0.0, 1.6518373236077225E9, 0.0, 2022-05-06 12:42:03.607
99.0, -215.3621389484033, -63.44179289834574, -129.75208906270564, -165.60463998792693, 0.144000006839633, 0.11200000531971455, 1.0240000486373901, 0.0, 0.0, 0.0, 0.0, 0.0, 1.6518373236077225E9, 0.0, 2022-05-06 12:42:03.607
100.0, -263.6031084768474, -195.49392043380067, -204.8754594726488, -211.57923014322296, 0.144000006839633, 0.11200000531971455, 1.0240000486373901, 0.0, 0.0, 0.0, 0.0, 0.0, 1.6518373236217482E9, 0.0, 2022-05-06 12:42:03.621
100.0, -318.39264282770455, -271.5934047321789, -262.0473100952804, -245.04011504678056, 0.144000006839633, 0.11200000531971455, 1.0240000486373901, 0.0, 0.0, 0.0, 0.0, 0.0, 1.6518373236217482E9, 0.0, 2022-05-06 12:42:03.621
0.0, -262.5877256388776, -137.05237377621233, -183.28314707847312, -172.44865690683946, 0.144000006839633, 0.11200000531971455, 1.0240000486373901, 0.0, 0.0, 0.0, 0.0, 0.0, 1.6518373236226904E9, 0.0, 2022-05-06 12:42:03.622
1.0, -225.63751407666132, -69.9585685711354, -131.73610598919913, -163.44671771349385, 0.144000006839633, 0.11200000531971455, 1.0240000486373901, 0.0, 0.0, 0.0, 0.0, 0.0, 1.6518373236357827E9, 0.0, 2022-05-06 12:42:03.635
1.0, -264.6297110146843, -200.08464762941003, -201.39922246383503, -203.02233904460445, 0.144000006839633, 0.11200000531971455, 1.0240000486373901, 0.0, 0.0, 0.0, 0.0, 0.0, 1.6518373236357827E9, 0.0, 2022-05-06 12:42:03.635
2.0, -323.7612692140974, -275.6194070344791, -265.8526583001949, -247.78520161425695, 0.144000006839633, 0.11200000531971455, 1.0240000486373901, 0.0, 0.0, 0.0, 0.0, 0.0, 1.6518373236517427E9, 0.0, 2022-05-06 12:42:03.651
2.0, -250.1749976859428, -125.07347421813756, -170.9564368245192, -178.75038833217695, 0.144000006839633, 0.11200000531971455, 1.0240000486373901, 0.0, 0.0, 0.0, 0.0, 0.0, 1.6518373236517427E9, 0.0, 2022-05-06 12:42:03.651
3.0, -192.1878488729708, -49.0226086191833, -117.31879166001454, -129.31639071786776, 0.144000006839633, 0.11200000531971455, 1.0240000486373901, 0.0, 0.0, 0.0, 0.0, 0.0, 1.6518373236527123E9, 0.0, 2022-05-06 12:42:03.652
3.0, -269.12133086146787, -196.84215436782688, -196.46629442228004, -210.83872995199636, 0.144000006839633, 0.11200000531971455, 1.0240000486373901, 0.0, 0.0, 0.0, 0.0, 0.0, 1.6518373236527123E9, 0.0, 2022-05-06 12:42:03.652
4.0, -328.90363165317103, -282.49334315303713, -268.9941742629744, -256.0690800161101, 0.144000006839633, 0.11200000531971455, 1.0240000486373901, 0.0, 0.0, 0.0, 0.0, 0.0, 1.651837323665775E9, 0.0, 2022-05-06 12:42:03.665
4.0, -268.5603458681144, -137.22814907412976, -188.35819131834432, -194.08397815050557, 0.144000006839633, 0.11200000531971455, 1.0240000486373901, 0.0, 0.0, 0.0, 0.0, 0.0, 1.651837323665775E9, 0.0, 2022-05-06 12:42:03.665
5.0, -204.8548900228925, -60.979068777523935, -126.64984204946086, -152.6084876419045, 0.144000006839633, 0.11200000531971455, 1.0240000486373901, 0.0, 0.0, 0.0, 0.0, 0.0, 1.651837323681748E9, 0.0, 2022-05-06 12:42:03.681
5.0, -266.0396532979794, -207.55696774087846, -207.03525169705972, -217.271357875783, 0.144000006839633, 0.11200000531971455, 1.0240000486373901, 0.0, 0.0, 0.0, 0.0, 0.0, 1.651837323681748E9, 0.0, 2022-05-06 12:42:03.681
6.0, -315.59332771087065, -262.2043858934194, -254.5880796336569, -231.25858371006325, 0.144000006839633, 0.11200000531971455, 1.0240000486373901, 0.0, 0.0, 0.0, 0.0, 0.0, 1.65183732368275E9, 0.0, 2022-05-06 12:42:03.682
6.0, -257.27332780184224, -131.2106500454247, -185.43358955299482, -192.90964956441894, 0.144000006839633, 0.11200000531971455, 1.0240000486373901, 0.0, 0.0, 0.0, 0.0, 0.0, 1.65183732368275E9, 0.0, 2022-05-06 12:42:03.682
7.0, -206.95297389803454, -59.307333497330546, -125.06786436820403, -154.67665231740102, 0.144000006839633, 0.11200000531971455, 1.0240000486373901, 0.0, 0.0, 0.0, 0.0, 0.0, 1.6518373236957357E9, 0.0, 2022-05-06 12:42:03.695
7.0, -264.693289313931, -204.30325477942824, -201.05515166791156, -210.8275102521293, 0.144000006839633, 0.11200000531971455, 1.0240000486373901, 0.0, 0.0, 0.0, 0.0, 0.0, 1.6518373236957357E9, 0.0, 2022-05-06 12:42:03.695
8.0, -316.8761133956723, -267.0138972364366, -250.83322007814422, -231.91306620230898, 0.144000006839633, 0.11200000531971455, 1.0240000486373901, 0.0, 0.0, 0.0, 0.0, 0.0, 1.6518373237117584E9, 0.0, 2022-05-06 12:42:03.711
8.0, -266.53332009213045, -137.65075776912272, -190.9275025879033, -190.83400508901104, 0.144000006839633, 0.11200000531971455, 1.0240000486373901, 0.0, 0.0, 0.0, 0.0, 0.0, 1.6518373237117584E9, 0.0, 2022-05-06 12:42:03.711
9.0, -202.44265455147251, -62.27307416219264, -126.12999595561996, -153.03483623685315, 0.144000006839633, 0.11200000531971455, 1.0240000486373901, 0.0, 0.0, 0.0, 0.0, 0.0, 1.651837323712695E9, 0.0, 2022-05-06 12:42:03.712
9.0, -269.0278333625756, -204.9839165713638, -208.9313809745945, -214.66090770671144, 0.144000006839633, 0.11200000531971455, 1.0240000486373901, 0.0, 0.0, 0.0, 0.0, 0.0, 1.651837323712695E9, 0.0, 2022-05-06 12:42:03.712
10.0, -326.0351283871569, -272.5751284705475, -266.27152709523216, -251.46526317065582, 0.144000006839633, 0.11200000531971455, 1.0240000486373901, 0.0, 0.0, 0.0, 0.0, 0.0, 1.6518373237257435E9, 0.0, 2022-05-06 12:42:03.725
10.0, -259.2218156787567, -128.18133108131588, -184.98480155831203, -186.92954953527078, 0.144000006839633, 0.11200000531971455, 1.0240000486373901, 0.0, 0.0, 0.0, 0.0, 0.0, 1.6518373237257435E9, 0.0, 2022-05-06 12:42:03.725
11.0, -201.0027930685319, -55.8778452379629, -112.93936881190166, -136.8597689284943, 0.144000006839633, 0.12800000607967377, 1.0240000486373901, 0.0, 0.0, 0.0, 0.0, 0.0, 1.651837323741747E9, 0.0, 2022-05-06 12:42:03.741
11.0, -275.86437048157677, -218.63081150967628, -218.77479765797034, -226.3854940677993, 0.144000006839633, 0.12800000607967377, 1.0240000486373901, 0.0, 0.0, 0.0, 0.0, 0.0, 1.651837323741747E9, 0.0, 2022-05-06 12:42:03.741
12.0, -321.9773369352333, -264.8372754622251, -263.3244859301485, -242.49324317695573, 0.144000006839633, 0.12800000607967377, 1.0240000486373901, 0.0, 0.0, 0.0, 0.0, 0.0, 1.6518373237567842E9, 0.0, 2022-05-06 12:42:03.756
12.0, -261.35355865349993, -128.89939187280834, -182.6660635857843, -190.94620208768174, 0.144000006839633, 0.12800000607967377, 1.0240000486373901, 0.0, 0.0, 0.0, 0.0, 0.0, 1.6518373237567842E9, 0.0, 2022-05-06 12:42:03.756
13.0, -208.37039598124102, -60.567679782398045, -129.19671391928568, -146.80416291067377, 0.144000006839633, 0.12800000607967377, 1.0240000486373901, 0.0, 0.0, 0.0, 0.0, 0.0, 1.6518373237577307E9, 0.0, 2022-05-06 12:42:03.757
13.0, -255.75492841983214, -199.3142282385379, -189.326825406868, -205.1204229197465, 0.144000006839633, 0.12800000607967377, 1.0240000486373901, 0.0, 0.0, 0.0, 0.0, 0.0, 1.6518373237577307E9, 0.0, 2022-05-06 12:42:03.757
14.0, -307.9377525015734, -261.6882796995342, -250.33955328399315, -221.80785652203485, 0.144000006839633, 0.12800000607967377, 1.0240000486373901, 0.0, 0.0, 0.0, 0.0, 0.0, 1.651837323771798E9, 0.0, 2022-05-06 12:42:03.771
14.0, -266.76145398942754, -136.12487858720124, -185.52708705188707, -187.84208512445912, 0.144000006839633, 0.12800000607967377, 1.0240000486373901, 0.0, 0.0, 0.0, 0.0, 0.0, 1.651837323771798E9, 0.0, 2022-05-06 12:42:03.771
15.0, -195.72205433109775, -54.3968448555097, -113.1450633094646, -143.03060385538265, 0.144000006839633, 0.12800000607967377, 1.0240000486373901, 0.0, 0.0, 0.0, 0.0, 0.0, 1.6518373237727036E9, 0.0, 2022-05-06 12:42:03.772
15.0, -247.71788341505453, -198.4989300481975, -198.66161569627002, -208.03006508527324, 0.144000006839633, 0.12800000607967377, 1.0240000486373901, 0.0, 0.0, 0.0, 0.0, 0.0, 1.6518373237727036E9, 0.0, 2022-05-06 12:42:03.772
16.0, -333.78420109534636, -277.03682911768556, -266.0658325976692, -258.86652518296614, 0.144000006839633, 0.12800000607967377, 1.0240000486373901, 0.0, 0.0, 0.0, 0.0, 0.0, 1.6518373237857587E9, 0.0, 2022-05-06 12:42:03.785
16.0, -249.42701769480482, -123.75328953377903, -175.38821827201173, -174.70381658012047, 0.144000006839633, 0.12800000607967377, 1.0240000486373901, 0.0, 0.0, 0.0, 0.0, 0.0, 1.6518373237857587E9, 0.0, 2022-05-06 12:42:03.785
17.0, -202.72688694810495, -54.45294335484505, -124.0767908799462, -149.96063847327605, 0.144000006839633, 0.12800000607967377, 1.0240000486373901, 0.0, 0.0, 0.0, 0.0, 0.0, 1.6518373238018012E9, 0.0, 2022-05-06 12:42:03.801
17.0, -279.72394723584875, -217.96510931756347, -214.32431671069935, -231.92428590217605, 0.144000006839633, 0.12800000607967377, 1.0240000486373901, 0.0, 0.0, 0.0, 0.0, 0.0, 1.6518373238018012E9, 0.0, 2022-05-06 12:42:03.801
18.0, -325.44796409411356, -265.91810654941946, -262.8083797362633, -246.77542862622067, 0.144000006839633, 0.12800000607967377, 1.0240000486373901, 0.0, 0.0, 0.0, 0.0, 0.0, 1.65183732380275E9, 0.0, 2022-05-06 12:42:03.802
18.0, -254.96954942913726, -123.92906483169645, -177.74435524409637, -183.49258147599176, 0.144000006839633, 0.12800000607967377, 1.0240000486373901, 0.0, 0.0, 0.0, 0.0, 0.0, 1.65183732380275E9, 0.0, 2022-05-06 12:42:03.802
19.0, -205.86466301092878, -60.967849077656865, -123.23905328987166, -147.51474390225485, 0.144000006839633, 0.12800000607967377, 1.0240000486373901, 0.0, 0.0, 0.0, 0.0, 0.0, 1.651837323815758E9, 0.0, 2022-05-06 12:42:03.815
19.0, -270.34427814697847, -211.36792579572648, -215.91751409182325, -223.6478873002343, 0.144000006839633, 0.12800000607967377, 1.0240000486373901, 0.0, 0.0, 0.0, 0.0, 0.0, 1.651837323815758E9, 0.0, 2022-05-06 12:42:03.815
20.0, -323.6602919152938, -269.433612507768, -264.8129661125131, -246.09102693432942, 0.144000006839633, 0.12800000607967377, 1.0240000486373901, 0.0, 0.0, 0.0, 0.0, 0.0, 1.6518373238317928E9, 0.0, 2022-05-06 12:42:03.831
20.0, -253.8064405429177, -123.70467083435506, -175.85944566642866, -167.9906961596571, 0.144000006839633, 0.12800000607967377, 1.0240000486373901, 0.0, 0.0, 0.0, 0.0, 0.0, 1.6518373238317928E9, 0.0, 2022-05-06 12:42:03.831
21.0, -204.25650602998212, -59.12407839950174, -125.41567506408319, -144.32460924005136, 0.144000006839633, 0.12800000607967377, 1.0240000486373901, 0.0, 0.0, 0.0, 0.0, 0.0, 1.6518373238327029E9, 0.0, 2022-05-06 12:42:03.832
21.0, -268.90815656399354, -211.60727939289063, -220.06506314268336, -224.40708699123934, 0.144000006839633, 0.12800000607967377, 1.0240000486373901, 0.0, 0.0, 0.0, 0.0, 0.0, 1.6518373238327029E9, 0.0, 2022-05-06 12:42:03.832
22.0, -312.4555516480468, -257.06576335430145, -260.2241088668816, -247.48600961780176, 0.144000006839633, 0.12800000607967377, 1.0240000486373901, 0.0, 0.0, 0.0, 0.0, 0.0, 1.651837323862748E9, 0.0, 2022-05-06 12:42:03.862
22.0, -250.7696417788975, -117.42163890879601, -169.4006384429522, -168.16273155761883, 0.144000006839633, 0.12800000607967377, 1.0240000486373901, 0.0, 0.0, 0.0, 0.0, 0.0, 1.651837323862748E9, 0.0, 2022-05-06 12:42:03.862
23.0, -191.97841447545215, -47.95299723185599, -114.24833379639313, -134.25305865937844, 0.144000006839633, 0.12800000607967377, 1.0240000486373901, 0.0, 0.0, 0.0, 0.0, 0.0, 1.6518373238637009E9, 0.0, 2022-05-06 12:42:03.863
23.0, -261.1890030554496, -203.82828748505563, -193.19762186100706, -199.64520938461646, 0.144000006839633, 0.12800000607967377, 1.0240000486373901, 0.0, 0.0, 0.0, 0.0, 0.0, 1.6518373238637009E9, 0.0, 2022-05-06 12:42:03.863
24.0, -304.40728694340214, -260.1175217181444, -255.9942820169963, -245.75443593831733, 0.144000006839633, 0.12800000607967377, 1.0240000486373901, 0.0, 0.0, 0.0, 0.0, 0.0, 1.651837323864703E9, 0.0, 2022-05-06 12:42:03.864
24.0, -254.8423928306438, -121.93569815531373, -181.1401844038628, -192.76753336610273, 0.144000006839633, 0.12800000607967377, 1.0240000486373901, 0.0, 0.0, 0.0, 0.0, 0.0, 1.651837323864703E9, 0.0, 2022-05-06 12:42:03.864
25.0, -211.10052294889465, -69.28164667915553, -133.1198689728044, -163.60753341158852, 0.144000006839633, 0.12800000607967377, 1.0240000486373901, 0.0, 0.0, 0.0, 0.0, 0.0, 1.6518373238757472E9, 0.0, 2022-05-06 12:42:03.875
25.0, -256.09151941584423, -200.6830316223204, -201.24588656565174, -201.60865686135367, 0.144000006839633, 0.12800000607967377, 1.0240000486373901, 0.0, 0.0, 0.0, 0.0, 0.0, 1.6518373238757472E9, 0.0, 2022-05-06 12:42:03.875
26.0, -326.89904527692124, -278.5327890999615, -272.61439742008224, -264.9513424108736, 0.144000006839633, 0.12800000607967377, 1.0240000486373901, 0.0, 0.0, 0.0, 0.0, 0.0, 1.651837323891751E9, 0.0, 2022-05-06 12:42:03.891
26.0, -260.074512868654, -127.26131569221616, -183.30558647820726, -192.31874537141994, 0.144000006839633, 0.12800000607967377, 1.0240000486373901, 0.0, 0.0, 0.0, 0.0, 0.0, 1.651837323891751E9, 0.0, 2022-05-06 12:42:03.891
27.0, -204.91098852222785, -60.126371587626636, -126.27585205389187, -154.39989972067997, 0.144000006839633, 0.12800000607967377, 1.0240000486373901, 0.0, 0.0, 0.0, 0.0, 0.0, 1.6518373238927164E9, 0.0, 2022-05-06 12:42:03.892
27.0, -256.8768984065391, -193.91381270252168, -196.5523121212609, -200.5951439733617, 0.144000006839633, 0.12800000607967377, 1.0240000486373901, 0.0, 0.0, 0.0, 0.0, 0.0, 1.6518373238927164E9, 0.0, 2022-05-06 12:42:03.892
28.0, -303.4872715543024, -254.65352788288146, -239.63221971085295, -216.680453682784, 0.144000006839633, 0.12800000607967377, 1.0240000486373901, 0.0, 0.0, 0.0, 0.0, 0.0, 1.6518373239058073E9, 0.0, 2022-05-06 12:42:03.905
28.0, -245.51134244119748, -119.08589438907802, -176.4391301595606, -181.48051529983059, 0.144000006839633, 0.12800000607967377, 1.0240000486373901, 0.0, 0.0, 0.0, 0.0, 0.0, 1.6518373239058073E9, 0.0, 2022-05-06 12:42:03.905
29.0, -184.04982656938955, -57.21672942209989, -122.58083089767024, -150.45430526742712, 0.144000006839633, 0.12800000607967377, 1.0240000486373901, 0.0, 0.0, 0.0, 0.0, 0.0, 1.6518373239217467E9, 0.0, 2022-05-06 12:42:03.921
29.0, -266.94096918730065, -205.41400506626815, -206.20125400694087, -208.42649448057637, 0.144000006839633, 0.12800000607967377, 1.0240000486373901, 0.0, 0.0, 0.0, 0.0, 0.0, 1.6518373239217467E9, 0.0, 2022-05-06 12:42:03.921
30.0, -324.53168860496953, -272.0552823767066, -259.38637127680704, -232.72836439264938, 0.144000006839633, 0.12800000607967377, 1.0240000486373901, 0.0, 0.0, 0.0, 0.0, 0.0, 1.6518373239227057E9, 0.0, 2022-05-06 12:42:03.922
30.0, -245.44028434203938, -115.51428993139416, -171.1770909219049, -179.0346207288094, 0.144000006839633, 0.12800000607967377, 1.0240000486373901, 0.0, 0.0, 0.0, 0.0, 0.0, 1.6518373239227057E9, 0.0, 2022-05-06 12:42:03.922
31.0, -199.52927248599008, -62.43014996033162, -129.71656001312658, -156.7186376932077, 0.144000006839633, 0.12800000607967377, 1.0240000486373901, 0.0, 0.0, 0.0, 0.0, 0.0, 1.6518373239357643E9, 0.0, 2022-05-06 12:42:03.935
31.0, -253.4324505473487, -193.17331251129508, -202.03500545630231, -207.46908009191975, 0.144000006839633, 0.12800000607967377, 1.0240000486373901, 0.0, 0.0, 0.0, 0.0, 0.0, 1.6518373239357643E9, 0.0, 2022-05-06 12:42:03.935
32.0, -292.3386297863908, -252.03933781385422, -250.32833358412609, -239.52750251209363, 0.12800000607967377, 0.12800000607967377, 1.0240000486373901, 0.0, 0.0, 0.0, 0.0, 0.0, 1.6518373239517696E9, 0.0, 2022-05-06 12:42:03.951
32.0, -257.53512079874054, -116.19121182337403, -170.51512862974778, -180.48570191161707, 0.12800000607967377, 0.12800000607967377, 1.0240000486373901, 0.0, 0.0, 0.0, 0.0, 0.0, 1.6518373239517696E9, 0.0, 2022-05-06 12:42:03.951
33.0, -209.3801689692773, -67.61365129891783, -128.10092323226854, -160.17430525226519, 0.12800000607967377, 0.12800000607967377, 1.0240000486373901, 0.0, 0.0, 0.0, 0.0, 0.0, 1.6518373239527545E9, 0.0, 2022-05-06 12:42:03.952
33.0, -273.7401073067449, -217.4003844242543, -217.5705498722382, -222.58575571281835, 0.12800000607967377, 0.12800000607967377, 1.0240000486373901, 0.0, 0.0, 0.0, 0.0, 0.0, 1.6518373239527545E9, 0.0, 2022-05-06 12:42:03.952
34.0, -312.4368521482684, -262.245524792932, -247.3925121189095, -238.89919931953773, 0.12800000607967377, 0.12800000607967377, 1.0240000486373901, 0.0, 0.0, 0.0, 0.0, 0.0, 1.6518373239657445E9, 0.0, 2022-05-06 12:42:03.965
34.0, -247.74032281478867, -109.33971510455012, -167.75882236240432, -175.43309707148, 0.12800000607967377, 0.12800000607967377, 1.0240000486373901, 0.0, 0.0, 0.0, 0.0, 0.0, 1.6518373239657445E9, 0.0, 2022-05-06 12:42:03.965
35.0, -195.43408203450963, -59.11285869963467, -122.80148499505594, -148.50207749055699, 0.12800000607967377, 0.12800000607967377, 1.0240000486373901, 0.0, 0.0, 0.0, 0.0, 0.0, 1.6518373239817789E9, 0.0, 2022-05-06 12:42:03.981
35.0, -258.9600226818584, -205.08863377012312, -209.69432056555524, -212.4917657324113, 0.12800000607967377, 0.12800000607967377, 1.0240000486373901, 0.0, 0.0, 0.0, 0.0, 0.0, 1.6518373239817789E9, 0.0, 2022-05-06 12:42:03.981
36.0, -293.9093877677806, -241.0402920441702, -234.0560288769193, -222.67177341179922, 0.12800000607967377, 0.12800000607967377, 1.0240000486373901, 0.0, 0.0, 0.0, 0.0, 0.0, 1.6518373239826903E9, 0.0, 2022-05-06 12:42:03.982
36.0, -249.09042669879273, -124.23573662806302, -177.81915324321017, -188.00290082255378, 0.12800000607967377, 0.12800000607967377, 1.0240000486373901, 0.0, 0.0, 0.0, 0.0, 0.0, 1.6518373239826903E9, 0.0, 2022-05-06 12:42:03.982
37.0, -214.0438242140226, -77.34861088357866, -135.18429374834523, -161.73758343374357, 0.12800000607967377, 0.12800000607967377, 1.0240000486373901, 0.0, 0.0, 0.0, 0.0, 0.0, 1.6518373239957447E9, 0.0, 2022-05-06 12:42:03.995
37.0, -264.04628662159666, -218.15958411525935, -216.6019157837145, -217.06940327817574, 0.12800000607967377, 0.12800000607967377, 1.0240000486373901, 0.0, 0.0, 0.0, 0.0, 0.0, 1.6518373239957447E9, 0.0, 2022-05-06 12:42:03.995
38.0, -312.8370214435272, -267.44772563129663, -251.27078837295994, -226.84550176234916, 0.12800000607967377, 0.12800000607967377, 1.0240000486373901, 0.0, 0.0, 0.0, 0.0, 0.0, 1.651837324011742E9, 0.0, 2022-05-06 12:42:04.011
38.0, -256.53282761061564, -127.10423989407718, -183.35420517763123, -184.38267766544595, 0.12800000607967377, 0.12800000607967377, 1.0240000486373901, 0.0, 0.0, 0.0, 0.0, 0.0, 1.651837324011742E9, 0.0, 2022-05-06 12:42:04.011
39.0, -185.7365214494057, -58.45837620738894, -111.72764122625813, -130.3373834057711, 0.12800000607967377, 0.12800000607967377, 1.0240000486373901, 0.0, 0.0, 0.0, 0.0, 0.0, 1.6518373240127218E9, 0.0, 2022-05-06 12:42:04.012
39.0, -245.85541323712096, -202.08923400565982, -202.44265455147251, -209.009918873664, 0.12800000607967377, 0.12800000607967377, 1.0240000486373901, 0.0, 0.0, 0.0, 0.0, 0.0, 1.6518373240127218E9, 0.0, 2022-05-06 12:42:04.012
40.0, -299.9306266964413, -244.42116160411388, -238.88423971971497, -226.98761796066537, 0.12800000607967377, 0.12800000607967377, 1.0240000486373901, 0.0, 0.0, 0.0, 0.0, 0.0, 1.651837324042856E9, 0.0, 2022-05-06 12:42:04.042
40.0, -246.53607502905652, -110.0128970965743, -168.3609462552704, -192.7787530659698, 0.12800000607967377, 0.12800000607967377, 1.0240000486373901, 0.0, 0.0, 0.0, 0.0, 0.0, 1.651837324042856E9, 0.0, 2022-05-06 12:42:04.042
41.0, -199.26747948909178, -65.18645622767508, -121.84781050635502, -153.76411672821268, 0.12800000607967377, 0.11200000531971455, 1.0240000486373901, 0.0, 0.0, 0.0, 0.0, 0.0, 1.6518373240437095E9, 0.0, 2022-05-06 12:42:04.043
41.0, -262.3259326419793, -210.70970340352505, -208.02632518531755, -211.73630594136193, 0.12800000607967377, 0.11200000531971455, 1.0240000486373901, 0.0, 0.0, 0.0, 0.0, 0.0, 1.6518373240437095E9, 0.0, 2022-05-06 12:42:04.043
42.0, -308.8315885909833, -259.54157712496817, -256.0952593157999, -238.7570831212215, 0.144000006839633, 0.11200000531971455, 1.0240000486373901, 0.0, 0.0, 0.0, 0.0, 0.0, 1.651837324044754E9, 0.0, 2022-05-06 12:42:04.044
42.0, -235.23409736296162, -97.30845694709569, -149.4258327796124, -153.99599052546546, 0.144000006839633, 0.11200000531971455, 1.0240000486373901, 0.0, 0.0, 0.0, 0.0, 0.0, 1.651837324044754E9, 0.0, 2022-05-06 12:42:04.044
43.0, -177.94256994174793, -46.81606764532626, -107.60253157513216, -132.24099248321727, 0.144000006839633, 0.11200000531971455, 1.0240000486373901, 0.0, 0.0, 0.0, 0.0, 0.0, 1.6518373240557847E9, 0.0, 2022-05-06 12:42:04.055
43.0, -267.6665097787045, -212.42257758323103, -210.1543282601051, -223.84610199788585, 0.144000006839633, 0.11200000531971455, 1.0240000486373901, 0.0, 0.0, 0.0, 0.0, 0.0, 1.6518373240557847E9, 0.0, 2022-05-06 12:42:04.055
44.0, -306.70732541615143, -256.73665215820074, -249.40457829507068, -232.2047783988528, 0.144000006839633, 0.11200000531971455, 1.0240000486373901, 0.0, 0.0, 0.0, 0.0, 0.0, 1.651837324071792E9, 0.0, 2022-05-06 12:42:04.071
44.0, -242.7251169742085, -104.63866086024791, -159.26924946298823, -167.2838550680317, 0.144000006839633, 0.11200000531971455, 1.0240000486373901, 0.0, 0.0, 0.0, 0.0, 0.0, 1.651837324071792E9, 0.0, 2022-05-06 12:42:04.071
45.0, -191.2940127835609, -61.824286167509854, -120.15363582642749, -152.14474004739895, 0.144000006839633, 0.11200000531971455, 1.0240000486373901, 0.0, 0.0, 0.0, 0.0, 0.0, 1.6518373240727887E9, 0.0, 2022-05-06 12:42:04.072
45.0, -261.1329045561142, -203.29348179139197, -200.86815667012706, -211.98687923839316, 0.144000006839633, 0.11200000531971455, 1.0240000486373901, 0.0, 0.0, 0.0, 0.0, 0.0, 1.6518373240727887E9, 0.0, 2022-05-06 12:42:04.072
46.0, -294.39557476202026, -248.28073835838586, -233.95131167815998, -226.28825666895136, 0.144000006839633, 0.11200000531971455, 1.0240000486373901, 0.0, 0.0, 0.0, 0.0, 0.0, 1.6518373240857944E9, 0.0, 2022-05-06 12:42:04.085
46.0, -234.12334707612172, -101.70283939503133, -155.40967270871624, -162.7249170220457, 0.144000006839633, 0.11200000531971455, 1.0240000486373901, 0.0, 0.0, 0.0, 0.0, 0.0, 1.6518373240857944E9, 0.0, 2022-05-06 12:42:04.085
47.0, -179.48714862344787, -50.29791450407356, -106.8470717840828, -133.83044996438548, 0.144000006839633, 0.11200000531971455, 1.0240000486373901, 0.0, 0.0, 0.0, 0.0, 0.0, 1.651837324101816E9, 0.0, 2022-05-06 12:42:04.101
47.0, -250.16003808612004, -198.21469765156507, -186.2975064427592, -185.72530174953863, 0.144000006839633, 0.11200000531971455, 1.0240000486373901, 0.0, 0.0, 0.0, 0.0, 0.0, 1.651837324101816E9, 0.0, 2022-05-06 12:42:04.101
48.0, -279.46215423895046, -229.0389530863613, -206.84451679931954, -180.97562880581245, 0.144000006839633, 0.11200000531971455, 1.0240000486373901, 0.0, 0.0, 0.0, 0.0, 0.0, 1.651837324102703E9, 0.0, 2022-05-06 12:42:04.102
48.0, -222.56331631308421, -90.6738744257018, -153.13955343561247, -141.21675237687305, 0.144000006839633, 0.11200000531971455, 1.0240000486373901, 0.0, 0.0, 0.0, 0.0, 0.0, 1.651837324102703E9, 0.0, 2022-05-06 12:42:04.102
49.0, -191.60442447988316, -57.366325420327485, -117.12431686231866, -165.57098088832572, 0.144000006839633, 0.11200000531971455, 1.0240000486373901, 0.0, 0.0, 0.0, 0.0, 0.0, 1.651837324115754E9, 0.0, 2022-05-06 12:42:04.115
49.0, -256.4842089111917, -206.82768724951893, -201.30572496494278, -231.0902882120572, 0.144000006839633, 0.11200000531971455, 1.0240000486373901, 0.0, 0.0, 0.0, 0.0, 0.0, 1.651837324115754E9, 0.0, 2022-05-06 12:42:04.115
50.0, -303.4536124547012, -251.84860291611403, -243.97798345936462, -242.30624817917123, 0.144000006839633, 0.11200000531971455, 1.0240000486373901, 0.0, 0.0, 0.0, 0.0, 0.0, 1.6518373241317735E9, 0.0, 2022-05-06 12:42:04.131
50.0, -238.3943128255196, -112.00626377295703, -165.27552879182622, -173.92591738933697, 0.144000006839633, 0.11200000531971455, 1.0240000486373901, 0.0, 0.0, 0.0, 0.0, 0.0, 1.6518373241317735E9, 0.0, 2022-05-06 12:42:04.131
51.0, -176.8467792547308, -53.92935736104846, -104.36003831354901, -136.7887108293362, 0.144000006839633, 0.11200000531971455, 1.0240000486373901, 0.0, 0.0, 0.0, 0.0, 0.0, 1.651837324146742E9, 0.0, 2022-05-06 12:42:04.146
51.0, -226.28825666895136, -188.95844526123255, -187.84208512445912, -182.35565188946202, 0.144000006839633, 0.11200000531971455, 1.0240000486373901, 0.0, 0.0, 0.0, 0.0, 0.0, 1.651837324146742E9, 0.0, 2022-05-06 12:42:04.146
52.0, -311.73749085655436, -250.0123120378703, -246.45379723003134, -233.43146558431908, 0.144000006839633, 0.11200000531971455, 1.0240000486373901, 0.0, 0.0, 0.0, 0.0, 0.0, 1.6518373241477425E9, 0.0, 2022-05-06 12:42:04.147
52.0, -241.34509389055893, -100.46119260974228, -152.37661384465173, -161.97693703090772, 0.144000006839633, 0.11200000531971455, 1.0240000486373901, 0.0, 0.0, 0.0, 0.0, 0.0, 1.6518373241477425E9, 0.0, 2022-05-06 12:42:04.147
53.0, -190.6993686906062, -58.74260860402137, -112.43074241792783, -146.7518043112941, 0.144000006839633, 0.11200000531971455, 1.0240000486373901, 0.0, 0.0, 0.0, 0.0, 0.0, 1.651837324161748E9, 0.0, 2022-05-06 12:42:04.161
53.0, -249.41579799493775, -198.8392609441653, -180.1453710156493, -189.4053633059375, 0.144000006839633, 0.11200000531971455, 1.0240000486373901, 0.0, 0.0, 0.0, 0.0, 0.0, 1.651837324161748E9, 0.0, 2022-05-06 12:42:04.161
54.0, -304.3175293444656, -247.75715236458927, -250.19369718572125, -234.19814507523552, 0.144000006839633, 0.11200000531971455, 1.0240000486373901, 0.0, 0.0, 0.0, 0.0, 0.0, 1.6518373241626992E9, 0.0, 2022-05-06 12:42:04.162
54.0, -238.42049212520942, -107.78391672298312, -159.34030756214634, -176.024001264479, 0.144000006839633, 0.11200000531971455, 1.0240000486373901, 0.0, 0.0, 0.0, 0.0, 0.0, 1.6518373241626992E9, 0.0, 2022-05-06 12:42:04.162
55.0, -188.7733202134259, -51.719076487235725, -106.82463238434866, -143.5354903494008, 0.144000006839633, 0.11200000531971455, 1.0240000486373901, 0.0, 0.0, 0.0, 0.0, 0.0, 1.6518373241927817E9, 0.0, 2022-05-06 12:42:04.192
55.0, -248.40228510694578, -201.49458991270512, -194.00544025143608, -199.09170419117436, 0.144000006839633, 0.11200000531971455, 1.0240000486373901, 0.0, 0.0, 0.0, 0.0, 0.0, 1.6518373241927817E9, 0.0, 2022-05-06 12:42:04.192
56.0, -301.5051245777868, -243.02243902068585, -234.9087260668166, -222.61567491246387, 0.144000006839633, 0.11200000531971455, 1.0240000486373901, 0.0, 0.0, 0.0, 0.0, 0.0, 1.651837324193736E9, 0.0, 2022-05-06 12:42:04.193
56.0, -244.04156175861135, -111.08250848390162, -157.5339358835481, -171.29676772048697, 0.144000006839633, 0.11200000531971455, 1.0240000486373901, 0.0, 0.0, 0.0, 0.0, 0.0, 1.651837324193736E9, 0.0, 2022-05-06 12:42:04.193
57.0, -193.08916476229206, -57.8412927147001, -112.69253541482612, -143.4158135508187, 0.144000006839633, 0.11200000531971455, 1.0240000486373901, 0.0, 0.0, 0.0, 0.0, 0.0, 1.651837324194707E9, 0.0, 2022-05-06 12:42:04.194
57.0, -250.63500538049266, -201.1654787166044, -180.78115400811657, -189.52504010451958, 0.144000006839633, 0.11200000531971455, 1.0240000486373901, 0.0, 0.0, 0.0, 0.0, 0.0, 1.651837324194707E9, 0.0, 2022-05-06 12:42:04.194
58.0, -293.7523119696416, -238.05585187952965, -235.1630392638035, -213.07519012549892, 0.144000006839633, 0.11200000531971455, 1.0240000486373901, 0.0, 0.0, 0.0, 0.0, 0.0, 1.651837324205758E9, 0.0, 2022-05-06 12:42:04.205
58.0, -238.10634052893147, -109.44817220326513, -157.95280467858538, -173.44721019500867, 0.144000006839633, 0.11200000531971455, 1.0240000486373901, 0.0, 0.0, 0.0, 0.0, 0.0, 1.651837324205758E9, 0.0, 2022-05-06 12:42:04.205
59.0, -188.59754491550848, -60.35076558496803, -107.8493649722077, -133.50507866824046, 0.144000006839633, 0.11200000531971455, 1.0240000486373901, 0.0, 0.0, 0.0, 0.0, 0.0, 1.6518373242217565E9, 0.0, 2022-05-06 12:42:04.221
59.0, -253.74286224367097, -204.03024208266288, -200.01171958027408, -202.84656374668702, 0.144000006839633, 0.11200000531971455, 1.0240000486373901, 0.0, 0.0, 0.0, 0.0, 0.0, 1.6518373242217565E9, 0.0, 2022-05-06 12:42:04.221
60.0, -309.47859128331766, -256.47485916130245, -243.6488722632639, -233.59228128241375, 0.144000006839633, 0.11200000531971455, 1.0240000486373901, 0.0, 0.0, 0.0, 0.0, 0.0, 1.6518373242227104E9, 0.0, 2022-05-06 12:42:04.222
60.0, -223.07942250696942, -88.60570975020528, -149.57916867779568, -157.70971118146554, 0.144000006839633, 0.11200000531971455, 1.0240000486373901, 0.0, 0.0, 0.0, 0.0, 0.0, 1.6518373242227104E9, 0.0, 2022-05-06 12:42:04.222
61.0, -196.61215052055195, -54.65115805249661, -117.39358965912834, -160.57073464756832, 0.144000006839633, 0.12800000607967377, 1.0240000486373901, 0.0, 0.0, 0.0, 0.0, 0.0, 1.6518373242357683E9, 0.0, 2022-05-06 12:42:04.235
61.0, -268.3209922709502, -209.74480921495706, -204.58187732612714, -218.13153486559168, 0.144000006839633, 0.12800000607967377, 1.0240000486373901, 0.0, 0.0, 0.0, 0.0, 0.0, 1.6518373242357683E9, 0.0, 2022-05-06 12:42:04.235
62.0, -295.44274674961343, -248.27699845843017, -250.56020738137886, -231.0528892125003, 0.12800000607967377, 0.12800000607967377, 1.0240000486373901, 0.0, 0.0, 0.0, 0.0, 0.0, 1.6518373242517495E9, 0.0, 2022-05-06 12:42:04.251
62.0, -245.2458095443435, -122.22367045190185, -171.7268562153913, -178.26046143798158, 0.12800000607967377, 0.12800000607967377, 1.0240000486373901, 0.0, 0.0, 0.0, 0.0, 0.0, 1.6518373242517495E9, 0.0, 2022-05-06 12:42:04.251
63.0, -212.0429777377285, -71.47322805318981, -122.56961119780317, -152.06620214832947, 0.12800000607967377, 0.12800000607967377, 1.0240000486373901, 0.0, 0.0, 0.0, 0.0, 0.0, 1.6518373242527235E9, 0.0, 2022-05-06 12:42:04.252
63.0, -263.4404228287749, -218.22690231446177, -207.3381835934706, -220.1996995410882, 0.12800000607967377, 0.12800000607967377, 1.0240000486373901, 0.0, 0.0, 0.0, 0.0, 0.0, 1.6518373242527235E9, 0.0, 2022-05-06 12:42:04.252
64.0, -313.2334508388303, -258.10919544193894, -253.7727814433165, -233.58854138245806, 0.12800000607967377, 0.12800000607967377, 1.0240000486373901, 0.0, 0.0, 0.0, 0.0, 0.0, 1.65183732426575E9, 0.0, 2022-05-06 12:42:04.265
64.0, -240.41759870154783, -103.02676397934556, -158.74940336914733, -174.93195047741756, 0.12800000607967377, 0.12800000607967377, 1.0240000486373901, 0.0, 0.0, 0.0, 0.0, 0.0, 1.65183732426575E9, 0.0, 2022-05-06 12:42:04.265
65.0, -204.08447063202038, -69.2554673794657, -128.24303943058476, -154.30266232183203, 0.12800000607967377, 0.12800000607967377, 1.0240000486373901, 0.0, 0.0, 0.0, 0.0, 0.0, 1.651837324281776E9, 0.0, 2022-05-06 12:42:04.281
65.0, -261.34607885358855, -204.89041907247156, -200.24733327748254, -205.34481691708788, 0.12800000607967377, 0.12800000607967377, 1.0240000486373901, 0.0, 0.0, 0.0, 0.0, 0.0, 1.651837324281776E9, 0.0, 2022-05-06 12:42:04.281
66.0, -299.5042781014927, -249.10725624859333, -248.41350480681285, -231.71485150465742, 0.12800000607967377, 0.12800000607967377, 1.0240000486373901, 0.0, 0.0, 0.0, 0.0, 0.0, 1.6518373242826903E9, 0.0, 2022-05-06 12:42:04.282
66.0, -234.96108466619626, -104.6797997597605, -167.94207746023312, -172.37759880768135, 0.12800000607967377, 0.12800000607967377, 1.0240000486373901, 0.0, 0.0, 0.0, 0.0, 0.0, 1.6518373242826903E9, 0.0, 2022-05-06 12:42:04.282
67.0, -202.53989195032045, -59.46814919542521, -114.98135418770835, -143.0156442555599, 0.12800000607967377, 0.12800000607967377, 1.0240000486373901, 0.0, 0.0, 0.0, 0.0, 0.0, 1.6518373242957425E9, 0.0, 2022-05-06 12:42:04.295
67.0, -270.916482840199, -217.18347022682428, -202.60347024956718, -211.73630594136193, 0.12800000607967377, 0.12800000607967377, 1.0240000486373901, 0.0, 0.0, 0.0, 0.0, 0.0, 1.6518373242957425E9, 0.0, 2022-05-06 12:42:04.295
68.0, -303.36011495580897, -243.61334321368486, -245.23832974443212, -234.14204657590017, 0.12800000607967377, 0.12800000607967377, 1.0240000486373901, 0.0, 0.0, 0.0, 0.0, 0.0, 1.651837324311741E9, 0.0, 2022-05-06 12:42:04.311
68.0, -235.0545821650885, -94.4549132809043, -147.31652920460328, -158.3492340738885, 0.12800000607967377, 0.12800000607967377, 1.0240000486373901, 0.0, 0.0, 0.0, 0.0, 0.0, 1.651837324311741E9, 0.0, 2022-05-06 12:42:04.311
69.0, -197.38256991142407, -63.04349355306476, -117.0345592633821, -139.17476700106636, 0.12800000607967377, 0.12800000607967377, 1.0240000486373901, 0.0, 0.0, 0.0, 0.0, 0.0, 1.6518373243127036E9, 0.0, 2022-05-06 12:42:04.312
69.0, -262.57276603905484, -206.96232364792377, -205.61034981394187, -207.77575188828632, 0.12800000607967377, 0.12800000607967377, 1.0240000486373901, 0.0, 0.0, 0.0, 0.0, 0.0, 1.6518373243127036E9, 0.0, 2022-05-06 12:42:04.312
70.0, -306.58764861756936, -248.90904155094177, -249.81596729019657, -236.79737554444, 0.12800000607967377, 0.12800000607967377, 1.0240000486373901, 0.0, 0.0, 0.0, 0.0, 0.0, 1.6518373243257766E9, 0.0, 2022-05-06 12:42:04.325
70.0, -238.40553252538666, -101.84869549330324, -160.89610594371334, -174.34104628441855, 0.12800000607967377, 0.12800000607967377, 1.0240000486373901, 0.0, 0.0, 0.0, 0.0, 0.0, 1.6518373243257766E9, 0.0, 2022-05-06 12:42:04.325
71.0, -194.39438984682783, -59.66636389307678, -112.54293941659853, -144.7920967345126, 0.12800000607967377, 0.12800000607967377, 1.0240000486373901, 0.0, 0.0, 0.0, 0.0, 0.0, 1.6518373243417597E9, 0.0, 2022-05-06 12:42:04.341
71.0, -256.2785144136287, -206.9511039480567, -201.32816436467692, -205.87588271079585, 0.12800000607967377, 0.12800000607967377, 1.0240000486373901, 0.0, 0.0, 0.0, 0.0, 0.0, 1.6518373243417597E9, 0.0, 2022-05-06 12:42:04.341
72.0, -293.5578371719457, -241.32826434075832, -229.11562103545293, -215.73799889395013, 0.144000006839633, 0.12800000607967377, 1.0240000486373901, 0.0, 0.0, 0.0, 0.0, 0.0, 1.651837324342711E9, 0.0, 2022-05-06 12:42:04.342
72.0, -245.9526506359689, -96.64649465493858, -153.40134643251076, -154.23160422267392, 0.144000006839633, 0.12800000607967377, 1.0240000486373901, 0.0, 0.0, 0.0, 0.0, 0.0, 1.651837324342711E9, 0.0, 2022-05-06 12:42:04.342
73.0, -190.63579039135948, -50.62702570017427, -107.97652157070115, -133.77435146505013, 0.144000006839633, 0.12800000607967377, 1.0240000486373901, 0.0, 0.0, 0.0, 0.0, 0.0, 1.65183732437174E9, 0.0, 2022-05-06 12:42:04.371
73.0, -263.294566730503, -203.6861712867394, -201.97516705701128, -205.43831441598013, 0.144000006839633, 0.12800000607967377, 1.0240000486373901, 0.0, 0.0, 0.0, 0.0, 0.0, 1.65183732437174E9, 0.0, 2022-05-06 12:42:04.371
74.0, -306.7222850159742, -243.54228511452675, -245.73947633849457, -231.14264681143686, 0.144000006839633, 0.12800000607967377, 1.0240000486373901, 0.0, 0.0, 0.0, 0.0, 0.0, 1.6518373243877635E9, 0.0, 2022-05-06 12:42:04.387
74.0, -252.2169830617495, -106.96487863268703, -168.75363575061783, -189.61853760341182, 0.144000006839633, 0.12800000607967377, 1.0240000486373901, 0.0, 0.0, 0.0, 0.0, 0.0, 1.6518373243877635E9, 0.0, 2022-05-06 12:42:04.387
75.0, -212.43192733312026, -79.26717956084758, -132.47286628047004, -169.59885314060375, 0.144000006839633, 0.12800000607967377, 1.0240000486373901, 0.0, 0.0, 0.0, 0.0, 0.0, 1.6518373243886976E9, 0.0, 2022-05-06 12:42:04.388
75.0, -269.20734856044874, -217.886571418494, -209.8962751631625, -214.38789500994608, 0.144000006839633, 0.12800000607967377, 1.0240000486373901, 0.0, 0.0, 0.0, 0.0, 0.0, 1.6518373243886976E9, 0.0, 2022-05-06 12:42:04.388
76.0, -292.9669329789467, -242.80552482325584, -242.66527857491747, -218.53918396076187, 0.144000006839633, 0.12800000607967377, 1.0240000486373901, 0.0, 0.0, 0.0, 0.0, 0.0, 1.651837324389696E9, 0.0, 2022-05-06 12:42:04.389
76.0, -224.80351638654247, -94.86630227603018, -155.2750363103114, -166.83132717339322, 0.144000006839633, 0.12800000607967377, 1.0240000486373901, 0.0, 0.0, 0.0, 0.0, 0.0, 1.651837324389696E9, 0.0, 2022-05-06 12:42:04.389
77.0, -204.75391272408888, -66.22240851540118, -114.2221544967033, -147.66060000052676, 0.144000006839633, 0.12800000607967377, 1.0240000486373901, 0.0, 0.0, 0.0, 0.0, 0.0, 1.6518373243907127E9, 0.0, 2022-05-06 12:42:04.390
77.0, -262.7074024374597, -205.1297726696357, -203.28039214154705, -209.57090386701748, 0.144000006839633, 0.12800000607967377, 1.0240000486373901, 0.0, 0.0, 0.0, 0.0, 0.0, 1.6518373243907127E9, 0.0, 2022-05-06 12:42:04.390
78.0, -301.8304958739318, -236.7468868950382, -234.35896077333018, -222.98966490803286, 0.144000006839633, 0.12800000607967377, 1.0240000486373901, 0.0, 0.0, 0.0, 0.0, 0.0, 1.6518373244007387E9, 0.0, 2022-05-06 12:42:04.400
78.0, -240.6494724988006, -101.6056019961834, -152.92263923818246, -160.44731794903055, 0.144000006839633, 0.12800000607967377, 1.0240000486373901, 0.0, 0.0, 0.0, 0.0, 0.0, 1.6518373244007387E9, 0.0, 2022-05-06 12:42:04.400
79.0, -205.31863761739805, -75.11589061003178, -129.20045381924137, -153.87631372688338, 0.144000006839633, 0.12800000607967377, 1.0240000486373901, 0.0, 0.0, 0.0, 0.0, 0.0, 1.651837324415785E9, 0.0, 2022-05-06 12:42:04.415
79.0, -286.5193454553373, -231.52972645685077, -238.37187342578545, -241.25533629162237, 0.144000006839633, 0.12800000607967377, 1.0240000486373901, 0.0, 0.0, 0.0, 0.0, 0.0, 1.651837324415785E9, 0.0, 2022-05-06 12:42:04.415
80.0, -306.02666362421587, -246.16021508350968, -247.83382031368092, -237.11526704067364, 0.144000006839633, 0.12800000607967377, 1.0240000486373901, 0.0, 0.0, 0.0, 0.0, 0.0, 1.6518373244317832E9, 0.0, 2022-05-06 12:42:04.431
80.0, -239.40408581355587, -101.42234689835459, -155.55926870694384, -164.56120790028945, 0.144000006839633, 0.12800000607967377, 1.0240000486373901, 0.0, 0.0, 0.0, 0.0, 0.0, 1.6518373244317832E9, 0.0, 2022-05-06 12:42:04.431
81.0, -196.3727969233878, -68.85903798416257, -120.60616372106597, -148.28516329312697, 0.144000006839633, 0.11200000531971455, 1.0240000486373901, 0.0, 0.0, 0.0, 0.0, 0.0, 1.6518373244327223E9, 0.0, 2022-05-06 12:42:04.432
81.0, -252.68821045616642, -198.00900315400213, -198.78877229476348, -200.87937636999413, 0.144000006839633, 0.11200000531971455, 1.0240000486373901, 0.0, 0.0, 0.0, 0.0, 0.0, 1.6518373244327223E9, 0.0, 2022-05-06 12:42:04.432
82.0, -285.5320118670352, -236.6346898963675, -241.59566718759015, -230.3497880208306, 0.144000006839633, 0.11200000531971455, 1.0240000486373901, 0.0, 0.0, 0.0, 0.0, 0.0, 1.6518373244457667E9, 0.0, 2022-05-06 12:42:04.445
82.0, -246.614612928126, -96.57543655578047, -150.82455536304042, -167.68402436329052, 0.144000006839633, 0.11200000531971455, 1.0240000486373901, 0.0, 0.0, 0.0, 0.0, 0.0, 1.6518373244457667E9, 0.0, 2022-05-06 12:42:04.445
83.0, -208.58357027871534, -70.50833386462182, -117.83489785389975, -136.1529278368689, 0.144000006839633, 0.11200000531971455, 1.0240000486373901, 0.0, 0.0, 0.0, 0.0, 0.0, 1.6518373244617753E9, 0.0, 2022-05-06 12:42:04.461
83.0, -274.28239280031994, -221.12532478012145, -210.89108855137601, -208.3068176819943, 0.144000006839633, 0.11200000531971455, 1.0240000486373901, 0.0, 0.0, 0.0, 0.0, 0.0, 1.6518373244617753E9, 0.0, 2022-05-06 12:42:04.461
84.0, -305.89202722581103, -240.76727934740484, -237.44063833681867, -230.4582451195456, 0.144000006839633, 0.11200000531971455, 1.0240000486373901, 0.0, 0.0, 0.0, 0.0, 0.0, 1.6518373244626784E9, 0.0, 2022-05-06 12:42:04.462
84.0, -238.27089612698182, -98.68848003074527, -154.4672179198824, -161.08684084145352, 0.144000006839633, 0.11200000531971455, 1.0240000486373901, 0.0, 0.0, 0.0, 0.0, 0.0, 1.6518373244626784E9, 0.0, 2022-05-06 12:42:04.462
85.0, -192.2551670721732, -60.05531348846853, -105.97567509440705, -136.73635222995654, 0.144000006839633, 0.11200000531971455, 1.0240000486373901, 0.0, 0.0, 0.0, 0.0, 0.0, 1.6518373244757528E9, 0.0, 2022-05-06 12:42:04.475
85.0, -267.49447438074276, -214.52066145837307, -209.22309317113832, -202.94006124557927, 0.144000006839633, 0.11200000531971455, 1.0240000486373901, 0.0, 0.0, 0.0, 0.0, 0.0, 1.6518373244757528E9, 0.0, 2022-05-06 12:42:04.475
86.0, -309.55338928243145, -251.75510541722178, -264.8765444117598, -258.90766408247873, 0.144000006839633, 0.11200000531971455, 1.0240000486373901, 0.0, 0.0, 0.0, 0.0, 0.0, 1.6518373244917495E9, 0.0, 2022-05-06 12:42:04.491
86.0, -233.17715238733217, -93.16090789623559, -155.73878390481696, -173.53696779394522, 0.144000006839633, 0.11200000531971455, 1.0240000486373901, 0.0, 0.0, 0.0, 0.0, 0.0, 1.6518373244917495E9, 0.0, 2022-05-06 12:42:04.491
87.0, -198.04453220358118, -62.127218063920736, -116.19682167330757, -145.2408847291954, 0.144000006839633, 0.11200000531971455, 1.0240000486373901, 0.0, 0.0, 0.0, 0.0, 0.0, 1.6518373244926972E9, 0.0, 2022-05-06 12:42:04.492
87.0, -264.0986452209763, -215.14522475097328, -212.76477842917666, -206.10775650804862, 0.144000006839633, 0.11200000531971455, 1.0240000486373901, 0.0, 0.0, 0.0, 0.0, 0.0, 1.6518373244926972E9, 0.0, 2022-05-06 12:42:04.492
88.0, -310.47714457148686, -251.16794112417847, -261.12916465615854, -253.12203885102645, 0.144000006839633, 0.11200000531971455, 1.0240000486373901, 0.0, 0.0, 0.0, 0.0, 0.0, 1.6518373245057375E9, 0.0, 2022-05-06 12:42:04.505
88.0, -241.93225818360224, -95.28517107106745, -151.613674253691, -173.6155056930147, 0.144000006839633, 0.11200000531971455, 1.0240000486373901, 0.0, 0.0, 0.0, 0.0, 0.0, 1.6518373245057375E9, 0.0, 2022-05-06 12:42:04.505
89.0, -195.8903498291038, -64.5506732352078, -117.04951886320487, -145.81308942241594, 0.144000006839633, 0.11200000531971455, 1.0240000486373901, 0.0, 0.0, 0.0, 0.0, 0.0, 1.6518373245217457E9, 0.0, 2022-05-06 12:42:04.521
89.0, -273.04822581494227, -217.3255864251405, -212.74233902944252, -212.820876928512, 0.144000006839633, 0.11200000531971455, 1.0240000486373901, 0.0, 0.0, 0.0, 0.0, 0.0, 1.6518373245217457E9, 0.0, 2022-05-06 12:42:04.521
90.0, -307.9078333019279, -246.84461677540094, -251.38298537163064, -239.45270451297984, 0.144000006839633, 0.11200000531971455, 1.0240000486373901, 0.0, 0.0, 0.0, 0.0, 0.0, 1.6518373245227528E9, 0.0, 2022-05-06 12:42:04.522
90.0, -249.5803535929881, -102.14040768984705, -159.18323176400736, -176.77572115557268, 0.144000006839633, 0.11200000531971455, 1.0240000486373901, 0.0, 0.0, 0.0, 0.0, 0.0, 1.6518373245227528E9, 0.0, 2022-05-06 12:42:04.522
91.0, -195.68091543158516, -67.60991139896214, -116.97472086409107, -142.387341063004, 0.144000006839633, 0.11200000531971455, 1.0240000486373901, 0.0, 0.0, 0.0, 0.0, 0.0, 1.6518373245357444E9, 0.0, 2022-05-06 12:42:04.535
91.0, -264.67832971410826, -214.72635595593601, -210.25530555890873, -219.17870685318485, 0.144000006839633, 0.11200000531971455, 1.0240000486373901, 0.0, 0.0, 0.0, 0.0, 0.0, 1.6518373245357444E9, 0.0, 2022-05-06 12:42:04.535
92.0, -302.1932661696337, -236.12980340234935, -235.15555946389213, -216.53459758451208, 0.144000006839633, 0.11200000531971455, 1.0240000486373901, 0.0, 0.0, 0.0, 0.0, 0.0, 1.6518373245517447E9, 0.0, 2022-05-06 12:42:04.551
92.0, -232.9116194904782, -89.97825303394347, -140.6782067832537, -136.33244303474203, 0.144000006839633, 0.11200000531971455, 1.0240000486373901, 0.0, 0.0, 0.0, 0.0, 0.0, 1.6518373245517447E9, 0.0, 2022-05-06 12:42:04.551
93.0, -200.31091157672927, -71.76868014968932, -129.42110791662708, -159.70681775780395, 0.144000006839633, 0.11200000531971455, 1.0240000486373901, 0.0, 0.0, 0.0, 0.0, 0.0, 1.651837324552687E9, 0.0, 2022-05-06 12:42:04.552
93.0, -265.60582490311936, -224.76798733696342, -216.7851708815433, -219.17496695322916, 0.144000006839633, 0.11200000531971455, 1.0240000486373901, 0.0, 0.0, 0.0, 0.0, 0.0, 1.651837324552687E9, 0.0, 2022-05-06 12:42:04.552
94.0, -299.0218310072087, -239.66026896052063, -239.7219773097895, -238.03154252981767, 0.144000006839633, 0.11200000531971455, 1.0240000486373901, 0.0, 0.0, 0.0, 0.0, 0.0, 1.6518373245657432E9, 0.0, 2022-05-06 12:42:04.565
94.0, -237.63511313451454, -93.38904179353267, -147.00611750828102, -153.7902960279025, 0.144000006839633, 0.11200000531971455, 1.0240000486373901, 0.0, 0.0, 0.0, 0.0, 0.0, 1.6518373245657432E9, 0.0, 2022-05-06 12:42:04.565
95.0, -209.38390886923298, -74.79799911379814, -121.13348961481825, -145.84300862206146, 0.144000006839633, 0.11200000531971455, 1.0240000486373901, 0.0, 0.0, 0.0, 0.0, 0.0, 1.6518373245817587E9, 0.0, 2022-05-06 12:42:04.581
95.0, -265.04857980972156, -214.78619435522705, -207.31574419373646, -213.23974572354928, 0.144000006839633, 0.11200000531971455, 1.0240000486373901, 0.0, 0.0, 0.0, 0.0, 0.0, 1.6518373245817587E9, 0.0, 2022-05-06 12:42:04.581
96.0, -300.03160399524495, -240.8906960459426, -240.59711389942095, -232.5750284944661, 0.144000006839633, 0.11200000531971455, 1.0240000486373901, 0.0, 0.0, 0.0, 0.0, 0.0, 1.6518373245826943E9, 0.0, 2022-05-06 12:42:04.582
96.0, -226.32191576855257, -96.0481106620282, -143.6102883485146, -156.78595589241013, 0.144000006839633, 0.11200000531971455, 1.0240000486373901, 0.0, 0.0, 0.0, 0.0, 0.0, 1.6518373245826943E9, 0.0, 2022-05-06 12:42:04.582
97.0, -207.02777189714834, -68.86651778407395, -121.24568661348894, -150.15137337101623, 0.144000006839633, 0.11200000531971455, 1.0240000486373901, 0.0, 0.0, 0.0, 0.0, 0.0, 1.6518373245957477E9, 0.0, 2022-05-06 12:42:04.595
97.0, -277.0349591677077, -224.59969183895737, -223.06820280710235, -229.3512347326614, 0.144000006839633, 0.11200000531971455, 1.0240000486373901, 0.0, 0.0, 0.0, 0.0, 0.0, 1.6518373245957477E9, 0.0, 2022-05-06 12:42:04.595
98.0, -297.9297802201472, -243.67692151293159, -244.55392805254087, -233.56610198272392, 0.144000006839633, 0.11200000531971455, 1.0240000486373901, 0.0, 0.0, 0.0, 0.0, 0.0, 1.6518373246117504E9, 0.0, 2022-05-06 12:42:04.611
98.0, -244.359453254845, -91.33583671785891, -153.36020753299817, -160.89236604375765, 0.144000006839633, 0.11200000531971455, 1.0240000486373901, 0.0, 0.0, 0.0, 0.0, 0.0, 1.6518373246117504E9, 0.0, 2022-05-06 12:42:04.611
99.0, -190.61709089158103, -64.00090794172138, -111.0357597344555, -133.75565196527168, 0.144000006839633, 0.11200000531971455, 1.0240000486373901, 0.0, 0.0, 0.0, 0.0, 0.0, 1.6518373246126952E9, 0.0, 2022-05-06 12:42:04.612
99.0, -260.9234701585956, -216.31955333705992, -209.21187347127125, -205.90954181039706, 0.144000006839633, 0.11200000531971455, 1.0240000486373901, 0.0, 0.0, 0.0, 0.0, 0.0, 1.6518373246126952E9, 0.0, 2022-05-06 12:42:04.612
100.0, -310.85113456705585, -248.7482258528471, -252.68447055621073, -240.96736399503425, 0.144000006839633, 0.11200000531971455, 1.0240000486373901, 0.0, 0.0, 0.0, 0.0, 0.0, 1.6518373246267352E9, 0.0, 2022-05-06 12:42:04.626
100.0, -232.50771029526368, -92.88041539955884, -144.87811443349347, -155.4956904076971, 0.144000006839633, 0.11200000531971455, 1.0240000486373901, 0.0, 0.0, 0.0, 0.0, 0.0, 1.6518373246267352E9, 0.0, 2022-05-06 12:42:04.626
0.0, -193.0573756126687, -59.48871864518151, -114.87663698894903, -146.74058461142704, 0.144000006839633, 0.11200000531971455, 1.0240000486373901, 0.0, 0.0, 0.0, 0.0, 0.0, 1.6518373246277094E9, 0.0, 2022-05-06 12:42:04.627
1.0, -268.99604421295226, -225.97036517271772, -216.0147514906712, -222.9410462086089, 0.144000006839633, 0.12800000607967377, 1.0240000486373901, 0.0, 0.0, 0.0, 0.0, 0.0, 1.6518373246407545E9, 0.0, 2022-05-06 12:42:04.640
1.0, -297.2846474777907, -238.34569412609562, -237.39949943730608, -219.11138865398243, 0.144000006839633, 0.12800000607967377, 1.0240000486373901, 0.0, 0.0, 0.0, 0.0, 0.0, 1.6518373246407545E9, 0.0, 2022-05-06 12:42:04.640
2.0, -237.03111929167062, -94.916790925432, -154.97210441390052, -169.22860304499045, 0.144000006839633, 0.12800000607967377, 1.0240000486373901, 0.0, 0.0, 0.0, 0.0, 0.0, 1.651837324656767E9, 0.0, 2022-05-06 12:42:04.656
2.0, -201.34499391447753, -72.0884415959008, -124.86216987064108, -149.63900707708672, 0.144000006839633, 0.12800000607967377, 1.0240000486373901, 0.0, 0.0, 0.0, 0.0, 0.0, 1.651837324656767E9, 0.0, 2022-05-06 12:42:04.656
3.0, -269.9833778012544, -221.2693109284155, -208.87528247525916, -205.3784760166891, 0.144000006839633, 0.12800000607967377, 1.0240000486373901, 0.0, 0.0, 0.0, 0.0, 0.0, 1.6518373246576831E9, 0.0, 2022-05-06 12:42:04.657
3.0, -300.3177063418552, -237.97544403048232, -242.1379526811652, -227.91511314967647, 0.144000006839633, 0.12800000607967377, 1.0240000486373901, 0.0, 0.0, 0.0, 0.0, 0.0, 1.6518373246576831E9, 0.0, 2022-05-06 12:42:04.657
4.0, -223.97886844631284, -89.9876027838327, -149.21639838209376, -163.4317581136711, 0.144000006839633, 0.12800000607967377, 1.0240000486373901, 0.0, 0.0, 0.0, 0.0, 0.0, 1.6518373246707504E9, 0.0, 2022-05-06 12:42:04.670
4.0, -194.7964290920645, -73.25529038207605, -119.50289323413745, -144.72477853531018, 0.144000006839633, 0.12800000607967377, 1.0240000486373901, 0.0, 0.0, 0.0, 0.0, 0.0, 1.6518373246707504E9, 0.0, 2022-05-06 12:42:04.670
5.0, -266.0826621474698, -218.25121166417375, -207.4877795916982, -207.54761799098924, 0.144000006839633, 0.12800000607967377, 1.0240000486373901, 0.0, 0.0, 0.0, 0.0, 0.0, 1.6518373246867619E9, 0.0, 2022-05-06 12:42:04.686
5.0, -315.8195916581899, -247.41121161868796, -258.16342399129644, -249.16148479795083, 0.144000006839633, 0.12800000607967377, 1.0240000486373901, 0.0, 0.0, 0.0, 0.0, 0.0, 1.6518373246867619E9, 0.0, 2022-05-06 12:42:04.686
6.0, -228.3358518946916, -87.34723341511562, -141.2017927770503, -161.9470178312622, 0.144000006839633, 0.12800000607967377, 1.0240000486373901, 0.0, 0.0, 0.0, 0.0, 0.0, 1.65183732468777E9, 0.0, 2022-05-06 12:42:04.687
6.0, -210.85555950179696, -80.76500949310139, -125.23241996625438, -147.60076160123572, 0.144000006839633, 0.12800000607967377, 1.0240000486373901, 0.0, 0.0, 0.0, 0.0, 0.0, 1.65183732468777E9, 0.0, 2022-05-06 12:42:04.687
7.0, -282.55692145228386, -227.74681765167043, -218.84211585717276, -214.91522090369835, 0.144000006839633, 0.12800000607967377, 1.0240000486373901, 0.0, 0.0, 0.0, 0.0, 0.0, 1.651837324700787E9, 0.0, 2022-05-06 12:42:04.700
7.0, -297.48660207539797, -236.6477795462124, -236.47574414825067, -208.7817849763669, 0.144000006839633, 0.12800000607967377, 1.0240000486373901, 0.0, 0.0, 0.0, 0.0, 0.0, 1.651837324700787E9, 0.0, 2022-05-06 12:42:04.700
8.0, -232.97332783974707, -92.9533434486948, -154.77388971624896, -164.45275080157444, 0.144000006839633, 0.12800000607967377, 1.0240000486373901, 0.0, 0.0, 0.0, 0.0, 0.0, 1.651837324716742E9, 0.0, 2022-05-06 12:42:04.716
8.0, -189.2763367574662, -62.835929105523974, -104.6629702099599, -132.33075008215383, 0.144000006839633, 0.12800000607967377, 1.0240000486373901, 0.0, 0.0, 0.0, 0.0, 0.0, 1.651837324716742E9, 0.0, 2022-05-06 12:42:04.716
9.0, -267.9413924254477, -218.87951485672966, -208.8229238758795, -202.19956105435267, 0.144000006839633, 0.12800000607967377, 1.0240000486373901, 0.0, 0.0, 0.0, 0.0, 0.0, 1.6518373247176797E9, 0.0, 2022-05-06 12:42:04.717
9.0, -311.09983791410923, -252.5834932574071, -252.94626355310902, -245.50012274133042, 0.144000006839633, 0.12800000607967377, 1.0240000486373901, 0.0, 0.0, 0.0, 0.0, 0.0, 1.6518373247176797E9, 0.0, 2022-05-06 12:42:04.717
10.0, -238.7439934713766, -93.55172744160518, -154.29892242187634, -168.34224675549194, 0.144000006839633, 0.12800000607967377, 1.0240000486373901, 0.0, 0.0, 0.0, 0.0, 0.0, 1.6518373247307472E9, 0.0, 2022-05-06 12:42:04.730
10.0, -199.60594043508172, -75.75354355247691, -120.28453232487664, -145.4241398270242, 0.144000006839633, 0.12800000607967377, 1.0240000486373901, 0.0, 0.0, 0.0, 0.0, 0.0, 1.6518373247307472E9, 0.0, 2022-05-06 12:42:04.730
11.0, -264.7624774631113, -214.31683691078797, -205.84970341110602, -206.4144283044152, 0.144000006839633, 0.12800000607967377, 1.0240000486373901, 0.0, 0.0, 0.0, 0.0, 0.0, 1.651837324746744E9, 0.0, 2022-05-06 12:42:04.746
11.0, -290.9941357523203, -230.14035362331197, -233.59976108232513, -207.16988809546456, 0.144000006839633, 0.12800000607967377, 1.0240000486373901, 0.0, 0.0, 0.0, 0.0, 0.0, 1.651837324746744E9, 0.0, 2022-05-06 12:42:04.746
12.0, -223.7769138487056, -84.99483634298667, -146.25813751714304, -155.13666001195088, 0.144000006839633, 0.12800000607967377, 1.0240000486373901, 0.0, 0.0, 0.0, 0.0, 0.0, 1.6518373247477694E9, 0.0, 2022-05-06 12:42:04.747
12.0, -192.19345872290432, -67.54072324978188, -116.86626376537606, -146.67326641222462, 0.144000006839633, 0.12800000607967377, 1.0240000486373901, 0.0, 0.0, 0.0, 0.0, 0.0, 1.6518373247477694E9, 0.0, 2022-05-06 12:42:04.747
13.0, -269.276536709629, -223.42723320284858, -211.7512655411847, -209.36146946949884, 0.144000006839633, 0.12800000607967377, 1.0240000486373901, 0.0, 0.0, 0.0, 0.0, 0.0, 1.6518373247607615E9, 0.0, 2022-05-06 12:42:04.760
13.0, -297.97278906963766, -230.89955331431702, -235.62678685830906, -221.56102312495932, 0.144000006839633, 0.12800000607967377, 1.0240000486373901, 0.0, 0.0, 0.0, 0.0, 0.0, 1.6518373247607615E9, 0.0, 2022-05-06 12:42:04.760
14.0, -226.64541711471975, -78.37895332137123, -140.85024218121544, -150.11771427141502, 0.144000006839633, 0.12800000607967377, 1.0240000486373901, 0.0, 0.0, 0.0, 0.0, 0.0, 1.6518373247767537E9, 0.0, 2022-05-06 12:42:04.776
14.0, -190.15895314700902, -68.50561743834987, -118.41458234703168, -141.46732567390427, 0.144000006839633, 0.12800000607967377, 1.0240000486373901, 0.0, 0.0, 0.0, 0.0, 0.0, 1.6518373247767537E9, 0.0, 2022-05-06 12:42:04.776
15.0, -266.40803344361484, -223.7937433985062, -211.75500544114038, -216.7552516818978, 0.144000006839633, 0.12800000607967377, 1.0240000486373901, 0.0, 0.0, 0.0, 0.0, 0.0, 1.651837324777727E9, 0.0, 2022-05-06 12:42:04.777
15.0, -307.79750625323504, -238.6523659224622, -249.6551515921019, -222.4997380138375, 0.144000006839633, 0.12800000607967377, 1.0240000486373901, 0.0, 0.0, 0.0, 0.0, 0.0, 1.651837324777727E9, 0.0, 2022-05-06 12:42:04.777
16.0, -228.94545558746904, -79.49718340812251, -147.00237760832533, -147.9074333976023, 0.144000006839633, 0.12800000607967377, 1.0240000486373901, 0.0, 0.0, 0.0, 0.0, 0.0, 1.6518373247907343E9, 0.0, 2022-05-06 12:42:04.790
16.0, -205.6496187634766, -79.17181211197749, -126.42170815216377, -148.22906479379162, 0.144000006839633, 0.12800000607967377, 1.0240000486373901, 0.0, 0.0, 0.0, 0.0, 0.0, 1.6518373247907343E9, 0.0, 2022-05-06 12:42:04.790
17.0, -273.0538356648758, -224.0143974958919, -217.80616356944665, -227.88519395003095, 0.144000006839633, 0.12800000607967377, 1.0240000486373901, 0.0, 0.0, 0.0, 0.0, 0.0, 1.6518373248067477E9, 0.0, 2022-05-06 12:42:04.806
17.0, -308.9306959398091, -244.95783724775538, -246.1359057337977, -233.91765257855877, 0.144000006839633, 0.12800000607967377, 1.0240000486373901, 0.0, 0.0, 0.0, 0.0, 0.0, 1.6518373248067477E9, 0.0, 2022-05-06 12:42:04.806
18.0, -242.7419465240091, -100.5116812591441, -163.9441244076006, -169.04908784711733, 0.144000006839633, 0.12800000607967377, 1.0240000486373901, 0.0, 0.0, 0.0, 0.0, 0.0, 1.651837324807722E9, 0.0, 2022-05-06 12:42:04.807
18.0, -186.1273409947753, -65.98492486821488, -111.91089632408693, -141.4598458739929, 0.144000006839633, 0.12800000607967377, 1.0240000486373901, 0.0, 0.0, 0.0, 0.0, 0.0, 1.651837324807722E9, 0.0, 2022-05-06 12:42:04.807
19.0, -268.1994455223903, -218.67008045921102, -211.5642705434002, -214.642208206933, 0.144000006839633, 0.12800000607967377, 1.0240000486373901, 0.0, 0.0, 0.0, 0.0, 0.0, 1.651837324820751E9, 0.0, 2022-05-06 12:42:04.820
19.0, -294.6667175088078, -232.04396270075813, -228.66683304077014, -213.89048831583932, 0.144000006839633, 0.12800000607967377, 1.0240000486373901, 0.0, 0.0, 0.0, 0.0, 0.0, 1.651837324820751E9, 0.0, 2022-05-06 12:42:04.820
20.0, -218.52235441096127, -87.14527881750837, -136.57553653186187, -147.51100400229916, 0.144000006839633, 0.12800000607967377, 1.0240000486373901, 0.0, 0.0, 0.0, 0.0, 0.0, 1.6518373248367424E9, 0.0, 2022-05-06 12:42:04.836
20.0, -195.55188888311386, -71.6097344015725, -119.84696403006092, -137.90694091608748, 0.144000006839633, 0.12800000607967377, 1.0240000486373901, 0.0, 0.0, 0.0, 0.0, 0.0, 1.6518373248367424E9, 0.0, 2022-05-06 12:42:04.836
21.0, -271.22502458654344, -218.00437826709822, -212.55534403165802, -205.95442060986534, 0.144000006839633, 0.12800000607967377, 1.0240000486373901, 0.0, 0.0, 0.0, 0.0, 0.0, 1.6518373248377266E9, 0.0, 2022-05-06 12:42:04.837
21.0, -302.9318964108825, -242.59422047575936, -248.2489492087625, -235.10320086451247, 0.144000006839633, 0.12800000607967377, 1.0240000486373901, 0.0, 0.0, 0.0, 0.0, 0.0, 1.6518373248377266E9, 0.0, 2022-05-06 12:42:04.837
22.0, -237.57714468520135, -101.25966125028208, -163.12508631730452, -175.93050376558676, 0.144000006839633, 0.12800000607967377, 1.0240000486373901, 0.0, 0.0, 0.0, 0.0, 0.0, 1.6518373248508039E9, 0.0, 2022-05-06 12:42:04.850
22.0, -203.21868379227817, -84.80784134520218, -124.14784897910431, -147.6830394002609, 0.144000006839633, 0.12800000607967377, 1.0240000486373901, 0.0, 0.0, 0.0, 0.0, 0.0, 1.6518373248508039E9, 0.0, 2022-05-06 12:42:04.850
23.0, -269.02970331255347, -233.62220048205927, -217.2002997766249, -218.13901466550305, 0.144000006839633, 0.12800000607967377, 1.0240000486373901, 0.0, 0.0, 0.0, 0.0, 0.0, 1.651837324866757E9, 0.0, 2022-05-06 12:42:04.866
23.0, -300.20550934318453, -231.0865483121015, -235.28645596234128, -225.85816817404702, 0.144000006839633, 0.12800000607967377, 1.0240000486373901, 0.0, 0.0, 0.0, 0.0, 0.0, 1.651837324866757E9, 0.0, 2022-05-06 12:42:04.866
24.0, -230.81914546526968, -77.9451249265112, -142.84360885759816, -155.77618290437385, 0.144000006839633, 0.12800000607967377, 1.0240000486373901, 0.0, 0.0, 0.0, 0.0, 0.0, 1.6518373248677032E9, 0.0, 2022-05-06 12:42:04.867
24.0, -190.1963521465659, -74.07058857241645, -118.95686784060672, -139.10744880186394, 0.144000006839633, 0.12800000607967377, 1.0240000486373901, 0.0, 0.0, 0.0, 0.0, 0.0, 1.6518373248677032E9, 0.0, 2022-05-06 12:42:04.867
25.0, -265.17386645823717, -213.3369831223972, -204.69781422475353, -212.27859143493697, 0.144000006839633, 0.12800000607967377, 1.0240000486373901, 0.0, 0.0, 0.0, 0.0, 0.0, 1.6518373248807478E9, 0.0, 2022-05-06 12:42:04.880
25.0, -299.7455016486347, -233.37536708498374, -238.6860250220634, -222.62315471237525, 0.144000006839633, 0.12800000607967377, 1.0240000486373901, 0.0, 0.0, 0.0, 0.0, 0.0, 1.6518373248807478E9, 0.0, 2022-05-06 12:42:04.880
26.0, -220.75507468450814, -80.29004219872877, -143.43451305059716, -148.78630988718942, 0.144000006839633, 0.12800000607967377, 1.0240000486373901, 0.0, 0.0, 0.0, 0.0, 0.0, 1.6518373248968277E9, 0.0, 2022-05-06 12:42:04.896
26.0, -209.37081921938807, -75.35711415717378, -118.09669085079804, -136.9682260272093, 0.144000006839633, 0.12800000607967377, 1.0240000486373901, 0.0, 0.0, 0.0, 0.0, 0.0, 1.6518373248968277E9, 0.0, 2022-05-06 12:42:04.896
27.0, -268.3490415206179, -224.00691769598052, -217.16664067702368, -216.5308576845564, 0.144000006839633, 0.12800000607967377, 1.0240000486373901, 0.0, 0.0, 0.0, 0.0, 0.0, 1.6518373248976848E9, 0.0, 2022-05-06 12:42:04.897
27.0, -306.27910687122494, -236.96567104244605, -252.2095032618381, -228.89122703811154, 0.144000006839633, 0.12800000607967377, 1.0240000486373901, 0.0, 0.0, 0.0, 0.0, 0.0, 1.6518373248976848E9, 0.0, 2022-05-06 12:42:04.897
28.0, -227.50185420457274, -84.27303565153852, -139.76941109402105, -162.30230832705274, 0.144000006839633, 0.12800000607967377, 1.0240000486373901, 0.0, 0.0, 0.0, 0.0, 0.0, 1.6518373249107578E9, 0.0, 2022-05-06 12:42:04.910
28.0, -200.80644832085818, -81.04924188973382, -123.83743728278205, -151.47155805537477, 0.144000006839633, 0.12800000607967377, 1.0240000486373901, 0.0, 0.0, 0.0, 0.0, 0.0, 1.6518373249107578E9, 0.0, 2022-05-06 12:42:04.910
29.0, -264.03693687170744, -220.92898003244773, -203.10835674358532, -204.80253142351285, 0.144000006839633, 0.12800000607967377, 1.0240000486373901, 0.0, 0.0, 0.0, 0.0, 0.0, 1.651837324926757E9, 0.0, 2022-05-06 12:42:04.926
29.0, -287.56464749295264, -215.31913009891286, -217.58176957210526, -196.36531712347642, 0.144000006839633, 0.12800000607967377, 1.0240000486373901, 0.0, 0.0, 0.0, 0.0, 0.0, 1.651837324926757E9, 0.0, 2022-05-06 12:42:04.926
30.0, -229.58497847989202, -84.68442464666441, -140.53983048489317, -153.19191203499213, 0.144000006839633, 0.12800000607967377, 1.0240000486373901, 0.0, 0.0, 0.0, 0.0, 0.0, 1.6518373249417477E9, 0.0, 2022-05-06 12:42:04.941
30.0, -199.36284693796188, -72.46991139138117, -116.57455156883225, -138.01539801480249, 0.144000006839633, 0.12800000607967377, 1.0240000486373901, 0.0, 0.0, 0.0, 0.0, 0.0, 1.6518373249417477E9, 0.0, 2022-05-06 12:42:04.941
31.0, -262.3016232922673, -223.32251600408927, -213.24348562350497, -216.897367880214, 0.144000006839633, 0.11200000531971455, 1.0240000486373901, 0.0, 0.0, 0.0, 0.0, 0.0, 1.651837324942688E9, 0.0, 2022-05-06 12:42:04.942
31.0, -297.9578294698149, -237.2050246396102, -236.6103805466555, -224.54546328959987, 0.144000006839633, 0.11200000531971455, 1.0240000486373901, 0.0, 0.0, 0.0, 0.0, 0.0, 1.651837324942688E9, 0.0, 2022-05-06 12:42:04.942
32.0, -227.0007076105103, -80.63785289460793, -144.76217753486708, -152.24571734620258, 0.144000006839633, 0.11200000531971455, 1.0240000486373901, 0.0, 0.0, 0.0, 0.0, 0.0, 1.6518373249567566E9, 0.0, 2022-05-06 12:42:04.956
32.0, -192.6871255170554, -74.14164667157456, -116.02104637539014, -139.07004980230704, 0.144000006839633, 0.11200000531971455, 1.0240000486373901, 0.0, 0.0, 0.0, 0.0, 0.0, 1.6518373249567566E9, 0.0, 2022-05-06 12:42:04.956
33.0, -277.8820465076715, -227.58974185353145, -214.77684460533783, -207.3007845939137, 0.144000006839633, 0.11200000531971455, 1.0240000486373901, 0.0, 0.0, 0.0, 0.0, 0.0, 1.6518373249577024E9, 0.0, 2022-05-06 12:42:04.957
33.0, -290.14891836233437, -230.091734923888, -234.22058447496966, -218.98049215553328, 0.144000006839633, 0.11200000531971455, 1.0240000486373901, 0.0, 0.0, 0.0, 0.0, 0.0, 1.6518373249577024E9, 0.0, 2022-05-06 12:42:04.957
34.0, -232.39364334661514, -81.77852238109335, -147.5745823015459, -161.93953803135082, 0.144000006839633, 0.11200000531971455, 1.0240000486373901, 0.0, 0.0, 0.0, 0.0, 0.0, 1.6518373249877417E9, 0.0, 2022-05-06 12:42:04.987
34.0, -195.85856067948043, -80.65281249443069, -123.5980836856179, -148.92468618554994, 0.144000006839633, 0.11200000531971455, 1.0240000486373901, 0.0, 0.0, 0.0, 0.0, 0.0, 1.6518373249877417E9, 0.0, 2022-05-06 12:42:04.987
35.0, -267.5300034303218, -230.6078411177732, -217.96697926754132, -211.8597226398997, 0.144000006839633, 0.11200000531971455, 1.0240000486373901, 0.0, 0.0, 0.0, 0.0, 0.0, 1.6518373249887471E9, 0.0, 2022-05-06 12:42:04.988
35.0, -277.11536701675504, -216.74403198203072, -233.02755638910457, -204.14056913135573, 0.144000006839633, 0.11200000531971455, 1.0240000486373901, 0.0, 0.0, 0.0, 0.0, 0.0, 1.6518373249887471E9, 0.0, 2022-05-06 12:42:04.988
36.0, -212.51981498207897, -79.41116570914164, -139.44403979787603, -151.5014772550203, 0.144000006839633, 0.11200000531971455, 1.0240000486373901, 0.0, 0.0, 0.0, 0.0, 0.0, 1.65183732498978E9, 0.0, 2022-05-06 12:42:04.989
36.0, -225.13075763266534, -107.32203907845542, -146.67326641222462, -170.9938358240761, 0.144000006839633, 0.11200000531971455, 1.0240000486373901, 0.0, 0.0, 0.0, 0.0, 0.0, 1.65183732498978E9, 0.0, 2022-05-06 12:42:04.989
37.0, -274.33662134967744, -222.41372031485662, -205.06058452045545, -202.92136174580082, 0.144000006839633, 0.11200000531971455, 1.0240000486373901, 0.0, 0.0, 0.0, 0.0, 0.0, 1.6518373250007503E9, 0.0, 2022-05-06 12:42:05.000
37.0, -296.48804878722876, -227.76925705140457, -233.44642518414184, -209.77285846462473, 0.144000006839633, 0.11200000531971455, 1.0240000486373901, 0.0, 0.0, 0.0, 0.0, 0.0, 1.6518373250007503E9, 0.0, 2022-05-06 12:42:05.000
38.0, -225.774020425044, -79.02969591366127, -144.24981124093756, -157.44791818456724, 0.144000006839633, 0.11200000531971455, 1.0240000486373901, 0.0, 0.0, 0.0, 0.0, 0.0, 1.6518373250167584E9, 0.0, 2022-05-06 12:42:05.016
38.0, -203.1289261933416, -73.81627537542954, -107.21358197974041, -131.40325489314273, 0.144000006839633, 0.11200000531971455, 1.0240000486373901, 0.0, 0.0, 0.0, 0.0, 0.0, 1.6518373250167584E9, 0.0, 2022-05-06 12:42:05.016
39.0, -270.0095571009442, -220.81678303377703, -204.99326632125303, -194.05031905090436, 0.144000006839633, 0.11200000531971455, 1.0240000486373901, 0.0, 0.0, 0.0, 0.0, 0.0, 1.651837325017707E9, 0.0, 2022-05-06 12:42:05.017
39.0, -294.6928968084976, -226.76322396332398, -232.58624819433317, -216.09702928969637, 0.144000006839633, 0.11200000531971455, 1.0240000486373901, 0.0, 0.0, 0.0, 0.0, 0.0, 1.651837325017707E9, 0.0, 2022-05-06 12:42:05.017
40.0, -238.61683687288314, -92.88976514944807, -158.73818366928026, -170.37301243143156, 0.144000006839633, 0.11200000531971455, 1.0240000486373901, 0.0, 0.0, 0.0, 0.0, 0.0, 1.6518373250307648E9, 0.0, 2022-05-06 12:42:05.030
40.0, -209.56155411712825, -83.17350506456569, -126.3768293526955, -157.95654457854107, 0.144000006839633, 0.11200000531971455, 1.0240000486373901, 0.0, 0.0, 0.0, 0.0, 0.0, 1.6518373250307648E9, 0.0, 2022-05-06 12:42:05.030
41.0, -273.8392146555707, -229.50831053080037, -224.06675609527156, -227.4214463555254, 0.144000006839633, 0.11200000531971455, 1.0240000486373901, 0.0, 0.0, 0.0, 0.0, 0.0, 1.651837325046775E9, 0.0, 2022-05-06 12:42:05.046
41.0, -312.30782559979707, -236.41590574895963, -252.22072296170518, -231.71111160470173, 0.144000006839633, 0.11200000531971455, 1.0240000486373901, 0.0, 0.0, 0.0, 0.0, 0.0, 1.651837325046775E9, 0.0, 2022-05-06 12:42:05.046
42.0, -235.20230821333826, -92.31756045622751, -150.09901477163658, -161.41221213759854, 0.144000006839633, 0.11200000531971455, 1.0240000486373901, 0.0, 0.0, 0.0, 0.0, 0.0, 1.6518373250477293E9, 0.0, 2022-05-06 12:42:05.047
42.0, -207.38493234291673, -83.04634846607223, -124.12166967941448, -145.30072312848642, 0.144000006839633, 0.11200000531971455, 1.0240000486373901, 0.0, 0.0, 0.0, 0.0, 0.0, 1.6518373250477293E9, 0.0, 2022-05-06 12:42:05.047
43.0, -276.4197456249967, -234.11586727621034, -223.0532432072796, -218.7523582582362, 0.144000006839633, 0.11200000531971455, 1.0240000486373901, 0.0, 0.0, 0.0, 0.0, 0.0, 1.6518373250607636E9, 0.0, 2022-05-06 12:42:05.060
43.0, -295.9532430935651, -225.52531707799062, -233.8353747795336, -218.6364213596098, 0.144000006839633, 0.11200000531971455, 1.0240000486373901, 0.0, 0.0, 0.0, 0.0, 0.0, 1.6518373250607636E9, 0.0, 2022-05-06 12:42:05.060
44.0, -229.70839517842978, -80.45833769673482, -148.49085779068992, -153.97355112573132, 0.144000006839633, 0.11200000531971455, 1.0240000486373901, 0.0, 0.0, 0.0, 0.0, 0.0, 1.651837325076734E9, 0.0, 2022-05-06 12:42:05.076
44.0, -216.88801813032478, -92.1717043579556, -139.05883010243997, -165.8402536851354, 0.144000006839633, 0.11200000531971455, 1.0240000486373901, 0.0, 0.0, 0.0, 0.0, 0.0, 1.651837325076734E9, 0.0, 2022-05-06 12:42:05.076
45.0, -292.8079872308299, -241.74900308577344, -234.69929166929796, -228.96602503722534, 0.144000006839633, 0.11200000531971455, 1.0240000486373901, 0.0, 0.0, 0.0, 0.0, 0.0, 1.6518373250777004E9, 0.0, 2022-05-06 12:42:05.077
45.0, -306.38756396993995, -235.06954176491126, -244.29961485555395, -229.94961872557178, 0.144000006839633, 0.11200000531971455, 1.0240000486373901, 0.0, 0.0, 0.0, 0.0, 0.0, 1.6518373250777004E9, 0.0, 2022-05-06 12:42:05.077
46.0, -226.847371712327, -79.50840310798958, -145.21470542950556, -158.29313557455316, 0.144000006839633, 0.11200000531971455, 1.0240000486373901, 0.0, 0.0, 0.0, 0.0, 0.0, 1.6518373250907657E9, 0.0, 2022-05-06 12:42:05.090
46.0, -210.00660221185535, -86.9096651202999, -126.72090014861897, -149.2799766813405, 0.144000006839633, 0.11200000531971455, 1.0240000486373901, 0.0, 0.0, 0.0, 0.0, 0.0, 1.6518373250907657E9, 0.0, 2022-05-06 12:42:05.090
47.0, -284.3258941313252, -237.01054984191433, -223.02332400763407, -214.03260451415554, 0.144000006839633, 0.11200000531971455, 1.0240000486373901, 0.0, 0.0, 0.0, 0.0, 0.0, 1.651837325106758E9, 0.0, 2022-05-06 12:42:05.106
47.0, -295.49323539901525, -229.87482072645798, -234.7179911690764, -224.54172338964418, 0.144000006839633, 0.11200000531971455, 1.0240000486373901, 0.0, 0.0, 0.0, 0.0, 0.0, 1.651837325106758E9, 0.0, 2022-05-06 12:42:05.106
48.0, -234.12521702609956, -76.25843004649505, -140.13218138972297, -151.25090395798907, 0.144000006839633, 0.11200000531971455, 1.0240000486373901, 0.0, 0.0, 0.0, 0.0, 0.0, 1.6518373251077497E9, 0.0, 2022-05-06 12:42:05.107
48.0, -224.96620203461498, -97.36642539640889, -140.65202748356387, -167.90093856072053, 0.144000006839633, 0.11200000531971455, 1.0240000486373901, 0.0, 0.0, 0.0, 0.0, 0.0, 1.6518373251077497E9, 0.0, 2022-05-06 12:42:05.107
49.0, -268.6744128167629, -234.07098847674206, -227.63462065299973, -214.94140020338818, 0.144000006839633, 0.11200000531971455, 1.0240000486373901, 0.0, 0.0, 0.0, 0.0, 0.0, 1.651837325120766E9, 0.0, 2022-05-06 12:42:05.120
49.0, -320.0120195085183, -244.92043824819848, -248.8772524013184, -233.04251598892733, 0.144000006839633, 0.11200000531971455, 1.0240000486373901, 0.0, 0.0, 0.0, 0.0, 0.0, 1.651837325120766E9, 0.0, 2022-05-06 12:42:05.120
50.0, -240.16889535449445, -83.88782595610246, -137.94807981560007, -151.96522484952584, 0.144000006839633, 0.11200000531971455, 1.008000047877431, 0.0, 0.0, 0.0, 0.0, 0.0, 1.6518373251367548E9, 0.0, 2022-05-06 12:42:05.136
50.0, -218.60463220998645, -90.59346657665446, -131.9380605868064, -150.1962521704845, 0.144000006839633, 0.11200000531971455, 1.008000047877431, 0.0, 0.0, 0.0, 0.0, 0.0, 1.6518373251367548E9, 0.0, 2022-05-06 12:42:05.136
51.0, -282.04081525839865, -233.78301618015394, -231.41939940815791, -224.96433208463714, 0.144000006839633, 0.11200000531971455, 1.008000047877431, 0.0, 0.0, 0.0, 0.0, 0.0, 1.651837325137725E9, 0.0, 2022-05-06 12:42:05.137
51.0, -304.7681872891262, -233.74561718059704, -241.74152328586206, -236.70761794550344, 0.144000006839633, 0.11200000531971455, 1.008000047877431, 0.0, 0.0, 0.0, 0.0, 0.0, 1.651837325137725E9, 0.0, 2022-05-06 12:42:05.137
52.0, -220.54190038703382, -72.85886098677292, -131.8258635881357, -139.75819139415398, 0.144000006839633, 0.11200000531971455, 1.008000047877431, 0.0, 0.0, 0.0, 0.0, 0.0, 1.6518373251508071E9, 0.0, 2022-05-06 12:42:05.150
52.0, -211.35296619590372, -84.42263164976612, -125.2997381654568, -149.00322408461943, 0.144000006839633, 0.11200000531971455, 1.008000047877431, 0.0, 0.0, 0.0, 0.0, 0.0, 1.6518373251508071E9, 0.0, 2022-05-06 12:42:05.150
53.0, -285.00281602330506, -235.50711005972698, -230.63776031741872, -229.13432053523138, 0.144000006839633, 0.11200000531971455, 1.008000047877431, 0.0, 0.0, 0.0, 0.0, 0.0, 1.6518373251668143E9, 0.0, 2022-05-06 12:42:05.166
53.0, -320.71886060014367, -247.8001612140797, -258.64587108558044, -246.21818353282288, 0.144000006839633, 0.11200000531971455, 1.008000047877431, 0.0, 0.0, 0.0, 0.0, 0.0, 1.6518373251668143E9, 0.0, 2022-05-06 12:42:05.166
54.0, -238.377483275719, -84.02620225446299, -150.55528256623074, -165.67569808708504, 0.144000006839633, 0.11200000531971455, 1.008000047877431, 0.0, 0.0, 0.0, 0.0, 0.0, 1.6518373251677742E9, 0.0, 2022-05-06 12:42:05.167
54.0, -197.88558645546436, -79.5009233080782, -121.039992115926, -148.5693956897594, 0.144000006839633, 0.11200000531971455, 1.008000047877431, 0.0, 0.0, 0.0, 0.0, 0.0, 1.6518373251677742E9, 0.0, 2022-05-06 12:42:05.167
55.0, -281.4760903650895, -239.73693690961227, -225.04286998370662, -213.00039212638512, 0.144000006839633, 0.11200000531971455, 1.008000047877431, 0.0, 0.0, 0.0, 0.0, 0.0, 1.6518373251807451E9, 0.0, 2022-05-06 12:42:05.180
55.0, -288.23408958502114, -221.66200042376295, -236.92827204288915, -214.09618281340227, 0.144000006839633, 0.11200000531971455, 1.008000047877431, 0.0, 0.0, 0.0, 0.0, 0.0, 1.6518373251807451E9, 0.0, 2022-05-06 12:42:05.180
56.0, -246.38834898080677, -82.9079721677117, -150.25609056977555, -164.08998050587252, 0.144000006839633, 0.11200000531971455, 1.008000047877431, 0.0, 0.0, 0.0, 0.0, 0.0, 1.6518373251967626E9, 0.0, 2022-05-06 12:42:05.196
56.0, -226.87355101201683, -97.91993058985099, -144.54900323739275, -157.1674256878905, 0.144000006839633, 0.11200000531971455, 1.008000047877431, 0.0, 0.0, 0.0, 0.0, 0.0, 1.6518373251967626E9, 0.0, 2022-05-06 12:42:05.196
57.0, -287.5496878931299, -239.83043440850452, -232.4665713957511, -224.1976525937207, 0.144000006839633, 0.11200000531971455, 1.008000047877431, 0.0, 0.0, 0.0, 0.0, 0.0, 1.6518373251976905E9, 0.0, 2022-05-06 12:42:05.197
57.0, -309.93672902788967, -233.8690338791348, -243.14024586929008, -222.25290461676195, 0.144000006839633, 0.11200000531971455, 1.008000047877431, 0.0, 0.0, 0.0, 0.0, 0.0, 1.6518373251976905E9, 0.0, 2022-05-06 12:42:05.197
58.0, -235.46784111019224, -85.16687174094841, -148.89476698590443, -161.1279797409661, 0.144000006839633, 0.11200000531971455, 1.008000047877431, 0.0, 0.0, 0.0, 0.0, 0.0, 1.651837325210818E9, 0.0, 2022-05-06 12:42:05.210
58.0, -220.34742558933794, -92.57187365321442, -137.69750651856884, -166.23668308043852, 0.144000006839633, 0.11200000531971455, 1.008000047877431, 0.0, 0.0, 0.0, 0.0, 0.0, 1.651837325210818E9, 0.0, 2022-05-06 12:42:05.210
59.0, -290.71364325564355, -241.12069989321753, -240.14084610482678, -233.45016508409753, 0.144000006839633, 0.11200000531971455, 1.008000047877431, 0.0, 0.0, 0.0, 0.0, 0.0, 1.65183732522676E9, 0.0, 2022-05-06 12:42:05.226
59.0, -305.34787178225815, -225.14010738255456, -233.87651367904618, -220.52133093727753, 0.144000006839633, 0.11200000531971455, 1.008000047877431, 0.0, 0.0, 0.0, 0.0, 0.0, 1.65183732522676E9, 0.0, 2022-05-06 12:42:05.226
60.0, -230.7368676662445, -80.52565589593723, -147.98597129667178, -158.3866330734454, 0.144000006839633, 0.11200000531971455, 1.0240000486373901, 0.0, 0.0, 0.0, 0.0, 0.0, 1.6518373252276945E9, 0.0, 2022-05-06 12:42:05.227
60.0, -211.08369339909405, -89.70337038720027, -124.32736417697743, -149.54550957819447, 0.144000006839633, 0.11200000531971455, 1.0240000486373901, 0.0, 0.0, 0.0, 0.0, 0.0, 1.6518373252276945E9, 0.0, 2022-05-06 12:42:05.227
61.0, -280.7168906740844, -230.60036131786183, -219.66115394746885, -212.55534403165802, 0.144000006839633, 0.12800000607967377, 1.0240000486373901, 0.0, 0.0, 0.0, 0.0, 0.0, 1.6518373252407904E9, 0.0, 2022-05-06 12:42:05.240
61.0, -310.1873023249209, -232.80316239176318, -248.7987145022489, -231.864447502885, 0.144000006839633, 0.12800000607967377, 1.0240000486373901, 0.0, 0.0, 0.0, 0.0, 0.0, 1.6518373252407904E9, 0.0, 2022-05-06 12:42:05.240
62.0, -242.4464944275096, -90.77672167448327, -160.74277004553005, -182.82687928387895, 0.144000006839633, 0.12800000607967377, 1.0240000486373901, 0.0, 0.0, 0.0, 0.0, 0.0, 1.6518373252567708E9, 0.0, 2022-05-06 12:42:05.256
62.0, -214.78993425518274, -101.60373204620555, -139.3430624990724, -161.65904553467408, 0.144000006839633, 0.12800000607967377, 1.0240000486373901, 0.0, 0.0, 0.0, 0.0, 0.0, 1.6518373252567708E9, 0.0, 2022-05-06 12:42:05.256
63.0, -281.7640626616776, -242.9831700711511, -232.8330815914087, -217.51819127285853, 0.144000006839633, 0.12800000607967377, 1.0240000486373901, 0.0, 0.0, 0.0, 0.0, 0.0, 1.6518373252577007E9, 0.0, 2022-05-06 12:42:05.257
63.0, -298.6534508615732, -225.62255447683856, -230.9107730141841, -221.0897957305424, 0.144000006839633, 0.12800000607967377, 1.0240000486373901, 0.0, 0.0, 0.0, 0.0, 0.0, 1.6518373252577007E9, 0.0, 2022-05-06 12:42:05.257
64.0, -235.79321240633726, -80.1703654001467, -144.3096496402286, -160.28650225093588, 0.144000006839633, 0.12800000607967377, 1.0240000486373901, 0.0, 0.0, 0.0, 0.0, 0.0, 1.6518373252707417E9, 0.0, 2022-05-06 12:42:05.270
64.0, -218.45503621175885, -96.67828380456194, -138.80077700549737, -161.7974218330346, 0.144000006839633, 0.12800000607967377, 1.0240000486373901, 0.0, 0.0, 0.0, 0.0, 0.0, 1.6518373252707417E9, 0.0, 2022-05-06 12:42:05.270
65.0, -277.81846820842475, -230.61532091768458, -218.46438596164808, -221.8976141209714, 0.144000006839633, 0.12800000607967377, 1.0240000486373901, 0.0, 0.0, 0.0, 0.0, 0.0, 1.6518373252867527E9, 0.0, 2022-05-06 12:42:05.286
65.0, -307.0009075626731, -241.25533629162237, -254.10937243932858, -242.67649827478454, 0.144000006839633, 0.12800000607967377, 1.0240000486373901, 0.0, 0.0, 0.0, 0.0, 0.0, 1.6518373252867527E9, 0.0, 2022-05-06 12:42:05.286
66.0, -242.03136553242803, -85.34264703886583, -153.25175043428317, -171.2107500215061, 0.144000006839633, 0.12800000607967377, 1.0240000486373901, 0.0, 0.0, 0.0, 0.0, 0.0, 1.651837325287711E9, 0.0, 2022-05-06 12:42:05.287
