%OpenBCI Raw EEG Data
%Number of channels = 4
%Sample Rate = 200 Hz
%Board = OpenBCI_GUI$BoardGanglionBLE
Sample Index, EXG Channel 0, EXG Channel 1, EXG Channel 2, EXG Channel 3, Accel Channel 0, Accel Channel 1, Accel Channel 2, Other, Other, Other, Other, Other, Timestamp, Other, Timestamp (Formatted)
10.0, 78.86701026558876, 156.06228525098413, 102.25634458847344, 63.50724114757031, 0.0, 0.0, 1.008000047877431, 0.0, 0.0, 0.0, 0.0, 0.0, 1.6518372575998716E9, 0.0, 2022-05-06 12:40:57.599
10.0, 310.01526692695916, 228.46674839314073, 244.69791420083493, 227.6290108030662, 0.0, 0.0, 1.008000047877431, 0.0, 0.0, 0.0, 0.0, 0.0, 1.6518372575998716E9, 0.0, 2022-05-06 12:40:57.599
0.0, -305.83031887654215, -261.4638857021928, -236.23078070115298, -236.47387419827282, 0.0, 0.0, 1.008000047877431, 0.0, 0.0, 0.0, 0.0, 0.0, 1.651837257621873E9, 0.0, 2022-05-06 12:40:57.621
1.0, -324.742992952466, -245.69272758904845, -254.12994188908488, -245.10182339604944, 0.0, 0.12800000607967377, 1.008000047877431, 0.0, 0.0, 0.0, 0.0, 0.0, 1.6518372576349032E9, 0.0, 2022-05-06 12:40:57.634
1.0, -255.44264677353203, -94.59328957926482, -163.3401305647567, -183.28875692840666, 0.0, 0.12800000607967377, 1.008000047877431, 0.0, 0.0, 0.0, 0.0, 0.0, 1.6518372576349032E9, 0.0, 2022-05-06 12:40:57.634
2.0, -219.27407430205494, -89.151735143736, -135.96032298915088, -162.8202844709158, 0.144000006839633, 0.12800000607967377, 1.008000047877431, 0.0, 0.0, 0.0, 0.0, 0.0, 1.6518372576518664E9, 0.0, 2022-05-06 12:40:57.651
2.0, -280.22696377988905, -242.08372413180768, -224.1770831439644, -220.1454709917307, 0.144000006839633, 0.12800000607967377, 1.008000047877431, 0.0, 0.0, 0.0, 0.0, 0.0, 1.6518372576518664E9, 0.0, 2022-05-06 12:40:57.651
3.0, -314.72754087112844, -224.53985343966633, -250.91362792719156, -223.59365875087678, 0.144000006839633, 0.12800000607967377, 1.008000047877431, 0.0, 0.0, 0.0, 0.0, 0.0, 1.651837257652846E9, 0.0, 2022-05-06 12:40:57.652
3.0, -236.11858370248228, -77.12047698628157, -148.48524794075638, -165.99171963334084, 0.144000006839633, 0.12800000607967377, 1.008000047877431, 0.0, 0.0, 0.0, 0.0, 0.0, 1.651837257652846E9, 0.0, 2022-05-06 12:40:57.652
4.0, -223.08877225685865, -102.99684477970004, -138.48475545924157, -160.65114249661565, 0.144000006839633, 0.12800000607967377, 1.008000047877431, 0.0, 0.0, 0.0, 0.0, 0.0, 1.651837257664936E9, 0.0, 2022-05-06 12:40:57.664
4.0, -279.9053323836997, -232.36372414696962, -215.05920705199242, -200.5446553239599, 0.144000006839633, 0.12800000607967377, 1.008000047877431, 0.0, 0.0, 0.0, 0.0, 0.0, 1.651837257664936E9, 0.0, 2022-05-06 12:40:57.664
5.0, -299.8539587473497, -224.1060250448063, -247.35698306933045, -232.105671050027, 0.144000006839633, 0.12800000607967377, 1.008000047877431, 0.0, 0.0, 0.0, 0.0, 0.0, 1.6518372576809783E9, 0.0, 2022-05-06 12:40:57.680
5.0, -243.36276991665363, -84.88076939433813, -155.5199997574091, -185.58505550120026, 0.144000006839633, 0.12800000607967377, 1.008000047877431, 0.0, 0.0, 0.0, 0.0, 0.0, 1.6518372576809783E9, 0.0, 2022-05-06 12:40:57.680
6.0, -220.27262759022415, -96.19022686034441, -132.14936493430287, -165.8907423345372, 0.144000006839633, 0.12800000607967377, 1.008000047877431, 0.0, 0.0, 0.0, 0.0, 0.0, 1.6518372576818707E9, 0.0, 2022-05-06 12:40:57.681
6.0, -293.6681642206386, -258.5318041369319, -236.97502079233527, -222.44924936443567, 0.144000006839633, 0.12800000607967377, 1.008000047877431, 0.0, 0.0, 0.0, 0.0, 0.0, 1.6518372576818707E9, 0.0, 2022-05-06 12:40:57.681
7.0, -305.542346579954, -219.22919550258666, -237.73422048334032, -211.14353179838508, 0.144000006839633, 0.12800000607967377, 1.008000047877431, 0.0, 0.0, 0.0, 0.0, 0.0, 1.6518372577109258E9, 0.0, 2022-05-06 12:40:57.710
7.0, -234.64132321998477, -74.73442081455141, -147.71482854988426, -169.4473871923983, 0.144000006839633, 0.12800000607967377, 1.008000047877431, 0.0, 0.0, 0.0, 0.0, 0.0, 1.6518372577109258E9, 0.0, 2022-05-06 12:40:57.710
8.0, -225.65060372650623, -97.48797214496881, -138.40995746012777, -156.64570964407176, 0.144000006839633, 0.12800000607967377, 1.008000047877431, 0.0, 0.0, 0.0, 0.0, 0.0, 1.6518372577119215E9, 0.0, 2022-05-06 12:40:57.711
8.0, -294.44980331137776, -250.27784493472427, -232.61429744400084, -230.52369336877018, 0.144000006839633, 0.12800000607967377, 1.008000047877431, 0.0, 0.0, 0.0, 0.0, 0.0, 1.6518372577119215E9, 0.0, 2022-05-06 12:40:57.711
9.0, -312.35644429922104, -229.4466021815315, -245.39353559259325, -235.40052291098982, 0.144000006839633, 0.12800000607967377, 1.008000047877431, 0.0, 0.0, 0.0, 0.0, 0.0, 1.6518372577258916E9, 0.0, 2022-05-06 12:40:57.725
9.0, -218.12218511570245, -69.49108107667416, -137.47872237116098, -166.7060405248776, 0.144000006839633, 0.12800000607967377, 1.008000047877431, 0.0, 0.0, 0.0, 0.0, 0.0, 1.6518372577258916E9, 0.0, 2022-05-06 12:40:57.725
10.0, -243.66196191310883, -129.63615216407925, -157.08701783884317, -176.94214670360088, 0.144000006839633, 0.12800000607967377, 0.5120000243186951, 0.0, 0.0, 0.0, 0.0, 0.0, 1.6518372577268472E9, 0.0, 2022-05-06 12:40:57.726
10.0, -298.8030468598008, -274.84524774365127, -251.29883762262762, -230.41897617001086, 0.144000006839633, 0.12800000607967377, 0.5120000243186951, 0.0, 0.0, 0.0, 0.0, 0.0, 1.6518372577268472E9, 0.0, 2022-05-06 12:40:57.726
11.0, -305.1833161842078, -206.730449850671, -234.9966137157753, -219.35635210108012, 0.144000006839633, 0.06400000303983688, 0.5120000243186951, 0.0, 0.0, 0.0, 0.0, 0.0, 1.651837257741E9, 0.0, 2022-05-06 12:40:57.741
11.0, -215.85206584259868, -43.644632482901216, -126.32260080333799, -144.39379738923162, 0.144000006839633, 0.06400000303983688, 0.5120000243186951, 0.0, 0.0, 0.0, 0.0, 0.0, 1.651837257741E9, 0.0, 2022-05-06 12:40:57.741
12.0, -228.63878379110247, -117.23090401105583, -139.79372044373304, -163.3326507648453, 0.06400000303983688, 0.06400000303983688, 0.5120000243186951, 0.0, 0.0, 0.0, 0.0, 0.0, 1.651837257741866E9, 0.0, 2022-05-06 12:40:57.741
12.0, -302.4083104170859, -268.8651477145031, -247.4916194677353, -213.38747177179903, 0.06400000303983688, 0.06400000303983688, 0.5120000243186951, 0.0, 0.0, 0.0, 0.0, 0.0, 1.651837257741866E9, 0.0, 2022-05-06 12:40:57.741
13.0, -291.5439010458067, -197.6873717578128, -228.19747559633106, -211.68207739200443, 0.06400000303983688, 0.06400000303983688, 0.5120000243186951, 0.0, 0.0, 0.0, 0.0, 0.0, 1.6518372577550128E9, 0.0, 2022-05-06 12:40:57.755
13.0, -220.48580188769847, -45.230350064113736, -127.78864158596843, -163.28777196537703, 0.06400000303983688, 0.06400000303983688, 0.5120000243186951, 0.0, 0.0, 0.0, 0.0, 0.0, 1.6518372577550128E9, 0.0, 2022-05-06 12:40:57.755
14.0, -230.20954177249223, -126.29268160369247, -145.32129257824272, -176.02213131450117, 0.06400000303983688, 0.06400000303983688, 0.5120000243186951, 0.0, 0.0, 0.0, 0.0, 0.0, 1.6518372577868965E9, 0.0, 2022-05-06 12:40:57.786
14.0, -310.8829237166792, -277.2874024147168, -256.74039205815643, -240.9692339450121, 0.06400000303983688, 0.06400000303983688, 0.5120000243186951, 0.0, 0.0, 0.0, 0.0, 0.0, 1.6518372577868965E9, 0.0, 2022-05-06 12:40:57.786
15.0, -302.98425501026213, -202.870873096399, -216.08767953980714, -208.71633672714233, 0.06400000303983688, 0.06400000303983688, 0.5120000243186951, 0.0, 0.0, 0.0, 0.0, 0.0, 1.6518372577879276E9, 0.0, 2022-05-06 12:40:57.787
15.0, -203.19250449258834, -35.51408997923136, -109.33597520459443, -127.55676778871566, 0.06400000303983688, 0.06400000303983688, 0.5120000243186951, 0.0, 0.0, 0.0, 0.0, 0.0, 1.6518372577879276E9, 0.0, 2022-05-06 12:40:57.787
16.0, -212.74794887937605, -122.0217158542946, -152.60661769192666, -179.57877617236227, 0.06400000303983688, 0.06400000303983688, 0.5120000243186951, 0.0, 0.0, 0.0, 0.0, 0.0, 1.6518372577888565E9, 0.0, 2022-05-06 12:40:57.788
16.0, -310.54259282071143, -282.5045628529042, -258.9319734321907, -244.1144898077473, 0.06400000303983688, 0.06400000303983688, 0.5120000243186951, 0.0, 0.0, 0.0, 0.0, 0.0, 1.6518372577888565E9, 0.0, 2022-05-06 12:40:57.788
17.0, -314.4769675740972, -215.26490154955536, -246.16395498346537, -239.82482455857098, 0.06400000303983688, 0.06400000303983688, 0.5120000243186951, 0.0, 0.0, 0.0, 0.0, 0.0, 1.6518372577898989E9, 0.0, 2022-05-06 12:40:57.789
17.0, -227.2587607074529, -55.67963054031134, -132.90856462530792, -162.57345107384026, 0.06400000303983688, 0.06400000303983688, 0.5120000243186951, 0.0, 0.0, 0.0, 0.0, 0.0, 1.6518372577898989E9, 0.0, 2022-05-06 12:40:57.789
18.0, -236.5150130977854, -134.9206308014691, -156.93742184061557, -179.61243527196348, 0.06400000303983688, 0.06400000303983688, 0.5120000243186951, 0.0, 0.0, 0.0, 0.0, 0.0, 1.6518372577998896E9, 0.0, 2022-05-06 12:40:57.799
18.0, -294.3974447119981, -280.9525043712929, -252.25251211132854, -232.1094109499827, 0.06400000303983688, 0.06400000303983688, 0.5120000243186951, 0.0, 0.0, 0.0, 0.0, 0.0, 1.6518372577998896E9, 0.0, 2022-05-06 12:40:57.799
19.0, -299.7380218487233, -194.54585579503328, -219.2553748022765, -211.98126938845962, 0.06400000303983688, 0.06400000303983688, 0.5120000243186951, 0.0, 0.0, 0.0, 0.0, 0.0, 1.6518372578149188E9, 0.0, 2022-05-06 12:40:57.814
19.0, -222.0341204693541, -45.49962286092341, -124.53492862451822, -146.13285086862743, 0.06400000303983688, 0.06400000303983688, 0.5120000243186951, 0.0, 0.0, 0.0, 0.0, 0.0, 1.6518372578149188E9, 0.0, 2022-05-06 12:40:57.814
20.0, -236.83664449397475, -133.02824142389, -156.90750264097005, -176.84864920470864, 0.06400000303983688, 0.06400000303983688, 0.7680000364780426, 0.0, 0.0, 0.0, 0.0, 0.0, 1.6518372578309064E9, 0.0, 2022-05-06 12:40:57.830
20.0, -311.3055324116722, -278.6861249981448, -253.73725239373744, -231.56712545640767, 0.06400000303983688, 0.06400000303983688, 0.7680000364780426, 0.0, 0.0, 0.0, 0.0, 0.0, 1.6518372578309064E9, 0.0, 2022-05-06 12:40:57.830
21.0, -299.45378945209086, -196.85337406769395, -224.4426160408184, -211.38662529550493, 0.06400000303983688, 0.0800000037997961, 0.7680000364780426, 0.0, 0.0, 0.0, 0.0, 0.0, 1.6518372578319173E9, 0.0, 2022-05-06 12:40:57.831
21.0, -221.18890307936817, -41.05288181360811, -120.82120796851814, -155.35544415935874, 0.06400000303983688, 0.0800000037997961, 0.7680000364780426, 0.0, 0.0, 0.0, 0.0, 0.0, 1.6518372578319173E9, 0.0, 2022-05-06 12:40:57.831
22.0, -224.75676763709635, -124.75932262185961, -144.8425853839144, -170.46463998034596, 0.11200000531971455, 0.0800000037997961, 0.7680000364780426, 0.0, 0.0, 0.0, 0.0, 0.0, 1.6518372578449636E9, 0.0, 2022-05-06 12:40:57.844
22.0, -302.75986101292074, -278.8656401960179, -248.50139245577157, -239.60791036114097, 0.11200000531971455, 0.0800000037997961, 0.7680000364780426, 0.0, 0.0, 0.0, 0.0, 0.0, 1.6518372578449636E9, 0.0, 2022-05-06 12:40:57.844
23.0, -304.05760629754514, -205.6196995638311, -238.23910697735846, -225.27661373093724, 0.11200000531971455, 0.0800000037997961, 0.7680000364780426, 0.0, 0.0, 0.0, 0.0, 0.0, 1.651837257860904E9, 0.0, 2022-05-06 12:40:57.860
23.0, -218.26430131401867, -44.056021478027105, -125.48860311321914, -146.24130796734244, 0.11200000531971455, 0.0800000037997961, 0.7680000364780426, 0.0, 0.0, 0.0, 0.0, 0.0, 1.651837257860904E9, 0.0, 2022-05-06 12:40:57.860
24.0, -230.95004196371883, -132.68043072801083, -158.82981121819466, -179.65357417147607, 0.11200000531971455, 0.0800000037997961, 0.7680000364780426, 0.0, 0.0, 0.0, 0.0, 0.0, 1.6518372578619359E9, 0.0, 2022-05-06 12:40:57.861
24.0, -299.0237009571865, -272.7247244687751, -244.3388838050887, -228.1077179973945, 0.11200000531971455, 0.0800000037997961, 0.7680000364780426, 0.0, 0.0, 0.0, 0.0, 0.0, 1.6518372578619359E9, 0.0, 2022-05-06 12:40:57.861
25.0, -289.9581834645942, -188.77145026344806, -218.04364721663296, -209.81212741415948, 0.11200000531971455, 0.0800000037997961, 0.7680000364780426, 0.0, 0.0, 0.0, 0.0, 0.0, 1.6518372578749683E9, 0.0, 2022-05-06 12:40:57.874
25.0, -221.79102697223425, -50.17823770549148, -129.11630607023835, -163.9272948578, 0.11200000531971455, 0.0800000037997961, 0.7680000364780426, 0.0, 0.0, 0.0, 0.0, 0.0, 1.6518372578749683E9, 0.0, 2022-05-06 12:40:57.874
26.0, -224.96620203461498, -129.5389147652313, -149.67827602662146, -173.37054224591702, 0.11200000531971455, 0.0800000037997961, 0.7680000364780426, 0.0, 0.0, 0.0, 0.0, 0.0, 1.651837257890908E9, 0.0, 2022-05-06 12:40:57.890
26.0, -307.6366905551404, -279.40792568959296, -250.1880873357877, -224.19952254369855, 0.11200000531971455, 0.0800000037997961, 0.7680000364780426, 0.0, 0.0, 0.0, 0.0, 0.0, 1.651837257890908E9, 0.0, 2022-05-06 12:40:57.890
27.0, -297.3370060771704, -193.03867611289024, -232.67413584329188, -221.86582497134805, 0.11200000531971455, 0.0800000037997961, 0.7680000364780426, 0.0, 0.0, 0.0, 0.0, 0.0, 1.651837257891862E9, 0.0, 2022-05-06 12:40:57.891
27.0, -213.46600967086852, -45.42108496185392, -126.18048460502177, -145.65414367429912, 0.11200000531971455, 0.0800000037997961, 0.7680000364780426, 0.0, 0.0, 0.0, 0.0, 0.0, 1.651837257891862E9, 0.0, 2022-05-06 12:40:57.891
28.0, -221.93688307050616, -131.0236550476402, -155.75935335457325, -169.63064229022712, 0.11200000531971455, 0.0800000037997961, 0.7680000364780426, 0.0, 0.0, 0.0, 0.0, 0.0, 1.6518372579050188E9, 0.0, 2022-05-06 12:40:57.905
28.0, -286.0275486111641, -271.3596609849483, -243.54976491443813, -230.2619003718719, 0.11200000531971455, 0.0800000037997961, 0.7680000364780426, 0.0, 0.0, 0.0, 0.0, 0.0, 1.6518372579050188E9, 0.0, 2022-05-06 12:40:57.905
29.0, -321.8595300866291, -201.206617616117, -230.9201227640733, -221.33475917764008, 0.11200000531971455, 0.0800000037997961, 0.7680000364780426, 0.0, 0.0, 0.0, 0.0, 0.0, 1.651837257920997E9, 0.0, 2022-05-06 12:40:57.920
29.0, -212.45249678287655, -31.73305112402886, -116.25479012262076, -139.27761424984783, 0.11200000531971455, 0.0800000037997961, 0.7680000364780426, 0.0, 0.0, 0.0, 0.0, 0.0, 1.651837257920997E9, 0.0, 2022-05-06 12:40:57.920
30.0, -232.9247091403231, -132.70661002770066, -157.3338512359187, -171.49685236811638, 0.11200000531971455, 0.0800000037997961, 0.8960000425577164, 0.0, 0.0, 0.0, 0.0, 0.0, 1.6518372579218323E9, 0.0, 2022-05-06 12:40:57.921
30.0, -306.989687862806, -277.3584605138749, -253.1949669001624, -240.46060755103827, 0.11200000531971455, 0.0800000037997961, 0.8960000425577164, 0.0, 0.0, 0.0, 0.0, 0.0, 1.6518372579218323E9, 0.0, 2022-05-06 12:40:57.921
31.0, -300.4112038407475, -202.44826440140605, -229.9215694759041, -223.84049214795232, 0.11200000531971455, 0.11200000531971455, 0.8960000425577164, 0.0, 0.0, 0.0, 0.0, 0.0, 1.651837257934913E9, 0.0, 2022-05-06 12:40:57.934
31.0, -208.37600583117455, -37.182085359469056, -117.3917197091505, -144.02354729361832, 0.11200000531971455, 0.11200000531971455, 0.8960000425577164, 0.0, 0.0, 0.0, 0.0, 0.0, 1.651837257934913E9, 0.0, 2022-05-06 12:40:57.934
32.0, -234.035459427163, -141.3308193255216, -158.27630602475256, -178.20623288862407, 0.12800000607967377, 0.11200000531971455, 0.8960000425577164, 0.0, 0.0, 0.0, 0.0, 0.0, 1.6518372579510024E9, 0.0, 2022-05-06 12:40:57.951
32.0, -313.97582098003477, -285.7732354141772, -260.07264291867614, -234.85823741741478, 0.12800000607967377, 0.11200000531971455, 0.8960000425577164, 0.0, 0.0, 0.0, 0.0, 0.0, 1.6518372579510024E9, 0.0, 2022-05-06 12:40:57.951
33.0, -294.6629776088521, -188.14314707089216, -221.9555825702846, -215.6613309448585, 0.12800000607967377, 0.11200000531971455, 0.8960000425577164, 0.0, 0.0, 0.0, 0.0, 0.0, 1.6518372579519608E9, 0.0, 2022-05-06 12:40:57.951
33.0, -215.15270455088466, -38.71918424125761, -122.71359734609723, -151.16301630903035, 0.12800000607967377, 0.11200000531971455, 0.8960000425577164, 0.0, 0.0, 0.0, 0.0, 0.0, 1.6518372579519608E9, 0.0, 2022-05-06 12:40:57.951
34.0, -230.61719086766243, -142.29571351408958, -164.29380505345762, -182.50337793771178, 0.12800000607967377, 0.11200000531971455, 0.8960000425577164, 0.0, 0.0, 0.0, 0.0, 0.0, 1.6518372579649029E9, 0.0, 2022-05-06 12:40:57.964
34.0, -306.4025235697627, -285.6535586155951, -259.0778295304626, -240.50922625046223, 0.12800000607967377, 0.11200000531971455, 0.8960000425577164, 0.0, 0.0, 0.0, 0.0, 0.0, 1.6518372579649029E9, 0.0, 2022-05-06 12:40:57.964
35.0, -297.71847587265074, -185.80944949854165, -218.37649831268936, -214.617898857221, 0.12800000607967377, 0.11200000531971455, 0.8960000425577164, 0.0, 0.0, 0.0, 0.0, 0.0, 1.6518372579809256E9, 0.0, 2022-05-06 12:40:57.980
35.0, -207.15305854566395, -39.261469734832644, -116.3146285219118, -148.54134644009173, 0.12800000607967377, 0.11200000531971455, 0.8960000425577164, 0.0, 0.0, 0.0, 0.0, 0.0, 1.6518372579809256E9, 0.0, 2022-05-06 12:40:57.980
36.0, -227.8459250004962, -131.27422834467143, -153.9941205754876, -167.80183121189475, 0.12800000607967377, 0.11200000531971455, 0.8960000425577164, 0.0, 0.0, 0.0, 0.0, 0.0, 1.6518372579818735E9, 0.0, 2022-05-06 12:40:57.981
36.0, -305.482508180663, -283.03936854656786, -257.7202458465472, -234.0018003275618, 0.12800000607967377, 0.11200000531971455, 0.8960000425577164, 0.0, 0.0, 0.0, 0.0, 0.0, 1.6518372579818735E9, 0.0, 2022-05-06 12:40:57.981
37.0, -276.47584412433207, -180.88026135694236, -212.5497341817245, -201.8349208086729, 0.12800000607967377, 0.11200000531971455, 0.8960000425577164, 0.0, 0.0, 0.0, 0.0, 0.0, 1.651837257994888E9, 0.0, 2022-05-06 12:40:57.994
37.0, -206.42003815434873, -34.021869896911085, -120.27144267503172, -127.34733339119703, 0.12800000607967377, 0.11200000531971455, 0.8960000425577164, 0.0, 0.0, 0.0, 0.0, 0.0, 1.651837257994888E9, 0.0, 2022-05-06 12:40:57.994
38.0, -233.72130783088505, -131.6968370396644, -150.45243531744927, -154.84307786542922, 0.12800000607967377, 0.11200000531971455, 0.8960000425577164, 0.0, 0.0, 0.0, 0.0, 0.0, 1.651837258010904E9, 0.0, 2022-05-06 12:40:58.010
38.0, -305.108518185094, -277.6875717099756, -259.4219003263861, -246.1863943831995, 0.12800000607967377, 0.11200000531971455, 0.8960000425577164, 0.0, 0.0, 0.0, 0.0, 0.0, 1.651837258010904E9, 0.0, 2022-05-06 12:40:58.010
39.0, -292.2432623375207, -193.38274690881371, -228.20869529619813, -223.3991839531809, 0.12800000607967377, 0.11200000531971455, 0.8960000425577164, 0.0, 0.0, 0.0, 0.0, 0.0, 1.6518372580118656E9, 0.0, 2022-05-06 12:40:58.011
39.0, -206.32654065545648, -39.91221232712269, -126.77138879802078, -159.27485931292176, 0.12800000607967377, 0.11200000531971455, 0.8960000425577164, 0.0, 0.0, 0.0, 0.0, 0.0, 1.6518372580118656E9, 0.0, 2022-05-06 12:40:58.011
40.0, -245.5580911906436, -143.71313559729606, -157.17677543777972, -173.3742821458727, 0.12800000607967377, 0.11200000531971455, 0.9600000455975533, 0.0, 0.0, 0.0, 0.0, 0.0, 1.6518372580249965E9, 0.0, 2022-05-06 12:40:58.024
40.0, -305.2842934830114, -274.9873639419675, -248.4191146567464, -223.13365105632693, 0.12800000607967377, 0.11200000531971455, 0.9600000455975533, 0.0, 0.0, 0.0, 0.0, 0.0, 1.6518372580249965E9, 0.0, 2022-05-06 12:40:58.024
41.0, -286.1397456098348, -178.2698111878708, -215.6201920453459, -210.89295850135386, 0.12800000607967377, 0.11200000531971455, 0.9600000455975533, 0.0, 0.0, 0.0, 0.0, 0.0, 1.6518372580409677E9, 0.0, 2022-05-06 12:40:58.040
41.0, -212.9947822764516, -40.065548225305974, -116.64373971801251, -158.5156596219167, 0.12800000607967377, 0.11200000531971455, 0.9600000455975533, 0.0, 0.0, 0.0, 0.0, 0.0, 1.6518372580409677E9, 0.0, 2022-05-06 12:40:58.040
42.0, -236.53371259756386, -142.89409750699997, -161.97880698088557, -180.3865945627913, 0.12800000607967377, 0.11200000531971455, 0.9600000455975533, 0.0, 0.0, 0.0, 0.0, 0.0, 1.6518372580419073E9, 0.0, 2022-05-06 12:40:58.041
42.0, -300.87121153529733, -279.5837009875104, -250.66679453011602, -224.04992654547095, 0.12800000607967377, 0.11200000531971455, 0.9600000455975533, 0.0, 0.0, 0.0, 0.0, 0.0, 1.6518372580419073E9, 0.0, 2022-05-06 12:40:58.041
43.0, -293.23059592582285, -189.2725968575105, -221.4432162763551, -222.5464867632836, 0.12800000607967377, 0.11200000531971455, 0.9600000455975533, 0.0, 0.0, 0.0, 0.0, 0.0, 1.651837258054952E9, 0.0, 2022-05-06 12:40:58.054
43.0, -199.37780653778464, -30.1622931426391, -118.0200229017064, -145.2502344790846, 0.12800000607967377, 0.11200000531971455, 0.9600000455975533, 0.0, 0.0, 0.0, 0.0, 0.0, 1.651837258054952E9, 0.0, 2022-05-06 12:40:58.054
44.0, -237.0759980911389, -145.50454767607152, -165.21756034251302, -175.63318171910942, 0.12800000607967377, 0.11200000531971455, 0.9600000455975533, 0.0, 0.0, 0.0, 0.0, 0.0, 1.6518372580710604E9, 0.0, 2022-05-06 12:40:58.071
44.0, -301.2265020310879, -274.4712577480823, -254.84052288066596, -236.85908389370888, 0.12800000607967377, 0.11200000531971455, 0.9600000455975533, 0.0, 0.0, 0.0, 0.0, 0.0, 1.6518372580710604E9, 0.0, 2022-05-06 12:40:58.071
45.0, -279.63979948684573, -177.6078488957137, -211.89525168947875, -201.7227238100022, 0.12800000607967377, 0.11200000531971455, 0.9600000455975533, 0.0, 0.0, 0.0, 0.0, 0.0, 1.6518372580718625E9, 0.0, 2022-05-06 12:40:58.071
45.0, -198.14737945236266, -34.20886489469558, -107.33138882834464, -136.16227758675814, 0.12800000607967377, 0.11200000531971455, 0.9600000455975533, 0.0, 0.0, 0.0, 0.0, 0.0, 1.6518372580718625E9, 0.0, 2022-05-06 12:40:58.071
46.0, -227.1839627083391, -141.61131182219833, -161.32432448863983, -172.14759496040642, 0.12800000607967377, 0.11200000531971455, 0.9600000455975533, 0.0, 0.0, 0.0, 0.0, 0.0, 1.6518372580849037E9, 0.0, 2022-05-06 12:40:58.084
46.0, -312.49856049753726, -279.59492068737745, -245.6702881893143, -227.2512809075415, 0.12800000607967377, 0.11200000531971455, 0.9600000455975533, 0.0, 0.0, 0.0, 0.0, 0.0, 1.6518372580849037E9, 0.0, 2022-05-06 12:40:58.084
47.0, -273.51010345947, -163.99087315704674, -200.7204306218773, -195.88473997917026, 0.12800000607967377, 0.11200000531971455, 0.9600000455975533, 0.0, 0.0, 0.0, 0.0, 0.0, 1.6518372581009612E9, 0.0, 2022-05-06 12:40:58.100
47.0, -192.51509011909366, -20.240338560193777, -102.6041552843526, -127.75124258641154, 0.12800000607967377, 0.11200000531971455, 0.9600000455975533, 0.0, 0.0, 0.0, 0.0, 0.0, 1.6518372581009612E9, 0.0, 2022-05-06 12:40:58.100
48.0, -243.76667911186814, -148.1823160443455, -156.7429470429197, -184.15267381817102, 0.12800000607967377, 0.11200000531971455, 0.9600000455975533, 0.0, 0.0, 0.0, 0.0, 0.0, 1.6518372581019077E9, 0.0, 2022-05-06 12:40:58.101
48.0, -315.9579679565504, -290.2947744606063, -273.5325428592041, -238.75147327128798, 0.12800000607967377, 0.11200000531971455, 0.9600000455975533, 0.0, 0.0, 0.0, 0.0, 0.0, 1.6518372581019077E9, 0.0, 2022-05-06 12:40:58.101
49.0, -281.2180372681469, -169.4847861919552, -219.70790269691497, -207.5420081410557, 0.12800000607967377, 0.11200000531971455, 0.9600000455975533, 0.0, 0.0, 0.0, 0.0, 0.0, 1.6518372581148992E9, 0.0, 2022-05-06 12:40:58.114
49.0, -193.81657530367374, -29.283416653051972, -117.49643690790981, -156.7055480433628, 0.12800000607967377, 0.11200000531971455, 0.9600000455975533, 0.0, 0.0, 0.0, 0.0, 0.0, 1.6518372581148992E9, 0.0, 2022-05-06 12:40:58.114
50.0, -240.6363828489557, -158.7101344196126, -180.22577886469662, -191.22108473442495, 0.12800000607967377, 0.11200000531971455, 0.9920000471174717, 0.0, 0.0, 0.0, 0.0, 0.0, 1.6518372581309016E9, 0.0, 2022-05-06 12:40:58.130
50.0, -321.6388759892434, -290.4331507589668, -262.29040359240025, -248.16854135971516, 0.12800000607967377, 0.11200000531971455, 0.9920000471174717, 0.0, 0.0, 0.0, 0.0, 0.0, 1.6518372581309016E9, 0.0, 2022-05-06 12:40:58.130
51.0, -297.8792915707454, -184.4256865149364, -226.58183881547302, -225.86377802398056, 0.12800000607967377, 0.11200000531971455, 0.9920000471174717, 0.0, 0.0, 0.0, 0.0, 0.0, 1.6518372581318579E9, 0.0, 2022-05-06 12:40:58.131
51.0, -208.38722553104162, -40.63775291852653, -113.39750655647367, -153.56777198053896, 0.12800000607967377, 0.11200000531971455, 0.9920000471174717, 0.0, 0.0, 0.0, 0.0, 0.0, 1.6518372581318579E9, 0.0, 2022-05-06 12:40:58.131
52.0, -233.0406460389495, -152.2550670960918, -158.43712172284722, -179.43665997404605, 0.12800000607967377, 0.11200000531971455, 0.9920000471174717, 0.0, 0.0, 0.0, 0.0, 0.0, 1.6518372581449547E9, 0.0, 2022-05-06 12:40:58.144
52.0, -291.83187334239483, -277.4332585129887, -263.6853862758726, -228.12267759721726, 0.12800000607967377, 0.11200000531971455, 0.9920000471174717, 0.0, 0.0, 0.0, 0.0, 0.0, 1.6518372581449547E9, 0.0, 2022-05-06 12:40:58.144
53.0, -292.08992643933743, -176.5681567080319, -212.0261481879279, -203.9068253841251, 0.12800000607967377, 0.11200000531971455, 0.9920000471174717, 0.0, 0.0, 0.0, 0.0, 0.0, 1.65183725816095E9, 0.0, 2022-05-06 12:40:58.160
53.0, -205.4327045660466, -31.691912224516273, -110.3120890930295, -137.0261944765225, 0.12800000607967377, 0.11200000531971455, 0.9920000471174717, 0.0, 0.0, 0.0, 0.0, 0.0, 1.65183725816095E9, 0.0, 2022-05-06 12:40:58.160
54.0, -222.39315086510032, -139.31127334944904, -161.0363521920517, -159.17014211416245, 0.12800000607967377, 0.11200000531971455, 0.9920000471174717, 0.0, 0.0, 0.0, 0.0, 0.0, 1.6518372581619058E9, 0.0, 2022-05-06 12:40:58.161
54.0, -297.1051322799176, -269.2690569097176, -235.86427050549537, -212.57217358145863, 0.12800000607967377, 0.11200000531971455, 0.9920000471174717, 0.0, 0.0, 0.0, 0.0, 0.0, 1.6518372581619058E9, 0.0, 2022-05-06 12:40:58.161
55.0, -265.44313925504684, -159.525432609953, -208.6527584278956, -206.30036135576665, 0.12800000607967377, 0.11200000531971455, 0.9920000471174717, 0.0, 0.0, 0.0, 0.0, 0.0, 1.651837258174945E9, 0.0, 2022-05-06 12:40:58.174
55.0, -219.94351639412344, -41.53158900793642, -124.75932262185961, -158.57175812125206, 0.12800000607967377, 0.11200000531971455, 0.9920000471174717, 0.0, 0.0, 0.0, 0.0, 0.0, 1.651837258174945E9, 0.0, 2022-05-06 12:40:58.174
56.0, -233.74748713057488, -145.76260077301413, -170.3000843822956, -172.05409746151417, 0.12800000607967377, 0.11200000531971455, 0.9920000471174717, 0.0, 0.0, 0.0, 0.0, 0.0, 1.6518372581909113E9, 0.0, 2022-05-06 12:40:58.190
56.0, -306.49602106865495, -277.18268521595746, -252.7125198058784, -228.00300079863518, 0.12800000607967377, 0.11200000531971455, 0.9920000471174717, 0.0, 0.0, 0.0, 0.0, 0.0, 1.6518372581909113E9, 0.0, 2022-05-06 12:40:58.190
57.0, -276.3262481261045, -167.7120736129582, -214.01203506439924, -201.38239291403443, 0.12800000607967377, 0.11200000531971455, 0.9920000471174717, 0.0, 0.0, 0.0, 0.0, 0.0, 1.651837258191865E9, 0.0, 2022-05-06 12:40:58.191
57.0, -211.63345869258046, -32.2005386184901, -115.22257773485035, -148.71338183805346, 0.12800000607967377, 0.11200000531971455, 0.9920000471174717, 0.0, 0.0, 0.0, 0.0, 0.0, 1.651837258191865E9, 0.0, 2022-05-06 12:40:58.191
58.0, -232.1094109499827, -150.1794226206839, -167.92150801047683, -184.3845476154238, 0.12800000607967377, 0.11200000531971455, 0.9920000471174717, 0.0, 0.0, 0.0, 0.0, 0.0, 1.651837258204965E9, 0.0, 2022-05-06 12:40:58.204
58.0, -307.7077486542985, -284.2473562322557, -257.0582835543901, -246.91941477451473, 0.12800000607967377, 0.11200000531971455, 0.9920000471174717, 0.0, 0.0, 0.0, 0.0, 0.0, 1.651837258204965E9, 0.0, 2022-05-06 12:40:58.204
59.0, -287.60204649250954, -175.16943412460387, -215.15644445084035, -215.2536818496883, 0.12800000607967377, 0.11200000531971455, 0.9920000471174717, 0.0, 0.0, 0.0, 0.0, 0.0, 1.6518372582209527E9, 0.0, 2022-05-06 12:40:58.220
59.0, -205.2120504686609, -38.67804534174502, -114.36614064499736, -151.22659460827708, 0.12800000607967377, 0.11200000531971455, 0.9920000471174717, 0.0, 0.0, 0.0, 0.0, 0.0, 1.6518372582209527E9, 0.0, 2022-05-06 12:40:58.220
60.0, -222.4417695645243, -152.49816059321165, -156.4774141460657, -177.4507730975747, 0.12800000607967377, 0.11200000531971455, 1.008000047877431, 0.0, 0.0, 0.0, 0.0, 0.0, 1.6518372582219036E9, 0.0, 2022-05-06 12:40:58.221
60.0, -325.5919502424076, -290.4368906589225, -267.67211962863803, -247.97780646197498, 0.12800000607967377, 0.11200000531971455, 1.008000047877431, 0.0, 0.0, 0.0, 0.0, 0.0, 1.6518372582219036E9, 0.0, 2022-05-06 12:40:58.221
61.0, -284.8494801251218, -167.21092701889575, -213.97837596479803, -208.43958413042128, 0.12800000607967377, 0.11200000531971455, 1.008000047877431, 0.0, 0.0, 0.0, 0.0, 0.0, 1.6518372582348995E9, 0.0, 2022-05-06 12:40:58.234
61.0, -207.88981883693486, -39.57188143115491, -117.62733340635896, -154.69348186720163, 0.12800000607967377, 0.11200000531971455, 1.008000047877431, 0.0, 0.0, 0.0, 0.0, 0.0, 1.6518372582348995E9, 0.0, 2022-05-06 12:40:58.234
62.0, -236.71322779543698, -152.38596359454095, -168.35159650538117, -177.62280849553645, 0.12800000607967377, 0.11200000531971455, 1.008000047877431, 0.0, 0.0, 0.0, 0.0, 0.0, 1.6518372582509053E9, 0.0, 2022-05-06 12:40:58.250
62.0, -299.75298144854605, -275.7877025324851, -251.26143862307072, -226.13305082079023, 0.12800000607967377, 0.11200000531971455, 1.008000047877431, 0.0, 0.0, 0.0, 0.0, 0.0, 1.6518372582509053E9, 0.0, 2022-05-06 12:40:58.250
63.0, -275.2715963385999, -161.8553902823478, -207.75892233848572, -203.26356259174645, 0.12800000607967377, 0.11200000531971455, 1.008000047877431, 0.0, 0.0, 0.0, 0.0, 0.0, 1.6518372582518537E9, 0.0, 2022-05-06 12:40:58.251
63.0, -202.7287568980828, -32.843801410868764, -115.97055772598833, -134.5055019063875, 0.12800000607967377, 0.11200000531971455, 1.008000047877431, 0.0, 0.0, 0.0, 0.0, 0.0, 1.6518372582518537E9, 0.0, 2022-05-06 12:40:58.251
64.0, -218.79536710772663, -143.90013059508055, -161.92270848155022, -167.0089724212885, 0.12800000607967377, 0.11200000531971455, 1.008000047877431, 0.0, 0.0, 0.0, 0.0, 0.0, 1.6518372582649815E9, 0.0, 2022-05-06 12:40:58.264
64.0, -303.01417420990765, -275.9036394311115, -248.68838745355606, -232.23282764852047, 0.12800000607967377, 0.11200000531971455, 1.008000047877431, 0.0, 0.0, 0.0, 0.0, 0.0, 1.6518372582649815E9, 0.0, 2022-05-06 12:40:58.264
65.0, -280.8103881729767, -170.49829907994717, -213.0994994752109, -212.20566338580102, 0.12800000607967377, 0.11200000531971455, 1.008000047877431, 0.0, 0.0, 0.0, 0.0, 0.0, 1.651837258280904E9, 0.0, 2022-05-06 12:40:58.280
65.0, -205.21953026857227, -24.761877606622875, -101.74771819449961, -143.2568678027019, 0.12800000607967377, 0.11200000531971455, 1.008000047877431, 0.0, 0.0, 0.0, 0.0, 0.0, 1.651837258280904E9, 0.0, 2022-05-06 12:40:58.280
66.0, -232.12811044976115, -150.87130411248654, -163.95721405744553, -174.709426430054, 0.12800000607967377, 0.11200000531971455, 1.008000047877431, 0.0, 0.0, 0.0, 0.0, 0.0, 1.6518372582818701E9, 0.0, 2022-05-06 12:40:58.281
66.0, -303.0740126091987, -276.70771792158484, -264.55678296554834, -229.39798348210752, 0.12800000607967377, 0.11200000531971455, 1.008000047877431, 0.0, 0.0, 0.0, 0.0, 0.0, 1.6518372582818701E9, 0.0, 2022-05-06 12:40:58.281
67.0, -277.82220810838044, -163.91607515793294, -203.21494389232248, -217.86413201875985, 0.12800000607967377, 0.11200000531971455, 1.008000047877431, 0.0, 0.0, 0.0, 0.0, 0.0, 1.6518372582949271E9, 0.0, 2022-05-06 12:40:58.294
67.0, -193.2032317109406, -27.7537975711748, -114.4596381438896, -142.2134357150644, 0.12800000607967377, 0.11200000531971455, 1.008000047877431, 0.0, 0.0, 0.0, 0.0, 0.0, 1.6518372582949271E9, 0.0, 2022-05-06 12:40:58.294
68.0, -229.16984958481044, -153.6650093793869, -166.2609924301505, -174.96373962704092, 0.12800000607967377, 0.11200000531971455, 1.008000047877431, 0.0, 0.0, 0.0, 0.0, 0.0, 1.651837258325987E9, 0.0, 2022-05-06 12:40:58.325
68.0, -311.91513610444963, -279.66971868649125, -252.69756020605564, -235.9241089047864, 0.12800000607967377, 0.11200000531971455, 1.008000047877431, 0.0, 0.0, 0.0, 0.0, 0.0, 1.651837258325987E9, 0.0, 2022-05-06 12:40:58.325
69.0, -272.3956132726744, -164.12176965549588, -204.27333557978272, -208.3573063313961, 0.12800000607967377, 0.11200000531971455, 1.008000047877431, 0.0, 0.0, 0.0, 0.0, 0.0, 1.6518372583268485E9, 0.0, 2022-05-06 12:40:58.326
69.0, -206.3901189547032, -39.04081563744694, -115.15899943560362, -147.90556344762444, 0.12800000607967377, 0.11200000531971455, 1.008000047877431, 0.0, 0.0, 0.0, 0.0, 0.0, 1.6518372583268485E9, 0.0, 2022-05-06 12:40:58.326
70.0, -221.480615275912, -149.1434703329578, -168.44509400427341, -179.40674077440053, 0.12800000607967377, 0.11200000531971455, 1.008000047877431, 0.0, 0.0, 0.0, 0.0, 0.0, 1.6518372583409185E9, 0.0, 2022-05-06 12:40:58.340
70.0, -301.49577482789755, -283.8397071370855, -253.2735047992319, -245.93956098612398, 0.12800000607967377, 0.11200000531971455, 1.008000047877431, 0.0, 0.0, 0.0, 0.0, 0.0, 1.6518372583409185E9, 0.0, 2022-05-06 12:40:58.340
71.0, -277.5117964120582, -157.08701783884317, -196.07173497695476, -199.92383193131536, 0.12800000607967377, 0.11200000531971455, 1.008000047877431, 0.0, 0.0, 0.0, 0.0, 0.0, 1.6518372583419602E9, 0.0, 2022-05-06 12:40:58.341
71.0, -219.7714809961617, -46.5767140481621, -125.69803751073778, -153.45183508191258, 0.12800000607967377, 0.11200000531971455, 1.008000047877431, 0.0, 0.0, 0.0, 0.0, 0.0, 1.6518372583419602E9, 0.0, 2022-05-06 12:40:58.341
72.0, -218.05112701654434, -133.97817601263523, -157.04961883928627, -170.3374833818525, 0.12800000607967377, 0.11200000531971455, 1.008000047877431, 0.0, 0.0, 0.0, 0.0, 0.0, 1.651837258342965E9, 0.0, 2022-05-06 12:40:58.342
72.0, -295.89714459422976, -270.5368829946965, -246.54542477894574, -221.75736787263304, 0.12800000607967377, 0.11200000531971455, 1.008000047877431, 0.0, 0.0, 0.0, 0.0, 0.0, 1.651837258342965E9, 0.0, 2022-05-06 12:40:58.342
73.0, -299.60338545031846, -179.7919504698366, -220.3997841887176, -204.49772957712412, 0.12800000607967377, 0.11200000531971455, 1.008000047877431, 0.0, 0.0, 0.0, 0.0, 0.0, 1.6518372583549168E9, 0.0, 2022-05-06 12:40:58.354
73.0, -210.86303930170834, -41.18377831205726, -119.77029608096927, -152.0381528986618, 0.12800000607967377, 0.11200000531971455, 1.008000047877431, 0.0, 0.0, 0.0, 0.0, 0.0, 1.6518372583549168E9, 0.0, 2022-05-06 12:40:58.354
74.0, -228.49292769283056, -140.1041321400553, -164.41722175199538, -181.35896855127066, 0.12800000607967377, 0.11200000531971455, 1.008000047877431, 0.0, 0.0, 0.0, 0.0, 0.0, 1.6518372583709636E9, 0.0, 2022-05-06 12:40:58.370
74.0, -307.8162057530135, -278.1999380039051, -258.8983143325895, -243.57594421412796, 0.12800000607967377, 0.11200000531971455, 1.008000047877431, 0.0, 0.0, 0.0, 0.0, 0.0, 1.6518372583709636E9, 0.0, 2022-05-06 12:40:58.370
75.0, -288.2527890847996, -186.10116169508547, -218.01372801698744, -211.8017541905865, 0.12800000607967377, 0.11200000531971455, 1.008000047877431, 0.0, 0.0, 0.0, 0.0, 0.0, 1.6518372583719044E9, 0.0, 2022-05-06 12:40:58.371
75.0, -215.7361289439723, -51.37874559126794, -128.3907654788345, -156.57465154491365, 0.12800000607967377, 0.11200000531971455, 1.008000047877431, 0.0, 0.0, 0.0, 0.0, 0.0, 1.6518372583719044E9, 0.0, 2022-05-06 12:40:58.371
76.0, -232.46470144577324, -145.20535567961633, -169.45860689226538, -180.16594046540558, 0.12800000607967377, 0.11200000531971455, 1.008000047877431, 0.0, 0.0, 0.0, 0.0, 0.0, 1.6518372583849564E9, 0.0, 2022-05-06 12:40:58.384
76.0, -307.737667853944, -285.81437431368977, -255.37532857432961, -237.36023048777133, 0.12800000607967377, 0.11200000531971455, 1.008000047877431, 0.0, 0.0, 0.0, 0.0, 0.0, 1.6518372583849564E9, 0.0, 2022-05-06 12:40:58.384
77.0, -274.1758056515828, -181.089695754461, -218.09600581601262, -201.15799891669303, 0.12800000607967377, 0.11200000531971455, 1.008000047877431, 0.0, 0.0, 0.0, 0.0, 0.0, 1.6518372584009757E9, 0.0, 2022-05-06 12:40:58.400
77.0, -203.944224383682, -39.03333583753556, -116.8681337153539, -146.90327025949955, 0.12800000607967377, 0.11200000531971455, 1.008000047877431, 0.0, 0.0, 0.0, 0.0, 0.0, 1.6518372584009757E9, 0.0, 2022-05-06 12:40:58.400
78.0, -220.5531200869009, -135.81820679083467, -151.75392050202936, -162.18076157849282, 0.12800000607967377, 0.11200000531971455, 1.008000047877431, 0.0, 0.0, 0.0, 0.0, 0.0, 1.651837258401914E9, 0.0, 2022-05-06 12:40:58.401
78.0, -296.82089988328516, -265.77225045114756, -252.6377218067646, -237.23681378923357, 0.12800000607967377, 0.11200000531971455, 1.008000047877431, 0.0, 0.0, 0.0, 0.0, 0.0, 1.651837258401914E9, 0.0, 2022-05-06 12:40:58.401
79.0, -273.6073408583179, -170.55065767932683, -208.40218513086438, -207.33631364349276, 0.12800000607967377, 0.11200000531971455, 1.008000047877431, 0.0, 0.0, 0.0, 0.0, 0.0, 1.6518372584149144E9, 0.0, 2022-05-06 12:40:58.414
79.0, -198.1286799525842, -41.12767981272191, -118.93629839085042, -150.2579605197534, 0.12800000607967377, 0.11200000531971455, 1.008000047877431, 0.0, 0.0, 0.0, 0.0, 0.0, 1.6518372584149144E9, 0.0, 2022-05-06 12:40:58.414
80.0, -230.067425574176, -144.00484779383987, -162.39393587596714, -179.55259687267244, 0.12800000607967377, 0.11200000531971455, 1.0240000486373901, 0.0, 0.0, 0.0, 0.0, 0.0, 1.6518372584308977E9, 0.0, 2022-05-06 12:40:58.430
80.0, -306.0995916733518, -275.71290453337133, -245.1541819954291, -219.5807460984215, 0.12800000607967377, 0.11200000531971455, 1.0240000486373901, 0.0, 0.0, 0.0, 0.0, 0.0, 1.6518372584308977E9, 0.0, 2022-05-06 12:40:58.430
81.0, -272.36943397298455, -166.25725253019482, -210.2459558090195, -202.66891849879175, 0.12800000607967377, 0.12800000607967377, 1.0240000486373901, 0.0, 0.0, 0.0, 0.0, 0.0, 1.6518372584319048E9, 0.0, 2022-05-06 12:40:58.431
81.0, -192.6497265174985, -44.104640177451074, -118.45759119652212, -155.68455535545945, 0.12800000607967377, 0.12800000607967377, 1.0240000486373901, 0.0, 0.0, 0.0, 0.0, 0.0, 1.6518372584319048E9, 0.0, 2022-05-06 12:40:58.431
82.0, -229.36058448255062, -144.37135798949748, -159.1477027144283, -177.0880028018728, 0.144000006839633, 0.12800000607967377, 1.0240000486373901, 0.0, 0.0, 0.0, 0.0, 0.0, 1.6518372584449503E9, 0.0, 2022-05-06 12:40:58.444
82.0, -307.303839459084, -271.9767444776371, -250.70419352967292, -230.68450906686485, 0.144000006839633, 0.12800000607967377, 1.0240000486373901, 0.0, 0.0, 0.0, 0.0, 0.0, 1.6518372584449503E9, 0.0, 2022-05-06 12:40:58.444
83.0, -282.1754516568035, -169.50722559168935, -205.82539406139404, -203.353320190683, 0.144000006839633, 0.12800000607967377, 1.0240000486373901, 0.0, 0.0, 0.0, 0.0, 0.0, 1.65183725846092E9, 0.0, 2022-05-06 12:40:58.460
83.0, -206.44995735399425, -34.56415539048612, -111.53129647858441, -139.09061925206333, 0.144000006839633, 0.12800000607967377, 1.0240000486373901, 0.0, 0.0, 0.0, 0.0, 0.0, 1.65183725846092E9, 0.0, 2022-05-06 12:40:58.460
84.0, -220.12303159199655, -133.23393592145294, -151.57440530415624, -158.24638682510704, 0.144000006839633, 0.12800000607967377, 1.0240000486373901, 0.0, 0.0, 0.0, 0.0, 0.0, 1.6518372584618492E9, 0.0, 2022-05-06 12:40:58.461
84.0, -298.05132696870714, -274.6133739463985, -255.62216197140515, -234.82457831781358, 0.144000006839633, 0.12800000607967377, 1.0240000486373901, 0.0, 0.0, 0.0, 0.0, 0.0, 1.6518372584618492E9, 0.0, 2022-05-06 12:40:58.461
85.0, -275.6044474346563, -166.16375503130257, -207.78884153813124, -208.23014973290265, 0.144000006839633, 0.12800000607967377, 1.0240000486373901, 0.0, 0.0, 0.0, 0.0, 0.0, 1.6518372584749644E9, 0.0, 2022-05-06 12:40:58.474
85.0, -201.9097188077867, -38.10958054848015, -111.58739497791976, -140.13031143974513, 0.144000006839633, 0.12800000607967377, 1.0240000486373901, 0.0, 0.0, 0.0, 0.0, 0.0, 1.6518372584749644E9, 0.0, 2022-05-06 12:40:58.474
86.0, -228.7734201895073, -140.48560193553567, -156.9262021407485, -162.5584914740175, 0.144000006839633, 0.12800000607967377, 1.0240000486373901, 0.0, 0.0, 0.0, 0.0, 0.0, 1.6518372584909186E9, 0.0, 2022-05-06 12:40:58.490
86.0, -298.01018806919456, -265.70119235198945, -245.84980338718742, -224.04244674555957, 0.144000006839633, 0.12800000607967377, 1.0240000486373901, 0.0, 0.0, 0.0, 0.0, 0.0, 1.6518372584909186E9, 0.0, 2022-05-06 12:40:58.490
87.0, -276.6516194222495, -172.14759496040642, -207.97583653591573, -209.6213925164193, 0.144000006839633, 0.12800000607967377, 1.0240000486373901, 0.0, 0.0, 0.0, 0.0, 0.0, 1.6518372584919107E9, 0.0, 2022-05-06 12:40:58.491
87.0, -202.7586760977283, -37.8328279517591, -107.63432072475553, -143.60093859862536, 0.144000006839633, 0.12800000607967377, 1.0240000486373901, 0.0, 0.0, 0.0, 0.0, 0.0, 1.6518372584919107E9, 0.0, 2022-05-06 12:40:58.491
88.0, -226.256467519328, -141.772127520293, -158.50443992204964, -161.60481698531657, 0.144000006839633, 0.12800000607967377, 1.0240000486373901, 0.0, 0.0, 0.0, 0.0, 0.0, 1.65183725850494E9, 0.0, 2022-05-06 12:40:58.504
88.0, -290.90063825342804, -265.5403766538948, -246.2985913818702, -231.780299753882, 0.144000006839633, 0.12800000607967377, 1.0240000486373901, 0.0, 0.0, 0.0, 0.0, 0.0, 1.65183725850494E9, 0.0, 2022-05-06 12:40:58.504
89.0, -273.1248937640339, -165.01186584495008, -210.5077488059178, -201.13929941691458, 0.144000006839633, 0.12800000607967377, 1.0240000486373901, 0.0, 0.0, 0.0, 0.0, 0.0, 1.6518372585209544E9, 0.0, 2022-05-06 12:40:58.520
89.0, -211.5848399931565, -50.496129201725125, -125.98226990737021, -157.63678313232958, 0.144000006839633, 0.12800000607967377, 1.0240000486373901, 0.0, 0.0, 0.0, 0.0, 0.0, 1.6518372585209544E9, 0.0, 2022-05-06 12:40:58.520
90.0, -225.2504344312474, -148.27581354323775, -156.32407824788243, -172.9703729506582, 0.144000006839633, 0.12800000607967377, 1.0240000486373901, 0.0, 0.0, 0.0, 0.0, 0.0, 1.6518372585219023E9, 0.0, 2022-05-06 12:40:58.521
90.0, -291.648618244566, -257.7165059465915, -228.6275640912354, -199.759276333265, 0.144000006839633, 0.12800000607967377, 1.0240000486373901, 0.0, 0.0, 0.0, 0.0, 0.0, 1.6518372585219023E9, 0.0, 2022-05-06 12:40:58.521
91.0, -262.3091030921787, -168.81160419993103, -210.20107700955123, -218.46625591162592, 0.144000006839633, 0.11200000531971455, 1.0240000486373901, 0.0, 0.0, 0.0, 0.0, 0.0, 1.6518372585349028E9, 0.0, 2022-05-06 12:40:58.534
91.0, -212.49737558234483, -40.20766442362219, -115.52550963126123, -158.42216212302446, 0.144000006839633, 0.11200000531971455, 1.0240000486373901, 0.0, 0.0, 0.0, 0.0, 0.0, 1.6518372585349028E9, 0.0, 2022-05-06 12:40:58.534
92.0, -245.01580569706857, -153.62761037983, -170.8236703760922, -189.47829135507345, 0.144000006839633, 0.11200000531971455, 1.0240000486373901, 0.0, 0.0, 0.0, 0.0, 0.0, 1.6518372585508888E9, 0.0, 2022-05-06 12:40:58.550
92.0, -310.2508806241676, -278.0316425058991, -257.6043089479208, -235.08263141475618, 0.144000006839633, 0.11200000531971455, 1.0240000486373901, 0.0, 0.0, 0.0, 0.0, 0.0, 1.6518372585508888E9, 0.0, 2022-05-06 12:40:58.550
93.0, -273.0463558649644, -168.81160419993103, -207.08948024641722, -199.3516272380948, 0.144000006839633, 0.11200000531971455, 1.0240000486373901, 0.0, 0.0, 0.0, 0.0, 0.0, 1.6518372585518272E9, 0.0, 2022-05-06 12:40:58.551
93.0, -191.13880693539977, -38.18063864763826, -112.0137435728684, -134.32972660847008, 0.144000006839633, 0.11200000531971455, 1.0240000486373901, 0.0, 0.0, 0.0, 0.0, 0.0, 1.6518372585518272E9, 0.0, 2022-05-06 12:40:58.551
94.0, -240.7448399476707, -148.30947264283895, -166.76213902421296, -183.43835292663425, 0.144000006839633, 0.11200000531971455, 1.0240000486373901, 0.0, 0.0, 0.0, 0.0, 0.0, 1.6518372585649436E9, 0.0, 2022-05-06 12:40:58.564
94.0, -306.2230083718896, -274.8639472434297, -255.05743707809597, -236.8890030933544, 0.144000006839633, 0.11200000531971455, 1.0240000486373901, 0.0, 0.0, 0.0, 0.0, 0.0, 1.6518372585649436E9, 0.0, 2022-05-06 12:40:58.564
95.0, -280.21948397997767, -169.8999150870368, -206.3527199551463, -209.12398582231253, 0.144000006839633, 0.11200000531971455, 1.0240000486373901, 0.0, 0.0, 0.0, 0.0, 0.0, 1.6518372585808957E9, 0.0, 2022-05-06 12:40:58.580
95.0, -195.88473997917026, -40.17400532402098, -112.32415526919067, -141.1774834273383, 0.144000006839633, 0.11200000531971455, 1.0240000486373901, 0.0, 0.0, 0.0, 0.0, 0.0, 1.6518372585808957E9, 0.0, 2022-05-06 12:40:58.580
96.0, -241.36566334031522, -158.25386662501842, -178.29225058760494, -186.2731970930472, 0.144000006839633, 0.11200000531971455, 1.0240000486373901, 0.0, 0.0, 0.0, 0.0, 0.0, 1.65183725858191E9, 0.0, 2022-05-06 12:40:58.581
96.0, -306.98220806289464, -279.1311730928719, -252.72747940570116, -239.50693306233734, 0.144000006839633, 0.11200000531971455, 1.0240000486373901, 0.0, 0.0, 0.0, 0.0, 0.0, 1.65183725858191E9, 0.0, 2022-05-06 12:40:58.581
97.0, -277.84838740807027, -165.65512863732874, -198.4316118489951, -194.6804921934381, 0.144000006839633, 0.11200000531971455, 1.0240000486373901, 0.0, 0.0, 0.0, 0.0, 0.0, 1.6518372585949488E9, 0.0, 2022-05-06 12:40:58.594
97.0, -214.6552978567779, -47.01802224293351, -126.66667159926146, -158.32118482422084, 0.144000006839633, 0.11200000531971455, 1.0240000486373901, 0.0, 0.0, 0.0, 0.0, 0.0, 1.6518372585949488E9, 0.0, 2022-05-06 12:40:58.594
98.0, -249.0848168488592, -165.84586353506893, -179.72089237067848, -186.87532098591328, 0.144000006839633, 0.11200000531971455, 1.0240000486373901, 0.0, 0.0, 0.0, 0.0, 0.0, 1.6518372586109507E9, 0.0, 2022-05-06 12:40:58.610
98.0, -304.7457478893921, -276.37486682552844, -254.7171061821282, -233.99432052765042, 0.144000006839633, 0.11200000531971455, 1.0240000486373901, 0.0, 0.0, 0.0, 0.0, 0.0, 1.6518372586109507E9, 0.0, 2022-05-06 12:40:58.610
99.0, -281.47983026504517, -171.51181196793914, -213.88861836586148, -213.78764106705785, 0.144000006839633, 0.11200000531971455, 1.0240000486373901, 0.0, 0.0, 0.0, 0.0, 0.0, 1.651837258611837E9, 0.0, 2022-05-06 12:40:58.611
99.0, -213.93723706528544, -53.278614768758416, -128.29352807998657, -160.50154649838805, 0.144000006839633, 0.11200000531971455, 1.0240000486373901, 0.0, 0.0, 0.0, 0.0, 0.0, 1.651837258611837E9, 0.0, 2022-05-06 12:40:58.611
100.0, -236.2644398007542, -156.09968425054103, -163.55330486223102, -170.8573294756934, 0.144000006839633, 0.11200000531971455, 1.008000047877431, 0.0, 0.0, 0.0, 0.0, 0.0, 1.6518372586258984E9, 0.0, 2022-05-06 12:40:58.625
100.0, -295.9869021931663, -270.2002919986844, -251.22403962351382, -230.41523627005517, 0.144000006839633, 0.11200000531971455, 1.008000047877431, 0.0, 0.0, 0.0, 0.0, 0.0, 1.6518372586258984E9, 0.0, 2022-05-06 12:40:58.625
0.0, -295.0537971542217, -173.26021519722417, -219.44797964999452, -219.33391270134598, 0.144000006839633, 0.11200000531971455, 1.008000047877431, 0.0, 0.0, 0.0, 0.0, 0.0, 1.6518372586268544E9, 0.0, 2022-05-06 12:40:58.626
1.0, -217.92958026798442, -44.52911882242188, -118.52303944574669, -154.73088086675853, 0.144000006839633, 0.12800000607967377, 1.008000047877431, 0.0, 0.0, 0.0, 0.0, 0.0, 1.651837258639934E9, 0.0, 2022-05-06 12:40:58.639
1.0, -257.6660172971897, -171.74929561512545, -182.15369729185477, -190.4955441430211, 0.144000006839633, 0.12800000607967377, 1.008000047877431, 0.0, 0.0, 0.0, 0.0, 0.0, 1.651837258639934E9, 0.0, 2022-05-06 12:40:58.639
2.0, -313.59996103448793, -279.0058864443563, -254.9209307297133, -226.0283336220309, 0.144000006839633, 0.12800000607967377, 1.008000047877431, 0.0, 0.0, 0.0, 0.0, 0.0, 1.6518372586559613E9, 0.0, 2022-05-06 12:40:58.655
2.0, -274.46564789814875, -159.84519405616447, -200.61758337309584, -196.56914167106152, 0.144000006839633, 0.12800000607967377, 1.008000047877431, 0.0, 0.0, 0.0, 0.0, 0.0, 1.6518372586559613E9, 0.0, 2022-05-06 12:40:58.655
3.0, -198.25396660109982, -41.832650954369456, -119.50289323413745, -143.7318350970745, 0.144000006839633, 0.12800000607967377, 1.008000047877431, 0.0, 0.0, 0.0, 0.0, 0.0, 1.651837258656874E9, 0.0, 2022-05-06 12:40:58.656
3.0, -249.60279299272224, -157.48531718412414, -174.5841397815384, -181.35896855127066, 0.144000006839633, 0.12800000607967377, 1.008000047877431, 0.0, 0.0, 0.0, 0.0, 0.0, 1.651837258656874E9, 0.0, 2022-05-06 12:40:58.656
4.0, -305.67137312842533, -270.1124043497257, -253.31651364872232, -233.00698693934828, 0.144000006839633, 0.12800000607967377, 1.008000047877431, 0.0, 0.0, 0.0, 0.0, 0.0, 1.651837258669896E9, 0.0, 2022-05-06 12:40:58.669
4.0, -274.7087413952686, -153.11337413592264, -196.12596352631226, -201.03458221815526, 0.144000006839633, 0.12800000607967377, 1.008000047877431, 0.0, 0.0, 0.0, 0.0, 0.0, 1.651837258669896E9, 0.0, 2022-05-06 12:40:58.669
5.0, -220.74572493461892, -50.86076944740489, -122.58831069758162, -156.4026161469519, 0.144000006839633, 0.12800000607967377, 1.008000047877431, 0.0, 0.0, 0.0, 0.0, 0.0, 1.6518372586859715E9, 0.0, 2022-05-06 12:40:58.685
5.0, -244.74840285023674, -163.89176580822095, -169.23608284490183, -179.3394225751981, 0.144000006839633, 0.12800000607967377, 1.008000047877431, 0.0, 0.0, 0.0, 0.0, 0.0, 1.6518372586859715E9, 0.0, 2022-05-06 12:40:58.685
6.0, -293.25116537557915, -262.34089224180207, -245.75443593831733, -208.29746793210506, 0.144000006839633, 0.12800000607967377, 1.008000047877431, 0.0, 0.0, 0.0, 0.0, 0.0, 1.6518372586868932E9, 0.0, 2022-05-06 12:40:58.686
6.0, -270.0787452501245, -159.2430701632984, -209.43626746861264, -204.3556133788079, 0.144000006839633, 0.12800000607967377, 1.008000047877431, 0.0, 0.0, 0.0, 0.0, 0.0, 1.6518372586868932E9, 0.0, 2022-05-06 12:40:58.686
7.0, -222.73909161100164, -51.1898806435056, -125.34835686488077, -165.72992663644254, 0.144000006839633, 0.12800000607967377, 1.008000047877431, 0.0, 0.0, 0.0, 0.0, 0.0, 1.6518372586999087E9, 0.0, 2022-05-06 12:40:58.699
7.0, -238.19983802782372, -156.18009209958836, -160.8362675444223, -173.17232754826546, 0.144000006839633, 0.12800000607967377, 1.008000047877431, 0.0, 0.0, 0.0, 0.0, 0.0, 1.6518372586999087E9, 0.0, 2022-05-06 12:40:58.699
8.0, -313.9365520305, -280.58038432570174, -265.6245244028978, -233.9232624284923, 0.144000006839633, 0.12800000607967377, 1.008000047877431, 0.0, 0.0, 0.0, 0.0, 0.0, 1.6518372587159429E9, 0.0, 2022-05-06 12:40:58.715
8.0, -276.21218117745593, -163.28964191535488, -210.50961875589564, -210.64238520432264, 0.144000006839633, 0.12800000607967377, 1.008000047877431, 0.0, 0.0, 0.0, 0.0, 0.0, 1.6518372587159429E9, 0.0, 2022-05-06 12:40:58.715
9.0, -222.53713701339439, -50.1913273553364, -120.25087322527543, -156.38391664717346, 0.144000006839633, 0.12800000607967377, 1.008000047877431, 0.0, 0.0, 0.0, 0.0, 0.0, 1.65183725871686E9, 0.0, 2022-05-06 12:40:58.716
9.0, -221.6470408239402, -148.8648477862589, -147.10709480708465, -153.70988817885518, 0.144000006839633, 0.12800000607967377, 1.008000047877431, 0.0, 0.0, 0.0, 0.0, 0.0, 1.65183725871686E9, 0.0, 2022-05-06 12:40:58.716
10.0, -306.33707532053813, -274.43198879854754, -259.8463789713569, -237.01241979189217, 0.144000006839633, 0.12800000607967377, 1.0240000486373901, 0.0, 0.0, 0.0, 0.0, 0.0, 1.6518372587298875E9, 0.0, 2022-05-06 12:40:58.729
10.0, -287.0017925496213, -160.37999974982813, -199.2226006896235, -209.3932586191222, 0.144000006839633, 0.12800000607967377, 1.0240000486373901, 0.0, 0.0, 0.0, 0.0, 0.0, 1.6518372587298875E9, 0.0, 2022-05-06 12:40:58.729
11.0, -215.6407614951022, -45.890442406293005, -114.85419758921489, -157.50588663388044, 0.144000006839633, 0.12800000607967377, 1.0240000486373901, 0.0, 0.0, 0.0, 0.0, 0.0, 1.651837258745966E9, 0.0, 2022-05-06 12:40:58.745
11.0, -240.80654829693958, -163.70851071039215, -177.04873385233805, -183.42713322676718, 0.144000006839633, 0.12800000607967377, 1.0240000486373901, 0.0, 0.0, 0.0, 0.0, 0.0, 1.651837258745966E9, 0.0, 2022-05-06 12:40:58.745
12.0, -302.4251399668865, -265.9199764993973, -243.56285456428304, -222.91299695894122, 0.144000006839633, 0.12800000607967377, 1.0240000486373901, 0.0, 0.0, 0.0, 0.0, 0.0, 1.6518372587468984E9, 0.0, 2022-05-06 12:40:58.746
12.0, -274.9368752925657, -149.9381990735419, -192.95078846393153, -191.48661763127893, 0.144000006839633, 0.12800000607967377, 1.0240000486373901, 0.0, 0.0, 0.0, 0.0, 0.0, 1.6518372587468984E9, 0.0, 2022-05-06 12:40:58.746
13.0, -215.46498619718477, -45.2621392137371, -110.63185053924099, -146.3647246658802, 0.144000006839633, 0.12800000607967377, 1.0240000486373901, 0.0, 0.0, 0.0, 0.0, 0.0, 1.6518372587598965E9, 0.0, 2022-05-06 12:40:58.759
13.0, -239.2844090149738, -163.4616773133166, -170.42163113085553, -175.6406615190208, 0.144000006839633, 0.12800000607967377, 1.0240000486373901, 0.0, 0.0, 0.0, 0.0, 0.0, 1.6518372587598965E9, 0.0, 2022-05-06 12:40:58.759
14.0, -291.51211189618334, -258.8515655831434, -241.73778338590637, -205.58978036418557, 0.144000006839633, 0.12800000607967377, 1.0240000486373901, 0.0, 0.0, 0.0, 0.0, 0.0, 1.6518372587759776E9, 0.0, 2022-05-06 12:40:58.775
14.0, -266.5221003922634, -146.1571602183394, -189.86537100048736, -195.8697803793475, 0.144000006839633, 0.12800000607967377, 1.0240000486373901, 0.0, 0.0, 0.0, 0.0, 0.0, 1.6518372587759776E9, 0.0, 2022-05-06 12:40:58.775
15.0, -219.81822974560782, -43.17153513850644, -121.64211600879207, -155.34422445949167, 0.144000006839633, 0.12800000607967377, 1.0240000486373901, 0.0, 0.0, 0.0, 0.0, 0.0, 1.6518372587768474E9, 0.0, 2022-05-06 12:40:58.776
15.0, -250.97907617641613, -170.5113887297921, -179.61056532198563, -188.12070767115802, 0.144000006839633, 0.12800000607967377, 1.0240000486373901, 0.0, 0.0, 0.0, 0.0, 0.0, 1.6518372587768474E9, 0.0, 2022-05-06 12:40:58.776
16.0, -302.91880676103756, -268.8221388650127, -247.6580450157635, -229.35684458259493, 0.144000006839633, 0.12800000607967377, 1.0240000486373901, 0.0, 0.0, 0.0, 0.0, 0.0, 1.6518372587899055E9, 0.0, 2022-05-06 12:40:58.789
16.0, -268.20131547236815, -151.40423985617235, -196.87020361749455, -186.06376269552857, 0.144000006839633, 0.12800000607967377, 1.0240000486373901, 0.0, 0.0, 0.0, 0.0, 0.0, 1.6518372587899055E9, 0.0, 2022-05-06 12:40:58.789
17.0, -218.29235056368634, -47.98852628143504, -129.27525181835517, -157.09075773879886, 0.144000006839633, 0.12800000607967377, 1.0240000486373901, 0.0, 0.0, 0.0, 0.0, 0.0, 1.6518372588059144E9, 0.0, 2022-05-06 12:40:58.805
17.0, -263.3282258301042, -178.63071153359488, -188.8892571120523, -205.81417436152697, 0.144000006839633, 0.12800000607967377, 1.0240000486373901, 0.0, 0.0, 0.0, 0.0, 0.0, 1.6518372588059144E9, 0.0, 2022-05-06 12:40:58.805
18.0, -318.4767905767076, -277.4014693633653, -255.98306231712922, -244.05839130841196, 0.144000006839633, 0.12800000607967377, 1.0240000486373901, 0.0, 0.0, 0.0, 0.0, 0.0, 1.6518372588068638E9, 0.0, 2022-05-06 12:40:58.806
18.0, -273.8448245055042, -147.33522870438173, -187.0342667340301, -188.81632906291634, 0.144000006839633, 0.12800000607967377, 1.0240000486373901, 0.0, 0.0, 0.0, 0.0, 0.0, 1.6518372588068638E9, 0.0, 2022-05-06 12:40:58.806
19.0, -214.02886461419985, -43.14535583881661, -120.77071931911632, -147.00424755830318, 0.144000006839633, 0.12800000607967377, 1.0240000486373901, 0.0, 0.0, 0.0, 0.0, 0.0, 1.6518372588359518E9, 0.0, 2022-05-06 12:40:58.835
19.0, -243.64513236330822, -168.34224675549194, -177.64337794529274, -191.9391455259174, 0.144000006839633, 0.12800000607967377, 1.0240000486373901, 0.0, 0.0, 0.0, 0.0, 0.0, 1.6518372588359518E9, 0.0, 2022-05-06 12:40:58.835
20.0, -307.70961860427633, -272.2291877246462, -255.41833742382005, -233.76992653030902, 0.144000006839633, 0.12800000607967377, 1.0240000486373901, 0.0, 0.0, 0.0, 0.0, 0.0, 1.6518372588368638E9, 0.0, 2022-05-06 12:40:58.836
20.0, -271.12217733776197, -145.70837222365662, -196.67946871975437, -193.5398227069527, 0.144000006839633, 0.12800000607967377, 1.0240000486373901, 0.0, 0.0, 0.0, 0.0, 0.0, 1.6518372588368638E9, 0.0, 2022-05-06 12:40:58.836
21.0, -213.14998812461272, -42.606810245197266, -113.72474780259654, -150.74414751399308, 0.144000006839633, 0.12800000607967377, 1.0240000486373901, 0.0, 0.0, 0.0, 0.0, 0.0, 1.6518372588378727E9, 0.0, 2022-05-06 12:40:58.837
21.0, -250.3582527837716, -175.2461020736955, -176.85799895459786, -189.95325864944607, 0.144000006839633, 0.12800000607967377, 1.0240000486373901, 0.0, 0.0, 0.0, 0.0, 0.0, 1.6518372588378727E9, 0.0, 2022-05-06 12:40:58.837
22.0, -313.81687523191795, -276.114943778608, -258.0026082932018, -234.6675025196746, 0.144000006839633, 0.12800000607967377, 1.0240000486373901, 0.0, 0.0, 0.0, 0.0, 0.0, 1.65183725884995E9, 0.0, 2022-05-06 12:40:58.849
22.0, -275.1837086896412, -153.10215443605557, -186.2563675432466, -194.01105010136962, 0.144000006839633, 0.12800000607967377, 1.0240000486373901, 0.0, 0.0, 0.0, 0.0, 0.0, 1.65183725884995E9, 0.0, 2022-05-06 12:40:58.849
23.0, -200.98783346870914, -40.57230466930196, -111.23397443210706, -138.93728335388005, 0.144000006839633, 0.12800000607967377, 1.0240000486373901, 0.0, 0.0, 0.0, 0.0, 0.0, 1.651837258865935E9, 0.0, 2022-05-06 12:40:58.865
23.0, -237.45933783659711, -166.3900189786218, -171.59595971694216, -177.52183119673282, 0.144000006839633, 0.12800000607967377, 1.0240000486373901, 0.0, 0.0, 0.0, 0.0, 0.0, 1.651837258865935E9, 0.0, 2022-05-06 12:40:58.865
24.0, -315.4362519127317, -270.2545205480419, -255.8072870192118, -222.75966106075794, 0.144000006839633, 0.12800000607967377, 1.0240000486373901, 0.0, 0.0, 0.0, 0.0, 0.0, 1.6518372588668768E9, 0.0, 2022-05-06 12:40:58.866
24.0, -268.1414770730771, -136.80367042915896, -186.45458224089816, -184.2386915171519, 0.144000006839633, 0.12800000607967377, 1.0240000486373901, 0.0, 0.0, 0.0, 0.0, 0.0, 1.6518372588668768E9, 0.0, 2022-05-06 12:40:58.866
25.0, -206.17133480729535, -38.10397069854662, -106.59649848705158, -144.85380508378148, 0.144000006839633, 0.12800000607967377, 1.0240000486373901, 0.0, 0.0, 0.0, 0.0, 0.0, 1.6518372588799438E9, 0.0, 2022-05-06 12:40:58.879
25.0, -235.37621356127784, -168.23004975682124, -172.64313170453534, -179.4590993737802, 0.144000006839633, 0.12800000607967377, 1.0240000486373901, 0.0, 0.0, 0.0, 0.0, 0.0, 1.6518372588799438E9, 0.0, 2022-05-06 12:40:58.879
26.0, -320.44771785335615, -273.6353901079856, -255.55297382222489, -241.17118854261935, 0.144000006839633, 0.12800000607967377, 1.0240000486373901, 0.0, 0.0, 0.0, 0.0, 0.0, 1.651837258895962E9, 0.0, 2022-05-06 12:40:58.895
26.0, -268.4032700699754, -145.09876853087917, -186.97816823469475, -197.6163136586547, 0.144000006839633, 0.12800000607967377, 1.0240000486373901, 0.0, 0.0, 0.0, 0.0, 0.0, 1.651837258895962E9, 0.0, 2022-05-06 12:40:58.895
27.0, -211.17158104805276, -44.51415922259912, -115.02623298717663, -146.2899266667664, 0.144000006839633, 0.12800000607967377, 1.0240000486373901, 0.0, 0.0, 0.0, 0.0, 0.0, 1.6518372588968327E9, 0.0, 2022-05-06 12:40:58.896
27.0, -243.86204656073824, -171.45384351862594, -178.6194918337278, -184.95301240868866, 0.144000006839633, 0.12800000607967377, 1.0240000486373901, 0.0, 0.0, 0.0, 0.0, 0.0, 1.6518372588968327E9, 0.0, 2022-05-06 12:40:58.896
28.0, -318.6974446740933, -281.10397031949833, -263.7732739248313, -239.2301804656163, 0.144000006839633, 0.12800000607967377, 1.0240000486373901, 0.0, 0.0, 0.0, 0.0, 0.0, 1.6518372589099455E9, 0.0, 2022-05-06 12:40:58.909
28.0, -278.6618156484328, -147.1257943068631, -191.35011128289625, -202.32484770286828, 0.144000006839633, 0.12800000607967377, 1.0240000486373901, 0.0, 0.0, 0.0, 0.0, 0.0, 1.6518372589099455E9, 0.0, 2022-05-06 12:40:58.909
29.0, -197.65184270823374, -37.10167751042172, -97.74789519188926, -117.38423990923911, 0.144000006839633, 0.12800000607967377, 1.0240000486373901, 0.0, 0.0, 0.0, 0.0, 0.0, 1.6518372589259508E9, 0.0, 2022-05-06 12:40:58.925
29.0, -235.67914545768872, -166.7602690742351, -169.92048453679308, -170.88350877538323, 0.144000006839633, 0.12800000607967377, 1.0240000486373901, 0.0, 0.0, 0.0, 0.0, 0.0, 1.6518372589259508E9, 0.0, 2022-05-06 12:40:58.925
30.0, -317.26506299106404, -271.2568137361668, -259.64068447379395, -247.18120777141303, 0.144000006839633, 0.12800000607967377, 1.0240000486373901, 0.0, 0.0, 0.0, 0.0, 0.0, 1.6518372589268928E9, 0.0, 2022-05-06 12:40:58.926
30.0, -271.2493339362554, -144.7584376349114, -194.2560135484673, -203.54779498837888, 0.144000006839633, 0.12800000607967377, 1.0240000486373901, 0.0, 0.0, 0.0, 0.0, 0.0, 1.6518372589268928E9, 0.0, 2022-05-06 12:40:58.926
31.0, -206.706140500959, -38.31714499602094, -115.3703037831001, -138.82134645525366, 0.144000006839633, 0.12800000607967377, 1.0240000486373901, 0.0, 0.0, 0.0, 0.0, 0.0, 1.6518372589399605E9, 0.0, 2022-05-06 12:40:58.939
31.0, -246.6931508271955, -179.46470922371373, -175.43309707148, -187.58216207753867, 0.144000006839633, 0.12800000607967377, 1.0240000486373901, 0.0, 0.0, 0.0, 0.0, 0.0, 1.6518372589399605E9, 0.0, 2022-05-06 12:40:58.939
32.0, -299.5416771010496, -265.0635394095443, -240.2455633035861, -218.56723321042955, 0.144000006839633, 0.12800000607967377, 1.0240000486373901, 0.0, 0.0, 0.0, 0.0, 0.0, 1.6518372589559205E9, 0.0, 2022-05-06 12:40:58.955
32.0, -273.98694070382044, -149.36973428027704, -196.8552440176718, -215.55661374609917, 0.144000006839633, 0.12800000607967377, 1.0240000486373901, 0.0, 0.0, 0.0, 0.0, 0.0, 1.6518372589559205E9, 0.0, 2022-05-06 12:40:58.955
33.0, -211.39597504539415, -49.79489796003327, -129.92599441064522, -152.30368579551578, 0.144000006839633, 0.12800000607967377, 1.0240000486373901, 0.0, 0.0, 0.0, 0.0, 0.0, 1.6518372589569016E9, 0.0, 2022-05-06 12:40:58.956
33.0, -249.9543435885571, -184.21064226748422, -188.37689081812277, -191.6511732293293, 0.144000006839633, 0.12800000607967377, 1.0240000486373901, 0.0, 0.0, 0.0, 0.0, 0.0, 1.6518372589569016E9, 0.0, 2022-05-06 12:40:58.956
34.0, -303.8350822501816, -271.1184374378063, -258.2157825906761, -233.7437472306192, 0.144000006839633, 0.12800000607967377, 1.0240000486373901, 0.0, 0.0, 0.0, 0.0, 0.0, 1.6518372589699156E9, 0.0, 2022-05-06 12:40:58.969
34.0, -274.28239280031994, -144.13387434231117, -192.329965071287, -201.33377421461046, 0.144000006839633, 0.12800000607967377, 1.0240000486373901, 0.0, 0.0, 0.0, 0.0, 0.0, 1.6518372589699156E9, 0.0, 2022-05-06 12:40:58.969
35.0, -209.28667147038504, -46.40654860017821, -117.76383975474164, -149.35664463043213, 0.144000006839633, 0.12800000607967377, 1.0240000486373901, 0.0, 0.0, 0.0, 0.0, 0.0, 1.6518372589859536E9, 0.0, 2022-05-06 12:40:58.985
35.0, -250.7322427793406, -181.05416670488194, -185.74400124931708, -184.13771421834826, 0.144000006839633, 0.12800000607967377, 1.0240000486373901, 0.0, 0.0, 0.0, 0.0, 0.0, 1.6518372589859536E9, 0.0, 2022-05-06 12:40:58.985
36.0, -307.73579790396616, -270.2545205480419, -260.97582875797525, -231.79151945374906, 0.144000006839633, 0.12800000607967377, 1.0240000486373901, 0.0, 0.0, 0.0, 0.0, 0.0, 1.6518372589868505E9, 0.0, 2022-05-06 12:40:58.986
36.0, -271.7317810305394, -134.716806253884, -185.82627904834226, -180.04252376686782, 0.144000006839633, 0.12800000607967377, 1.0240000486373901, 0.0, 0.0, 0.0, 0.0, 0.0, 1.6518372589868505E9, 0.0, 2022-05-06 12:40:58.986
37.0, -209.58212356688455, -52.300630930345505, -127.34546344121918, -161.32432448863983, 0.144000006839633, 0.12800000607967377, 1.0240000486373901, 0.0, 0.0, 0.0, 0.0, 0.0, 1.651837258999968E9, 0.0, 2022-05-06 12:40:58.999
37.0, -250.77712157880887, -182.20979579119012, -190.20196199649945, -204.3593532787636, 0.144000006839633, 0.12800000607967377, 1.0240000486373901, 0.0, 0.0, 0.0, 0.0, 0.0, 1.651837258999968E9, 0.0, 2022-05-06 12:40:58.999
38.0, -314.30306222615764, -278.901169245597, -261.6564905499108, -242.27819892950356, 0.144000006839633, 0.12800000607967377, 1.0240000486373901, 0.0, 0.0, 0.0, 0.0, 0.0, 1.6518372590158985E9, 0.0, 2022-05-06 12:40:59.015
38.0, -270.9725813395344, -137.14774122508243, -180.36976501299068, -183.59916862472892, 0.144000006839633, 0.12800000607967377, 1.0240000486373901, 0.0, 0.0, 0.0, 0.0, 0.0, 1.6518372590158985E9, 0.0, 2022-05-06 12:40:59.015
39.0, -195.5948977326043, -35.28782603191212, -103.23432842688635, -116.33332802169025, 0.144000006839633, 0.12800000607967377, 1.0240000486373901, 0.0, 0.0, 0.0, 0.0, 0.0, 1.65183725901685E9, 0.0, 2022-05-06 12:40:59.016
39.0, -245.5038626412861, -182.1462174919434, -187.87574422406033, -188.80884926300496, 0.144000006839633, 0.12800000607967377, 1.0240000486373901, 0.0, 0.0, 0.0, 0.0, 0.0, 1.65183725901685E9, 0.0, 2022-05-06 12:40:59.016
40.0, -300.5589298889972, -267.804886077065, -266.38746399385855, -252.95561330299824, 0.144000006839633, 0.12800000607967377, 1.0240000486373901, 0.0, 0.0, 0.0, 0.0, 0.0, 1.65183725902996E9, 0.0, 2022-05-06 12:40:59.029
40.0, -258.49627508735284, -134.06980356154963, -180.4034241125919, -187.28670998103917, 0.144000006839633, 0.12800000607967377, 1.0240000486373901, 0.0, 0.0, 0.0, 0.0, 0.0, 1.65183725902996E9, 0.0, 2022-05-06 12:40:59.029
41.0, -197.94355490477756, -42.37867634790018, -112.72619451442733, -145.98325487039983, 0.144000006839633, 0.12800000607967377, 1.0240000486373901, 0.0, 0.0, 0.0, 0.0, 0.0, 1.6518372590459185E9, 0.0, 2022-05-06 12:40:59.045
41.0, -239.11237361701205, -181.92930329451337, -188.82193891284987, -190.19261224661022, 0.144000006839633, 0.12800000607967377, 1.0240000486373901, 0.0, 0.0, 0.0, 0.0, 0.0, 1.6518372590459185E9, 0.0, 2022-05-06 12:40:59.045
42.0, -321.1321195452474, -267.2102419841103, -254.56564023392275, -233.64276993181556, 0.144000006839633, 0.12800000607967377, 1.0240000486373901, 0.0, 0.0, 0.0, 0.0, 0.0, 1.6518372590468311E9, 0.0, 2022-05-06 12:40:59.046
42.0, -269.5439395564608, -136.88968812813982, -185.98709474643692, -188.61811436526477, 0.144000006839633, 0.12800000607967377, 1.0240000486373901, 0.0, 0.0, 0.0, 0.0, 0.0, 1.6518372590468311E9, 0.0, 2022-05-06 12:40:59.046
43.0, -206.54158490290865, -47.71177368471399, -114.8130586897023, -145.34373197797686, 0.144000006839633, 0.12800000607967377, 1.0240000486373901, 0.0, 0.0, 0.0, 0.0, 0.0, 1.651837259059951E9, 0.0, 2022-05-06 12:40:59.059
43.0, -245.33182724332437, -182.1013386924751, -187.8533048243262, -180.99619825556874, 0.144000006839633, 0.12800000607967377, 1.0240000486373901, 0.0, 0.0, 0.0, 0.0, 0.0, 1.651837259059951E9, 0.0, 2022-05-06 12:40:59.059
44.0, -299.14898760570213, -267.1466636848636, -244.99897614726797, -218.91130400635302, 0.144000006839633, 0.12800000607967377, 1.0240000486373901, 0.0, 0.0, 0.0, 0.0, 0.0, 1.6518372590759184E9, 0.0, 2022-05-06 12:40:59.075
44.0, -267.53561328025535, -130.6777143017389, -190.0710654980503, -190.56660224217921, 0.144000006839633, 0.12800000607967377, 1.0240000486373901, 0.0, 0.0, 0.0, 0.0, 0.0, 1.6518372590759184E9, 0.0, 2022-05-06 12:40:59.075
45.0, -199.97806048067287, -41.20060786185786, -107.4379759770818, -152.42336259409785, 0.144000006839633, 0.12800000607967377, 1.0240000486373901, 0.0, 0.0, 0.0, 0.0, 0.0, 1.6518372590768316E9, 0.0, 2022-05-06 12:40:59.076
45.0, -243.62643286352977, -177.6919966447167, -180.9606692059897, -194.77772959228605, 0.144000006839633, 0.12800000607967377, 1.0240000486373901, 0.0, 0.0, 0.0, 0.0, 0.0, 1.6518372590768316E9, 0.0, 2022-05-06 12:40:59.076
46.0, -308.67077289288864, -273.64286990789697, -254.068233539816, -235.6286568082869, 0.144000006839633, 0.12800000607967377, 1.0240000486373901, 0.0, 0.0, 0.0, 0.0, 0.0, 1.6518372590899892E9, 0.0, 2022-05-06 12:40:59.089
46.0, -276.45901457453147, -142.57807596074417, -189.0725122098811, -197.21614436339587, 0.144000006839633, 0.12800000607967377, 1.0240000486373901, 0.0, 0.0, 0.0, 0.0, 0.0, 1.6518372590899892E9, 0.0, 2022-05-06 12:40:59.089
47.0, -204.7464329241775, -46.97501339344308, -111.09559813374653, -146.78733336087316, 0.144000006839633, 0.12800000607967377, 1.0240000486373901, 0.0, 0.0, 0.0, 0.0, 0.0, 1.6518372591060913E9, 0.0, 2022-05-06 12:40:59.106
47.0, -240.1296264049597, -180.85221210727468, -189.52504010451958, -183.75998432282358, 0.144000006839633, 0.12800000607967377, 1.0240000486373901, 0.0, 0.0, 0.0, 0.0, 0.0, 1.6518372591060913E9, 0.0, 2022-05-06 12:40:59.106
48.0, -309.33647508500144, -271.2979526356794, -255.33979952475056, -236.12606350239366, 0.144000006839633, 0.12800000607967377, 1.0240000486373901, 0.0, 0.0, 0.0, 0.0, 0.0, 1.6518372591068525E9, 0.0, 2022-05-06 12:40:59.106
48.0, -248.66407810384408, -122.66310869669542, -163.38687931420282, -167.5587377147749, 0.144000006839633, 0.12800000607967377, 1.0240000486373901, 0.0, 0.0, 0.0, 0.0, 0.0, 1.6518372591068525E9, 0.0, 2022-05-06 12:40:59.106
49.0, -205.01196582103148, -46.305571301374584, -108.42530956538394, -145.69154267385602, 0.144000006839633, 0.12800000607967377, 1.0240000486373901, 0.0, 0.0, 0.0, 0.0, 0.0, 1.6518372591199386E9, 0.0, 2022-05-06 12:40:59.119
49.0, -250.0291415876709, -185.81879924843088, -191.35759108280763, -194.63561339396983, 0.144000006839633, 0.12800000607967377, 1.0240000486373901, 0.0, 0.0, 0.0, 0.0, 0.0, 1.6518372591199386E9, 0.0, 2022-05-06 12:40:59.119
50.0, -306.26227732142434, -270.63973024347797, -263.2609076309018, -247.51405886746943, 0.144000006839633, 0.12800000607967377, 1.0240000486373901, 0.0, 0.0, 0.0, 0.0, 0.0, 1.6518372591359994E9, 0.0, 2022-05-06 12:40:59.135
50.0, -259.0385605809279, -125.95048075774685, -175.11894547520205, -189.6839858526364, 0.144000006839633, 0.12800000607967377, 1.0240000486373901, 0.0, 0.0, 0.0, 0.0, 0.0, 1.6518372591359994E9, 0.0, 2022-05-06 12:40:59.135
51.0, -206.85199659923092, -50.46060015214607, -117.25147346081212, -152.91702938824892, 0.144000006839633, 0.11200000531971455, 1.0240000486373901, 0.0, 0.0, 0.0, 0.0, 0.0, 1.6518372591368363E9, 0.0, 2022-05-06 12:40:59.136
51.0, -249.90946478908882, -189.23332790797576, -188.32079231878743, -178.65502088330686, 0.144000006839633, 0.11200000531971455, 1.0240000486373901, 0.0, 0.0, 0.0, 0.0, 0.0, 1.6518372591368363E9, 0.0, 2022-05-06 12:40:59.136
52.0, -303.25165785709396, -256.56648671021685, -241.82380108488724, -216.68606353271753, 0.144000006839633, 0.11200000531971455, 1.0240000486373901, 0.0, 0.0, 0.0, 0.0, 0.0, 1.6518372591500728E9, 0.0, 2022-05-06 12:40:59.150
52.0, -263.1487106322311, -129.7053403132595, -180.97562880581245, -202.0256557064131, 0.144000006839633, 0.11200000531971455, 1.0240000486373901, 0.0, 0.0, 0.0, 0.0, 0.0, 1.6518372591500728E9, 0.0, 2022-05-06 12:40:59.150
53.0, -198.0033933040686, -38.00673329969868, -99.30369357345626, -123.88418603222817, 0.144000006839633, 0.11200000531971455, 1.0240000486373901, 0.0, 0.0, 0.0, 0.0, 0.0, 1.6518372591658995E9, 0.0, 2022-05-06 12:40:59.165
53.0, -218.92439365619794, -167.73638296267018, -173.73892239155248, -160.5576449977234, 0.144000006839633, 0.11200000531971455, 1.0240000486373901, 0.0, 0.0, 0.0, 0.0, 0.0, 1.6518372591658995E9, 0.0, 2022-05-06 12:40:59.165
54.0, -313.6560595338233, -264.68580951401964, -255.67265062080696, -251.13802192453295, 0.144000006839633, 0.11200000531971455, 1.0240000486373901, 0.0, 0.0, 0.0, 0.0, 0.0, 1.6518372591668513E9, 0.0, 2022-05-06 12:40:59.166
54.0, -264.93638281105086, -136.0444707381539, -185.18675615591928, -202.6913578985259, 0.144000006839633, 0.11200000531971455, 1.0240000486373901, 0.0, 0.0, 0.0, 0.0, 0.0, 1.6518372591668513E9, 0.0, 2022-05-06 12:40:59.166
55.0, -212.57030363148078, -52.281931430567056, -116.43991517042741, -145.9907346703112, 0.144000006839633, 0.11200000531971455, 1.0240000486373901, 0.0, 0.0, 0.0, 0.0, 0.0, 1.6518372591799188E9, 0.0, 2022-05-06 12:40:59.179
55.0, -257.75203499617055, -195.4453017343767, -190.86392428865656, -192.5375295188278, 0.144000006839633, 0.11200000531971455, 1.0240000486373901, 0.0, 0.0, 0.0, 0.0, 0.0, 1.6518372591799188E9, 0.0, 2022-05-06 12:40:59.179
56.0, -299.22004570486024, -257.3331662011333, -247.07836052263156, -224.85400503594428, 0.144000006839633, 0.11200000531971455, 1.0240000486373901, 0.0, 0.0, 0.0, 0.0, 0.0, 1.6518372591959066E9, 0.0, 2022-05-06 12:40:59.195
56.0, -262.6176448385231, -121.1110502150841, -178.33899933705106, -181.69181964732707, 0.144000006839633, 0.11200000531971455, 1.0240000486373901, 0.0, 0.0, 0.0, 0.0, 0.0, 1.6518372591959066E9, 0.0, 2022-05-06 12:40:59.195
57.0, -195.3705037352629, -42.629249644931406, -111.00584053480998, -133.92581741325557, 0.144000006839633, 0.11200000531971455, 1.0240000486373901, 0.0, 0.0, 0.0, 0.0, 0.0, 1.651837259196856E9, 0.0, 2022-05-06 12:40:59.196
57.0, -254.25896843755618, -193.7062482549809, -192.5169600690715, -192.43655222002417, 0.144000006839633, 0.11200000531971455, 1.0240000486373901, 0.0, 0.0, 0.0, 0.0, 0.0, 1.651837259196856E9, 0.0, 2022-05-06 12:40:59.196
58.0, -299.18264670530334, -258.7244089846499, -249.4756363942288, -232.34876454714686, 0.144000006839633, 0.11200000531971455, 1.0240000486373901, 0.0, 0.0, 0.0, 0.0, 0.0, 1.6518372592099097E9, 0.0, 2022-05-06 12:40:59.209
58.0, -248.0582143110223, -118.08547115093097, -178.88876463053748, -171.57539026718587, 0.144000006839633, 0.11200000531971455, 1.0240000486373901, 0.0, 0.0, 0.0, 0.0, 0.0, 1.6518372592099097E9, 0.0, 2022-05-06 12:40:59.209
59.0, -202.69322784850374, -43.80357823101804, -112.80099251354113, -137.44506327155977, 0.144000006839633, 0.11200000531971455, 1.0240000486373901, 0.0, 0.0, 0.0, 0.0, 0.0, 1.6518372592259016E9, 0.0, 2022-05-06 12:40:59.225
59.0, -260.3662250651978, -195.59863763255998, -195.7033548313193, -201.88353950809687, 0.144000006839633, 0.11200000531971455, 1.0240000486373901, 0.0, 0.0, 0.0, 0.0, 0.0, 1.6518372592259016E9, 0.0, 2022-05-06 12:40:59.225
60.0, -304.0931353471242, -265.67688300227746, -253.211796449963, -235.60621740855277, 0.144000006839633, 0.11200000531971455, 1.0240000486373901, 0.0, 0.0, 0.0, 0.0, 0.0, 1.6518372592268343E9, 0.0, 2022-05-06 12:40:59.226
60.0, -249.38961869524792, -125.00054616900161, -176.97393585322425, -179.26836447604, 0.144000006839633, 0.11200000531971455, 1.0240000486373901, 0.0, 0.0, 0.0, 0.0, 0.0, 1.6518372592268343E9, 0.0, 2022-05-06 12:40:59.226
61.0, -186.12547104479745, -42.692827944178134, -109.01247385842726, -138.07710636407137, 0.144000006839633, 0.12800000607967377, 1.0240000486373901, 0.0, 0.0, 0.0, 0.0, 0.0, 1.6518372592399473E9, 0.0, 2022-05-06 12:40:59.239
61.0, -254.94337012944743, -195.84547102963552, -191.58572498010471, -194.14942639973015, 0.144000006839633, 0.12800000607967377, 1.0240000486373901, 0.0, 0.0, 0.0, 0.0, 0.0, 1.6518372592399473E9, 0.0, 2022-05-06 12:40:59.239
62.0, -302.06984947109595, -261.7013693493791, -251.3231469723396, -230.4788145693019, 0.12800000607967377, 0.12800000607967377, 1.0240000486373901, 0.0, 0.0, 0.0, 0.0, 0.0, 1.6518372592559028E9, 0.0, 2022-05-06 12:40:59.255
62.0, -264.9251631111838, -127.91018833452836, -188.87429751222953, -196.59532097075135, 0.12800000607967377, 0.12800000607967377, 1.0240000486373901, 0.0, 0.0, 0.0, 0.0, 0.0, 1.6518372592559028E9, 0.0, 2022-05-06 12:40:59.255
63.0, -203.6319427373819, -54.39497490553185, -122.61822989722714, -158.5941975209862, 0.12800000607967377, 0.12800000607967377, 1.0240000486373901, 0.0, 0.0, 0.0, 0.0, 0.0, 1.6518372592568586E9, 0.0, 2022-05-06 12:40:59.256
63.0, -258.6159518859349, -199.0019465922378, -193.83714475343004, -204.41171187814325, 0.12800000607967377, 0.12800000607967377, 1.0240000486373901, 0.0, 0.0, 0.0, 0.0, 0.0, 1.6518372592568586E9, 0.0, 2022-05-06 12:40:59.256
64.0, -309.0260633886792, -260.7663943604566, -250.6574447802268, -237.99227358028293, 0.12800000607967377, 0.12800000607967377, 1.0240000486373901, 0.0, 0.0, 0.0, 0.0, 0.0, 1.651837259270152E9, 0.0, 2022-05-06 12:40:59.270
64.0, -257.8492723950185, -128.38141572894529, -178.9897419293411, -192.19719862286001, 0.12800000607967377, 0.12800000607967377, 1.0240000486373901, 0.0, 0.0, 0.0, 0.0, 0.0, 1.651837259270152E9, 0.0, 2022-05-06 12:40:59.270
65.0, -197.32273151213303, -44.689934520516545, -110.08956504566595, -137.11969197541475, 0.12800000607967377, 0.12800000607967377, 1.0240000486373901, 0.0, 0.0, 0.0, 0.0, 0.0, 1.6518372592859728E9, 0.0, 2022-05-06 12:40:59.285
65.0, -251.19225047389045, -191.76150027802214, -193.2574602602981, -195.3200150858611, 0.12800000607967377, 0.12800000607967377, 1.0240000486373901, 0.0, 0.0, 0.0, 0.0, 0.0, 1.6518372592859728E9, 0.0, 2022-05-06 12:40:59.285
66.0, -303.20303915767, -256.1775371148251, -249.8010076903738, -219.25911470223218, 0.12800000607967377, 0.12800000607967377, 1.0240000486373901, 0.0, 0.0, 0.0, 0.0, 0.0, 1.6518372592868478E9, 0.0, 2022-05-06 12:40:59.286
66.0, -238.5027699242346, -115.24688708456233, -167.9532971601002, -175.81643681693822, 0.12800000607967377, 0.12800000607967377, 1.0240000486373901, 0.0, 0.0, 0.0, 0.0, 0.0, 1.6518372592868478E9, 0.0, 2022-05-06 12:40:59.286
67.0, -214.59358950750902, -52.304370830301195, -122.7827854952775, -154.6673025675118, 0.12800000607967377, 0.12800000607967377, 1.0240000486373901, 0.0, 0.0, 0.0, 0.0, 0.0, 1.6518372592999203E9, 0.0, 2022-05-06 12:40:59.299
67.0, -265.49362790444866, -209.75415896484628, -200.46050757495686, -203.27104239165783, 0.12800000607967377, 0.12800000607967377, 1.0240000486373901, 0.0, 0.0, 0.0, 0.0, 0.0, 1.6518372592999203E9, 0.0, 2022-05-06 12:40:59.299
68.0, -307.63108070520684, -261.60413195053115, -254.7002766323276, -229.7383143780753, 0.12800000607967377, 0.12800000607967377, 1.0240000486373901, 0.0, 0.0, 0.0, 0.0, 0.0, 1.6518372593160007E9, 0.0, 2022-05-06 12:40:59.316
68.0, -253.7316425438039, -114.16231609741226, -164.759422597941, -173.17606744822115, 0.12800000607967377, 0.12800000607967377, 1.0240000486373901, 0.0, 0.0, 0.0, 0.0, 0.0, 1.6518372593160007E9, 0.0, 2022-05-06 12:40:59.316
69.0, -196.42889542272314, -56.10410918528214, -107.99148117052391, -134.22874930966645, 0.12800000607967377, 0.12800000607967377, 1.0240000486373901, 0.0, 0.0, 0.0, 0.0, 0.0, 1.651837259316964E9, 0.0, 2022-05-06 12:40:59.316
69.0, -252.51617505820468, -195.0413925391622, -200.3707499760203, -202.36972650233656, 0.12800000607967377, 0.12800000607967377, 1.0240000486373901, 0.0, 0.0, 0.0, 0.0, 0.0, 1.651837259316964E9, 0.0, 2022-05-06 12:40:59.316
70.0, -289.8141973163001, -249.89076528931037, -245.88159253681079, -217.72575572039932, 0.12800000607967377, 0.12800000607967377, 1.0240000486373901, 0.0, 0.0, 0.0, 0.0, 0.0, 1.6518372593299084E9, 0.0, 2022-05-06 12:40:59.329
70.0, -245.88533243676648, -110.45981514127925, -163.36817981442437, -168.45631370414048, 0.12800000607967377, 0.12800000607967377, 1.0240000486373901, 0.0, 0.0, 0.0, 0.0, 0.0, 1.6518372593299084E9, 0.0, 2022-05-06 12:40:59.329
71.0, -205.97686000959948, -46.91143509419635, -104.34133881377056, -132.85994592588395, 0.12800000607967377, 0.11200000531971455, 1.0240000486373901, 0.0, 0.0, 0.0, 0.0, 0.0, 1.6518372593458824E9, 0.0, 2022-05-06 12:40:59.345
71.0, -252.00380876427516, -193.95308165205643, -194.11763725010678, -194.06340870074928, 0.12800000607967377, 0.11200000531971455, 1.0240000486373901, 0.0, 0.0, 0.0, 0.0, 0.0, 1.6518372593458824E9, 0.0, 2022-05-06 12:40:59.345
72.0, -309.4561518835835, -262.4680488402955, -260.1418310678564, -247.20738707110286, 0.12800000607967377, 0.11200000531971455, 1.0240000486373901, 0.0, 0.0, 0.0, 0.0, 0.0, 1.6518372593468525E9, 0.0, 2022-05-06 12:40:59.346
72.0, -252.96496305288747, -115.29176588403061, -171.94003051286563, -181.59084234852344, 0.12800000607967377, 0.11200000531971455, 1.0240000486373901, 0.0, 0.0, 0.0, 0.0, 0.0, 1.6518372593468525E9, 0.0, 2022-05-06 12:40:59.346
73.0, -202.08362415572628, -59.09602914983407, -114.94769508810714, -161.38790278788656, 0.12800000607967377, 0.11200000531971455, 1.0240000486373901, 0.0, 0.0, 0.0, 0.0, 0.0, 1.6518372593598857E9, 0.0, 2022-05-06 12:40:59.359
73.0, -242.78495537349954, -201.3730431641452, -207.43168109236285, -201.08694081753492, 0.12800000607967377, 0.11200000531971455, 1.0240000486373901, 0.0, 0.0, 0.0, 0.0, 0.0, 1.6518372593598857E9, 0.0, 2022-05-06 12:40:59.359
74.0, -307.52262360649183, -258.38781798863783, -251.29322777269408, -226.63793731480837, 0.12800000607967377, 0.11200000531971455, 1.0240000486373901, 0.0, 0.0, 0.0, 0.0, 0.0, 1.6518372593759525E9, 0.0, 2022-05-06 12:40:59.375
74.0, -254.55816043401137, -109.44630225328729, -164.93519789585844, -171.971819662489, 0.12800000607967377, 0.11200000531971455, 1.0240000486373901, 0.0, 0.0, 0.0, 0.0, 0.0, 1.6518372593759525E9, 0.0, 2022-05-06 12:40:59.375
75.0, -202.12850295519456, -55.127995296847075, -113.64247000357136, -150.68804901465774, 0.12800000607967377, 0.11200000531971455, 1.0240000486373901, 0.0, 0.0, 0.0, 0.0, 0.0, 1.65183725937683E9, 0.0, 2022-05-06 12:40:59.376
75.0, -262.68122313776985, -212.6413617306389, -206.64256220171228, -205.73937636241317, 0.12800000607967377, 0.11200000531971455, 1.0240000486373901, 0.0, 0.0, 0.0, 0.0, 0.0, 1.65183725937683E9, 0.0, 2022-05-06 12:40:59.376
76.0, -314.310542026069, -267.23642128380015, -260.8411923595704, -233.53805273305625, 0.12800000607967377, 0.11200000531971455, 1.0240000486373901, 0.0, 0.0, 0.0, 0.0, 0.0, 1.6518372593899298E9, 0.0, 2022-05-06 12:40:59.389
76.0, -259.8875178708695, -119.94794132886454, -176.79068075539544, -183.43835292663425, 0.12800000607967377, 0.11200000531971455, 1.0240000486373901, 0.0, 0.0, 0.0, 0.0, 0.0, 1.6518372593899298E9, 0.0, 2022-05-06 12:40:59.389
77.0, -221.20573262916878, -70.48028461495414, -133.10864927293733, -165.65138873737305, 0.12800000607967377, 0.11200000531971455, 1.0240000486373901, 0.0, 0.0, 0.0, 0.0, 0.0, 1.6518372594059248E9, 0.0, 2022-05-06 12:40:59.405
77.0, -264.01262752199546, -215.24059219984338, -205.5579912145622, -214.41968415956944, 0.12800000607967377, 0.11200000531971455, 1.0240000486373901, 0.0, 0.0, 0.0, 0.0, 0.0, 1.6518372594059248E9, 0.0, 2022-05-06 12:40:59.405
78.0, -297.8175832214765, -264.4501958168112, -250.03288148762658, -227.1091647092253, 0.12800000607967377, 0.11200000531971455, 1.0240000486373901, 0.0, 0.0, 0.0, 0.0, 0.0, 1.6518372594068377E9, 0.0, 2022-05-06 12:40:59.406
78.0, -246.30046133184806, -108.15229686861858, -162.2836088272743, -160.64740259665996, 0.12800000607967377, 0.11200000531971455, 1.0240000486373901, 0.0, 0.0, 0.0, 0.0, 0.0, 1.6518372594068377E9, 0.0, 2022-05-06 12:40:59.406
79.0, -199.4806537865661, -49.76123886043206, -128.40011522872373, -147.54279315192252, 0.12800000607967377, 0.11200000531971455, 1.0240000486373901, 0.0, 0.0, 0.0, 0.0, 0.0, 1.651837259419966E9, 0.0, 2022-05-06 12:40:59.419
79.0, -257.1386914034374, -200.21367417788133, -201.41792196361348, -205.2494494682178, 0.12800000607967377, 0.11200000531971455, 1.0240000486373901, 0.0, 0.0, 0.0, 0.0, 0.0, 1.651837259419966E9, 0.0, 2022-05-06 12:40:59.419
80.0, -306.6474870168604, -255.87086531845853, -248.30504770809785, -232.64795654360205, 0.12800000607967377, 0.11200000531971455, 1.0240000486373901, 0.0, 0.0, 0.0, 0.0, 0.0, 1.6518372594519053E9, 0.0, 2022-05-06 12:40:59.451
80.0, -235.11068066442385, -98.75766817992553, -140.74552498245612, -166.42554802820086, 0.12800000607967377, 0.11200000531971455, 1.0240000486373901, 0.0, 0.0, 0.0, 0.0, 0.0, 1.6518372594519053E9, 0.0, 2022-05-06 12:40:59.451
81.0, -196.27555952453986, -49.31993066566065, -117.73766045505181, -141.00918792933226, 0.12800000607967377, 0.11200000531971455, 1.0240000486373901, 0.0, 0.0, 0.0, 0.0, 0.0, 1.6518372594528608E9, 0.0, 2022-05-06 12:40:59.452
81.0, -263.4366829288192, -210.09074996085837, -202.39029595209286, -200.75034982152283, 0.12800000607967377, 0.11200000531971455, 1.0240000486373901, 0.0, 0.0, 0.0, 0.0, 0.0, 1.6518372594528608E9, 0.0, 2022-05-06 12:40:59.452
82.0, -307.11123461136594, -255.4033778239973, -258.57481298642233, -237.42006888706237, 0.144000006839633, 0.11200000531971455, 1.0240000486373901, 0.0, 0.0, 0.0, 0.0, 0.0, 1.6518372594538717E9, 0.0, 2022-05-06 12:40:59.453
82.0, -250.77712157880887, -118.56791824521497, -174.5093417824246, -182.83622903376818, 0.144000006839633, 0.11200000531971455, 1.0240000486373901, 0.0, 0.0, 0.0, 0.0, 0.0, 1.6518372594538717E9, 0.0, 2022-05-06 12:40:59.453
83.0, -212.5291647319682, -65.95874556852505, -127.42026144033298, -163.38874926418066, 0.144000006839633, 0.11200000531971455, 1.0240000486373901, 0.0, 0.0, 0.0, 0.0, 0.0, 1.6518372594548545E9, 0.0, 2022-05-06 12:40:59.454
83.0, -262.0753593449481, -205.5579912145622, -200.18001507828012, -205.73563646245748, 0.144000006839633, 0.11200000531971455, 1.0240000486373901, 0.0, 0.0, 0.0, 0.0, 0.0, 1.6518372594548545E9, 0.0, 2022-05-06 12:40:59.454
84.0, -306.18373942235485, -255.57915312191471, -237.0965675408952, -222.42680996470153, 0.144000006839633, 0.11200000531971455, 1.0240000486373901, 0.0, 0.0, 0.0, 0.0, 0.0, 1.6518372594649093E9, 0.0, 2022-05-06 12:40:59.464
84.0, -240.74670989764854, -100.88941115466878, -157.47409748425707, -167.4166215164587, 0.144000006839633, 0.11200000531971455, 1.0240000486373901, 0.0, 0.0, 0.0, 0.0, 0.0, 1.6518372594649093E9, 0.0, 2022-05-06 12:40:59.464
85.0, -198.97202739259228, -58.6397613552399, -129.23785281879827, -159.1177835147828, 0.144000006839633, 0.11200000531971455, 1.0240000486373901, 0.0, 0.0, 0.0, 0.0, 0.0, 1.6518372594798925E9, 0.0, 2022-05-06 12:40:59.479
85.0, -255.27996112545952, -204.7127738245763, -194.7459404426627, -196.2811693744734, 0.144000006839633, 0.11200000531971455, 1.0240000486373901, 0.0, 0.0, 0.0, 0.0, 0.0, 1.6518372594798925E9, 0.0, 2022-05-06 12:40:59.479
86.0, -304.227771745529, -260.27646746626124, -251.63729856861755, -235.45288151036948, 0.144000006839633, 0.11200000531971455, 1.0240000486373901, 0.0, 0.0, 0.0, 0.0, 0.0, 1.6518372594959495E9, 0.0, 2022-05-06 12:40:59.495
86.0, -233.43520548427477, -96.34169280854985, -159.43380506103858, -160.53894549794495, 0.144000006839633, 0.11200000531971455, 1.0240000486373901, 0.0, 0.0, 0.0, 0.0, 0.0, 1.6518372594959495E9, 0.0, 2022-05-06 12:40:59.495
87.0, -213.87178881606087, -61.4559060218744, -118.35100404778495, -154.76827986631542, 0.144000006839633, 0.11200000531971455, 1.0240000486373901, 0.0, 0.0, 0.0, 0.0, 0.0, 1.6518372594968398E9, 0.0, 2022-05-06 12:40:59.496
87.0, -259.5135278753005, -202.5623313500546, -189.19592890841886, -191.3856403324753, 0.144000006839633, 0.11200000531971455, 1.0240000486373901, 0.0, 0.0, 0.0, 0.0, 0.0, 1.6518372594968398E9, 0.0, 2022-05-06 12:40:59.496
88.0, -304.6391607406549, -252.77422815514728, -246.57347402861342, -222.97283535823226, 0.144000006839633, 0.11200000531971455, 1.0240000486373901, 0.0, 0.0, 0.0, 0.0, 0.0, 1.6518372595099475E9, 0.0, 2022-05-06 12:40:59.509
88.0, -249.71498999139294, -110.09704484557733, -183.8104729722254, -192.49265071935952, 0.144000006839633, 0.11200000531971455, 1.0240000486373901, 0.0, 0.0, 0.0, 0.0, 0.0, 1.6518372595099475E9, 0.0, 2022-05-06 12:40:59.509
89.0, -200.374489875976, -54.06212380947545, -125.93552115792409, -143.16337030380964, 0.144000006839633, 0.11200000531971455, 1.0240000486373901, 0.0, 0.0, 0.0, 0.0, 0.0, 1.6518372595259533E9, 0.0, 2022-05-06 12:40:59.525
89.0, -261.099245456513, -210.43108085682616, -201.21596736600623, -199.00007664225996, 0.144000006839633, 0.11200000531971455, 1.0240000486373901, 0.0, 0.0, 0.0, 0.0, 0.0, 1.6518372595259533E9, 0.0, 2022-05-06 12:40:59.525
90.0, -291.92350089130923, -249.75612889090553, -242.27632897952572, -228.69114239048213, 0.144000006839633, 0.11200000531971455, 1.0240000486373901, 0.0, 0.0, 0.0, 0.0, 0.0, 1.6518372595268571E9, 0.0, 2022-05-06 12:40:59.526
90.0, -253.7653016434051, -109.6632164507173, -179.59186582220718, -186.21335869375616, 0.144000006839633, 0.11200000531971455, 1.0240000486373901, 0.0, 0.0, 0.0, 0.0, 0.0, 1.6518372595268571E9, 0.0, 2022-05-06 12:40:59.526
91.0, -197.90989580517635, -61.0482569267042, -115.08607138646767, -147.5465330518782, 0.144000006839633, 0.12800000607967377, 1.0240000486373901, 0.0, 0.0, 0.0, 0.0, 0.0, 1.6518372595398824E9, 0.0, 2022-05-06 12:40:59.539
91.0, -258.2083027907647, -212.57778343139216, -209.45870686834678, -197.52655605971813, 0.144000006839633, 0.12800000607967377, 1.0240000486373901, 0.0, 0.0, 0.0, 0.0, 0.0, 1.6518372595398824E9, 0.0, 2022-05-06 12:40:59.539
92.0, -301.87911457335576, -245.66467833938077, -240.97484379494563, -215.94556334149092, 0.144000006839633, 0.12800000607967377, 1.0240000486373901, 0.0, 0.0, 0.0, 0.0, 0.0, 1.6518372595559747E9, 0.0, 2022-05-06 12:40:59.555
92.0, -248.64911850402132, -101.30080014979467, -164.74072309816256, -195.89595967903733, 0.144000006839633, 0.12800000607967377, 1.0240000486373901, 0.0, 0.0, 0.0, 0.0, 0.0, 1.6518372595559747E9, 0.0, 2022-05-06 12:40:59.555
93.0, -202.89892234606668, -67.61178134893999, -125.53161196270958, -156.68684854358435, 0.144000006839633, 0.12800000607967377, 1.0240000486373901, 0.0, 0.0, 0.0, 0.0, 0.0, 1.651837259556856E9, 0.0, 2022-05-06 12:40:59.556
93.0, -249.85710618970916, -221.33288922766224, -207.68599428934976, -208.93325092457235, 0.144000006839633, 0.12800000607967377, 1.0240000486373901, 0.0, 0.0, 0.0, 0.0, 0.0, 1.651837259556856E9, 0.0, 2022-05-06 12:40:59.556
94.0, -295.39412805018947, -248.67155790375546, -240.02864910615608, -217.3966445242986, 0.144000006839633, 0.12800000607967377, 1.0240000486373901, 0.0, 0.0, 0.0, 0.0, 0.0, 1.651837259569936E9, 0.0, 2022-05-06 12:40:59.569
94.0, -249.33352019591257, -100.26484786206856, -158.427771972958, -179.16738717723638, 0.144000006839633, 0.12800000607967377, 1.0240000486373901, 0.0, 0.0, 0.0, 0.0, 0.0, 1.651837259569936E9, 0.0, 2022-05-06 12:40:59.569
95.0, -209.8588761636056, -68.12788754282519, -123.67288168473169, -160.3407308002934, 0.144000006839633, 0.12800000607967377, 1.0240000486373901, 0.0, 0.0, 0.0, 0.0, 0.0, 1.6518372595859742E9, 0.0, 2022-05-06 12:40:59.585
95.0, -253.04350095195696, -213.66609431849793, -203.54592503840104, -203.59641368780285, 0.144000006839633, 0.12800000607967377, 1.0240000486373901, 0.0, 0.0, 0.0, 0.0, 0.0, 1.6518372595859742E9, 0.0, 2022-05-06 12:40:59.585
96.0, -328.5072022578679, -255.67639052076265, -249.15026509808376, -230.38905697036535, 0.144000006839633, 0.12800000607967377, 1.0240000486373901, 0.0, 0.0, 0.0, 0.0, 0.0, 1.651837259586832E9, 0.0, 2022-05-06 12:40:59.586
96.0, -255.27996112545952, -103.66815682174638, -162.6501190229319, -172.94793355092406, 0.144000006839633, 0.12800000607967377, 1.0240000486373901, 0.0, 0.0, 0.0, 0.0, 0.0, 1.651837259586832E9, 0.0, 2022-05-06 12:40:59.586
97.0, -203.60576343769208, -65.86898796958849, -107.90172357158735, -152.43084239400923, 0.144000006839633, 0.12800000607967377, 1.0240000486373901, 0.0, 0.0, 0.0, 0.0, 0.0, 1.6518372595999231E9, 0.0, 2022-05-06 12:40:59.599
97.0, -265.0336202098988, -216.05963029013947, -210.16180806001648, -205.96751025971025, 0.144000006839633, 0.12800000607967377, 1.0240000486373901, 0.0, 0.0, 0.0, 0.0, 0.0, 1.6518372595999231E9, 0.0, 2022-05-06 12:40:59.599
98.0, -318.82460127258673, -260.08573256852105, -262.6251246384345, -241.4142820397392, 0.144000006839633, 0.12800000607967377, 1.0240000486373901, 0.0, 0.0, 0.0, 0.0, 0.0, 1.6518372596158977E9, 0.0, 2022-05-06 12:40:59.615
98.0, -241.79388188524172, -105.01452080579475, -160.5782144474797, -171.47441296838224, 0.144000006839633, 0.12800000607967377, 1.0240000486373901, 0.0, 0.0, 0.0, 0.0, 0.0, 1.6518372596158977E9, 0.0, 2022-05-06 12:40:59.615
99.0, -217.7164059705101, -74.6839321651496, -133.84540956420824, -163.35883006453514, 0.144000006839633, 0.12800000607967377, 1.0240000486373901, 0.0, 0.0, 0.0, 0.0, 0.0, 1.6518372596168687E9, 0.0, 2022-05-06 12:40:59.616
99.0, -268.3770907702856, -218.81219665752724, -213.10510932514444, -203.07656759396195, 0.144000006839633, 0.12800000607967377, 1.0240000486373901, 0.0, 0.0, 0.0, 0.0, 0.0, 1.6518372596168687E9, 0.0, 2022-05-06 12:40:59.616
100.0, -316.89107299549505, -255.00694842869416, -260.8486721594818, -244.9634470976889, 0.144000006839633, 0.12800000607967377, 1.0240000486373901, 0.0, 0.0, 0.0, 0.0, 0.0, 1.651837259630915E9, 0.0, 2022-05-06 12:40:59.630
100.0, -256.53282761061564, -114.07629839843139, -169.78958803834394, -190.92189273796976, 0.144000006839633, 0.12800000607967377, 1.0240000486373901, 0.0, 0.0, 0.0, 0.0, 0.0, 1.651837259630915E9, 0.0, 2022-05-06 12:40:59.630
0.0, -213.7278026677668, -79.02782596368343, -134.31476700864732, -154.93657536432147, 0.144000006839633, 0.12800000607967377, 1.0240000486373901, 0.0, 0.0, 0.0, 0.0, 0.0, 1.651837259631937E9, 0.0, 2022-05-06 12:40:59.631
1.0, -277.3098418144509, -229.02399348653853, -223.99008814617991, -215.68751024454832, 0.144000006839633, 0.12800000607967377, 1.0240000486373901, 0.0, 0.0, 0.0, 0.0, 0.0, 1.6518372596448915E9, 0.0, 2022-05-06 12:40:59.644
1.0, -314.50314687378705, -253.8195301927626, -259.66499382350594, -235.94654830452055, 0.144000006839633, 0.12800000607967377, 1.0240000486373901, 0.0, 0.0, 0.0, 0.0, 0.0, 1.6518372596448915E9, 0.0, 2022-05-06 12:40:59.644
2.0, -252.88081530388445, -109.22377820592374, -168.80038450006396, -183.96193892043084, 0.144000006839633, 0.12800000607967377, 1.0240000486373901, 0.0, 0.0, 0.0, 0.0, 0.0, 1.6518372596609523E9, 0.0, 2022-05-06 12:40:59.660
2.0, -211.55118089355528, -68.79171978496015, -122.45928414911032, -142.11619831621647, 0.144000006839633, 0.12800000607967377, 1.0240000486373901, 0.0, 0.0, 0.0, 0.0, 0.0, 1.6518372596609523E9, 0.0, 2022-05-06 12:40:59.660
3.0, -270.8996532903984, -222.95039595849812, -211.41654449515045, -209.5802536169067, 0.144000006839633, 0.12800000607967377, 1.0240000486373901, 0.0, 0.0, 0.0, 0.0, 0.0, 1.6518372596619153E9, 0.0, 2022-05-06 12:40:59.661
3.0, -322.5888105779886, -258.36350863892585, -264.452065766789, -254.90784107986838, 0.144000006839633, 0.12800000607967377, 1.0240000486373901, 0.0, 0.0, 0.0, 0.0, 0.0, 1.6518372596619153E9, 0.0, 2022-05-06 12:40:59.661
4.0, -250.52093843184412, -102.63033458404243, -166.75465922430158, -182.54825673718005, 0.144000006839633, 0.12800000607967377, 1.0240000486373901, 0.0, 0.0, 0.0, 0.0, 0.0, 1.6518372596749477E9, 0.0, 2022-05-06 12:40:59.674
4.0, -209.14642522204667, -79.49905335810035, -136.81676007900387, -162.05734487995505, 0.144000006839633, 0.12800000607967377, 1.0240000486373901, 0.0, 0.0, 0.0, 0.0, 0.0, 1.6518372596749477E9, 0.0, 2022-05-06 12:40:59.674
5.0, -264.3398687681183, -214.59171955753118, -200.55587502382696, -197.7247707573697, 0.144000006839633, 0.12800000607967377, 1.0240000486373901, 0.0, 0.0, 0.0, 0.0, 0.0, 1.6518372596909797E9, 0.0, 2022-05-06 12:40:59.690
5.0, -315.87195025756955, -245.0756440963596, -241.4068022398278, -228.4069099938497, 0.144000006839633, 0.12800000607967377, 1.0240000486373901, 0.0, 0.0, 0.0, 0.0, 0.0, 1.6518372596909797E9, 0.0, 2022-05-06 12:40:59.690
6.0, -247.7496725646779, -95.5282645681873, -158.5979374209419, -172.28223135881126, 0.144000006839633, 0.12800000607967377, 1.0240000486373901, 0.0, 0.0, 0.0, 0.0, 0.0, 1.6518372596919093E9, 0.0, 2022-05-06 12:40:59.691
6.0, -204.74456297419965, -61.1772834751755, -113.41246615629643, -129.70347036328167, 0.144000006839633, 0.12800000607967377, 1.0240000486373901, 0.0, 0.0, 0.0, 0.0, 0.0, 1.6518372596919093E9, 0.0, 2022-05-06 12:40:59.691
7.0, -276.1616925280541, -223.83675224799663, -218.694389808923, -209.8083875142038, 0.144000006839633, 0.12800000607967377, 1.0240000486373901, 0.0, 0.0, 0.0, 0.0, 0.0, 1.6518372597049077E9, 0.0, 2022-05-06 12:40:59.704
7.0, -303.50410110410303, -249.87767563946545, -242.06128473207355, -226.57061911560595, 0.144000006839633, 0.12800000607967377, 1.0240000486373901, 0.0, 0.0, 0.0, 0.0, 0.0, 1.6518372597049077E9, 0.0, 2022-05-06 12:40:59.704
8.0, -241.02907234430313, -95.05703717377037, -166.75839912425727, -184.9791917083785, 0.144000006839633, 0.12800000607967377, 1.0240000486373901, 0.0, 0.0, 0.0, 0.0, 0.0, 1.651837259720953E9, 0.0, 2022-05-06 12:40:59.720
8.0, -231.38761025853455, -78.4070025710389, -127.96815678384155, -160.43796819914132, 0.144000006839633, 0.12800000607967377, 1.0240000486373901, 0.0, 0.0, 0.0, 0.0, 0.0, 1.651837259720953E9, 0.0, 2022-05-06 12:40:59.720
9.0, -284.34085373114794, -222.27721396647394, -213.21917627379298, -214.38602505996823, 0.144000006839633, 0.12800000607967377, 1.0240000486373901, 0.0, 0.0, 0.0, 0.0, 0.0, 1.6518372597218397E9, 0.0, 2022-05-06 12:40:59.721
9.0, -319.2266405178234, -253.83074989262968, -257.3761750506237, -245.565570990555, 0.144000006839633, 0.12800000607967377, 1.0240000486373901, 0.0, 0.0, 0.0, 0.0, 0.0, 1.6518372597218397E9, 0.0, 2022-05-06 12:40:59.721
10.0, -247.88056906312704, -99.85906871687621, -157.86491702962667, -186.06376269552857, 0.144000006839633, 0.12800000607967377, 1.0240000486373901, 0.0, 0.0, 0.0, 0.0, 0.0, 1.651837259734969E9, 0.0, 2022-05-06 12:40:59.734
10.0, -223.29820665437728, -77.71886097919196, -127.58668698836118, -160.61374349705875, 0.144000006839633, 0.12800000607967377, 1.0240000486373901, 0.0, 0.0, 0.0, 0.0, 0.0, 1.651837259734969E9, 0.0, 2022-05-06 12:40:59.734
11.0, -280.93006497155875, -229.23716778401285, -223.56373955123127, -218.08104621618986, 0.144000006839633, 0.12800000607967377, 1.0240000486373901, 0.0, 0.0, 0.0, 0.0, 0.0, 1.6518372597509768E9, 0.0, 2022-05-06 12:40:59.750
11.0, -315.7447936590761, -248.0413847612217, -258.77863753400743, -234.85823741741478, 0.144000006839633, 0.12800000607967377, 1.0240000486373901, 0.0, 0.0, 0.0, 0.0, 0.0, 1.6518372597509768E9, 0.0, 2022-05-06 12:40:59.750
12.0, -247.99650596175343, -95.07199677359313, -157.53954573348165, -175.68928021844476, 0.144000006839633, 0.12800000607967377, 1.0240000486373901, 0.0, 0.0, 0.0, 0.0, 0.0, 1.6518372597519162E9, 0.0, 2022-05-06 12:40:59.751
12.0, -222.20989576727152, -83.47082711104304, -130.8441398497671, -162.88012287020683, 0.144000006839633, 0.12800000607967377, 1.0240000486373901, 0.0, 0.0, 0.0, 0.0, 0.0, 1.6518372597519162E9, 0.0, 2022-05-06 12:40:59.751
13.0, -275.5446090353653, -225.1045783329755, -212.48615588247776, -206.57337405253202, 0.144000006839633, 0.12800000607967377, 1.0240000486373901, 0.0, 0.0, 0.0, 0.0, 0.0, 1.6518372597649715E9, 0.0, 2022-05-06 12:40:59.764
13.0, -300.4336432404816, -241.06273144390434, -237.15827589016408, -216.31955333705992, 0.144000006839633, 0.12800000607967377, 1.0240000486373901, 0.0, 0.0, 0.0, 0.0, 0.0, 1.6518372597649715E9, 0.0, 2022-05-06 12:40:59.764
14.0, -249.87019583955407, -94.193120284006, -158.05565192736685, -180.33049606345594, 0.144000006839633, 0.12800000607967377, 1.0240000486373901, 0.0, 0.0, 0.0, 0.0, 0.0, 1.6518372597809098E9, 0.0, 2022-05-06 12:40:59.780
14.0, -208.57422052882612, -78.79969206638634, -132.11570583470166, -165.4494341397658, 0.144000006839633, 0.12800000607967377, 1.0240000486373901, 0.0, 0.0, 0.0, 0.0, 0.0, 1.6518372597809098E9, 0.0, 2022-05-06 12:40:59.780
15.0, -285.4777833176777, -231.05849906243384, -222.28095386642963, -208.44332403037697, 0.144000006839633, 0.12800000607967377, 1.0240000486373901, 0.0, 0.0, 0.0, 0.0, 0.0, 1.651837259781937E9, 0.0, 2022-05-06 12:40:59.781
15.0, -323.7893184637651, -251.680307418108, -256.130788365379, -237.79779878258705, 0.144000006839633, 0.12800000607967377, 1.0240000486373901, 0.0, 0.0, 0.0, 0.0, 0.0, 1.651837259781937E9, 0.0, 2022-05-06 12:40:59.781
16.0, -249.32417044602334, -90.19890713132918, -157.61060383263975, -169.46234679222107, 0.144000006839633, 0.12800000607967377, 1.0240000486373901, 0.0, 0.0, 0.0, 0.0, 0.0, 1.651837259794973E9, 0.0, 2022-05-06 12:40:59.794
16.0, -200.88498621992767, -64.69278943352401, -112.54106946662068, -138.3575988607481, 0.144000006839633, 0.12800000607967377, 1.0240000486373901, 0.0, 0.0, 0.0, 0.0, 0.0, 1.651837259794973E9, 0.0, 2022-05-06 12:40:59.794
17.0, -269.542069606483, -219.19927630294114, -206.2106037568301, -202.71005739830434, 0.144000006839633, 0.12800000607967377, 1.0240000486373901, 0.0, 0.0, 0.0, 0.0, 0.0, 1.6518372598109102E9, 0.0, 2022-05-06 12:40:59.810
17.0, -315.9617078565061, -241.06273144390434, -247.42056136857718, -219.9547360939905, 0.144000006839633, 0.12800000607967377, 1.0240000486373901, 0.0, 0.0, 0.0, 0.0, 0.0, 1.6518372598109102E9, 0.0, 2022-05-06 12:40:59.810
18.0, -250.12450903654099, -99.35044232290238, -158.57175812125206, -179.84056916926056, 0.144000006839633, 0.12800000607967377, 1.0240000486373901, 0.0, 0.0, 0.0, 0.0, 0.0, 1.6518372598118508E9, 0.0, 2022-05-06 12:40:59.811
18.0, -219.5807460984215, -83.1865947144106, -143.08109250478446, -171.88580196350813, 0.144000006839633, 0.12800000607967377, 1.0240000486373901, 0.0, 0.0, 0.0, 0.0, 0.0, 1.6518372598118508E9, 0.0, 2022-05-06 12:40:59.811
19.0, -278.6973446980119, -226.70899541396648, -229.28578648343682, -220.49328168760985, 0.144000006839633, 0.12800000607967377, 1.0240000486373901, 0.0, 0.0, 0.0, 0.0, 0.0, 1.6518372598249505E9, 0.0, 2022-05-06 12:40:59.824
19.0, -299.8801380470395, -238.4485413748771, -240.27735245320946, -227.0755056096241, 0.144000006839633, 0.12800000607967377, 1.0240000486373901, 0.0, 0.0, 0.0, 0.0, 0.0, 1.6518372598249505E9, 0.0, 2022-05-06 12:40:59.824
20.0, -240.04547865595669, -93.41896099317819, -162.53231217432767, -173.3742821458727, 0.144000006839633, 0.12800000607967377, 1.0240000486373901, 0.0, 0.0, 0.0, 0.0, 0.0, 1.6518372598409529E9, 0.0, 2022-05-06 12:40:59.840
20.0, -221.8134663719684, -89.91093483474106, -137.8826315663755, -166.7808385239914, 0.144000006839633, 0.12800000607967377, 1.0240000486373901, 0.0, 0.0, 0.0, 0.0, 0.0, 1.6518372598409529E9, 0.0, 2022-05-06 12:40:59.840
21.0, -274.93126544263214, -233.60537093225867, -216.97777572926134, -213.7352824676782, 0.144000006839633, 0.12800000607967377, 1.0240000486373901, 0.0, 0.0, 0.0, 0.0, 0.0, 1.6518372598419101E9, 0.0, 2022-05-06 12:40:59.841
21.0, -329.40290829725564, -253.46423969697207, -254.31693688686937, -242.35299692861736, 0.144000006839633, 0.12800000607967377, 1.0240000486373901, 0.0, 0.0, 0.0, 0.0, 0.0, 1.6518372598419101E9, 0.0, 2022-05-06 12:40:59.841
22.0, -247.0764905726537, -93.91636768728495, -166.79953802376986, -173.48273924458772, 0.144000006839633, 0.12800000607967377, 1.0240000486373901, 0.0, 0.0, 0.0, 0.0, 0.0, 1.651837259854951E9, 0.0, 2022-05-06 12:40:59.854
22.0, -218.59715241007507, -85.34451698884368, -136.19219678640366, -160.10137720312923, 0.144000006839633, 0.12800000607967377, 1.0240000486373901, 0.0, 0.0, 0.0, 0.0, 0.0, 1.651837259854951E9, 0.0, 2022-05-06 12:40:59.854
23.0, -276.10559402871877, -233.8896033288911, -228.81829898897558, -217.90153101831675, 0.144000006839633, 0.12800000607967377, 1.0240000486373901, 0.0, 0.0, 0.0, 0.0, 0.0, 1.6518372598709252E9, 0.0, 2022-05-06 12:40:59.870
23.0, -302.4756286162883, -242.5250323265791, -253.59513619542122, -232.3001458477229, 0.144000006839633, 0.12800000607967377, 1.0240000486373901, 0.0, 0.0, 0.0, 0.0, 0.0, 1.6518372598709252E9, 0.0, 2022-05-06 12:40:59.870
24.0, -252.58162330742925, -93.51619839202613, -148.52264694031328, -167.5662175146863, 0.144000006839633, 0.12800000607967377, 1.0240000486373901, 0.0, 0.0, 0.0, 0.0, 0.0, 1.6518372598719108E9, 0.0, 2022-05-06 12:40:59.871
24.0, -207.5046091414988, -77.4795073820278, -130.70576355140656, -145.9608154706657, 0.144000006839633, 0.12800000607967377, 1.0240000486373901, 0.0, 0.0, 0.0, 0.0, 0.0, 1.6518372598719108E9, 0.0, 2022-05-06 12:40:59.871
25.0, -284.67370482720435, -230.77052676584572, -214.49074225872755, -211.49882229417562, 0.144000006839633, 0.12800000607967377, 1.0240000486373901, 0.0, 0.0, 0.0, 0.0, 0.0, 1.651837259884985E9, 0.0, 2022-05-06 12:40:59.884
25.0, -306.78773326519877, -238.68789497204125, -239.25635976530612, -227.78234670124948, 0.144000006839633, 0.12800000607967377, 1.0240000486373901, 0.0, 0.0, 0.0, 0.0, 0.0, 1.651837259884985E9, 0.0, 2022-05-06 12:40:59.884
26.0, -241.40306233987212, -81.79535193089396, -144.16940339189023, -149.5174603285268, 0.144000006839633, 0.12800000607967377, 1.0240000486373901, 0.0, 0.0, 0.0, 0.0, 0.0, 1.6518372599009008E9, 0.0, 2022-05-06 12:40:59.900
26.0, -203.67121168691665, -70.23906106781214, -117.91904560290277, -143.24190820287913, 0.144000006839633, 0.12800000607967377, 1.0240000486373901, 0.0, 0.0, 0.0, 0.0, 0.0, 1.6518372599009008E9, 0.0, 2022-05-06 12:40:59.900
27.0, -275.04346244130284, -228.38447059411556, -217.8828315185383, -207.56444754078984, 0.144000006839633, 0.12800000607967377, 1.0240000486373901, 0.0, 0.0, 0.0, 0.0, 0.0, 1.6518372599019072E9, 0.0, 2022-05-06 12:40:59.901
27.0, -313.17548238951713, -243.24683301802725, -252.84341630432755, -227.9282027995214, 0.144000006839633, 0.12800000607967377, 1.0240000486373901, 0.0, 0.0, 0.0, 0.0, 0.0, 1.6518372599019072E9, 0.0, 2022-05-06 12:40:59.901
28.0, -256.40006116218865, -91.62380901444703, -163.32517096493393, -189.74008435197175, 0.144000006839633, 0.12800000607967377, 1.0240000486373901, 0.0, 0.0, 0.0, 0.0, 0.0, 1.6518372599149318E9, 0.0, 2022-05-06 12:40:59.914
28.0, -211.58857989311218, -80.51256624609232, -126.63301249966025, -146.09545186907053, 0.144000006839633, 0.12800000607967377, 1.0240000486373901, 0.0, 0.0, 0.0, 0.0, 0.0, 1.6518372599149318E9, 0.0, 2022-05-06 12:40:59.914
29.0, -281.04226197022945, -234.45806812215596, -223.89285074733198, -223.8068330483511, 0.144000006839633, 0.12800000607967377, 1.0240000486373901, 0.0, 0.0, 0.0, 0.0, 0.0, 1.651837259946901E9, 0.0, 2022-05-06 12:40:59.946
29.0, -309.50664053298533, -241.23850674182177, -248.20220045931637, -232.3375448472798, 0.144000006839633, 0.12800000607967377, 1.0240000486373901, 0.0, 0.0, 0.0, 0.0, 0.0, 1.651837259946901E9, 0.0, 2022-05-06 12:40:59.946
30.0, -245.61792958993465, -93.29554429464042, -163.1119966674596, -182.22662534099072, 0.144000006839633, 0.12800000607967377, 1.0240000486373901, 0.0, 0.0, 0.0, 0.0, 0.0, 1.6518372599478636E9, 0.0, 2022-05-06 12:40:59.947
30.0, -211.87281228974462, -87.34536346513778, -129.75582896266133, -162.54353187419474, 0.144000006839633, 0.12800000607967377, 1.0240000486373901, 0.0, 0.0, 0.0, 0.0, 0.0, 1.6518372599478636E9, 0.0, 2022-05-06 12:40:59.947
31.0, -274.052388953045, -237.16949559003115, -230.24694077204913, -219.22919550258666, 0.144000006839633, 0.12800000607967377, 1.0240000486373901, 0.0, 0.0, 0.0, 0.0, 0.0, 1.6518372599488432E9, 0.0, 2022-05-06 12:40:59.948
31.0, -322.5925504779443, -242.10616353154182, -247.84690996352583, -230.82662526518106, 0.144000006839633, 0.12800000607967377, 1.0240000486373901, 0.0, 0.0, 0.0, 0.0, 0.0, 1.6518372599488432E9, 0.0, 2022-05-06 12:40:59.948
32.0, -235.2995456121862, -79.73466705530882, -151.46220830548555, -154.9253556644544, 0.144000006839633, 0.12800000607967377, 1.0240000486373901, 0.0, 0.0, 0.0, 0.0, 0.0, 1.6518372599498332E9, 0.0, 2022-05-06 12:40:59.949
32.0, -214.99188885279, -80.72948044352233, -123.49523643683642, -157.01595973968506, 0.144000006839633, 0.12800000607967377, 1.0240000486373901, 0.0, 0.0, 0.0, 0.0, 0.0, 1.6518372599498332E9, 0.0, 2022-05-06 12:40:59.949
33.0, -279.26580949127674, -234.00928012747318, -229.24464758392423, -225.59450522717088, 0.144000006839633, 0.12800000607967377, 1.0240000486373901, 0.0, 0.0, 0.0, 0.0, 0.0, 1.6518372599599454E9, 0.0, 2022-05-06 12:40:59.959
33.0, -307.4496955573559, -239.667748760432, -260.6037087123841, -231.34273145906627, 0.144000006839633, 0.12800000607967377, 1.0240000486373901, 0.0, 0.0, 0.0, 0.0, 0.0, 1.6518372599599454E9, 0.0, 2022-05-06 12:40:59.959
34.0, -246.79599807597697, -91.55275091528893, -144.58079238701612, -173.36680234596133, 0.144000006839633, 0.12800000607967377, 1.0240000486373901, 0.0, 0.0, 0.0, 0.0, 0.0, 1.6518372599749E9, 0.0, 2022-05-06 12:40:59.974
34.0, -213.4323505712673, -88.32521725352854, -140.1041321400553, -151.9222160000354, 0.144000006839633, 0.12800000607967377, 1.0240000486373901, 0.0, 0.0, 0.0, 0.0, 0.0, 1.6518372599749E9, 0.0, 2022-05-06 12:40:59.974
35.0, -281.6518656630069, -234.53286612126976, -217.6920966207981, -209.15764492191374, 0.144000006839633, 0.12800000607967377, 1.0240000486373901, 0.0, 0.0, 0.0, 0.0, 0.0, 1.6518372599909043E9, 0.0, 2022-05-06 12:40:59.990
35.0, -306.1182911731303, -230.6620696671307, -243.852696810849, -223.4777218522504, 0.144000006839633, 0.12800000607967377, 1.0240000486373901, 0.0, 0.0, 0.0, 0.0, 0.0, 1.6518372599909043E9, 0.0, 2022-05-06 12:40:59.990
36.0, -218.60837210994214, -76.76892639044672, -136.07251998782158, -159.80966500658542, 0.144000006839633, 0.12800000607967377, 1.0240000486373901, 0.0, 0.0, 0.0, 0.0, 0.0, 1.6518372599918425E9, 0.0, 2022-05-06 12:40:59.991
36.0, -209.25862222071737, -88.39253545273095, -134.5092418063432, -161.0400920920074, 0.144000006839633, 0.12800000607967377, 1.0240000486373901, 0.0, 0.0, 0.0, 0.0, 0.0, 1.6518372599918425E9, 0.0, 2022-05-06 12:40:59.991
37.0, -285.37680601887405, -234.46180802211165, -225.30653293058276, -219.20301620289683, 0.144000006839633, 0.12800000607967377, 1.0240000486373901, 0.0, 0.0, 0.0, 0.0, 0.0, 1.6518372600049517E9, 0.0, 2022-05-06 12:41:00.004
37.0, -313.6728890836239, -243.9723736094311, -245.9694801857695, -237.4836471863091, 0.144000006839633, 0.12800000607967377, 1.0240000486373901, 0.0, 0.0, 0.0, 0.0, 0.0, 1.6518372600049517E9, 0.0, 2022-05-06 12:41:00.004
38.0, -240.55036514997482, -80.36297024786472, -148.82183893676847, -163.8150978591293, 0.144000006839633, 0.12800000607967377, 1.0240000486373901, 0.0, 0.0, 0.0, 0.0, 0.0, 1.651837260020955E9, 0.0, 2022-05-06 12:41:00.020
38.0, -215.2162828501314, -86.91153507027775, -132.6505115283653, -155.97626755200326, 0.144000006839633, 0.12800000607967377, 1.0240000486373901, 0.0, 0.0, 0.0, 0.0, 0.0, 1.651837260020955E9, 0.0, 2022-05-06 12:41:00.020
39.0, -269.28775640949607, -217.50510162301362, -202.36598660238087, -184.76975731085986, 0.144000006839633, 0.12800000607967377, 1.0240000486373901, 0.0, 0.0, 0.0, 0.0, 0.0, 1.6518372600218804E9, 0.0, 2022-05-06 12:41:00.021
39.0, -297.56513997446746, -226.91095001157373, -236.0363059034571, -212.7703882791102, 0.144000006839633, 0.12800000607967377, 1.0240000486373901, 0.0, 0.0, 0.0, 0.0, 0.0, 1.6518372600218804E9, 0.0, 2022-05-06 12:41:00.021
40.0, -227.5168138043955, -78.21252777334303, -143.31296630203724, -167.06133102066815, 0.144000006839633, 0.12800000607967377, 1.008000047877431, 0.0, 0.0, 0.0, 0.0, 0.0, 1.6518372600349512E9, 0.0, 2022-05-06 12:41:00.034
40.0, -196.58036137092859, -79.80572515446693, -123.00530954264104, -152.67393589112908, 0.144000006839633, 0.12800000607967377, 1.008000047877431, 0.0, 0.0, 0.0, 0.0, 0.0, 1.6518372600349512E9, 0.0, 2022-05-06 12:41:00.034
41.0, -271.58779488224536, -233.71756793092936, -216.8431393308565, -209.46057681832463, 0.144000006839633, 0.12800000607967377, 1.008000047877431, 0.0, 0.0, 0.0, 0.0, 0.0, 1.6518372600669055E9, 0.0, 2022-05-06 12:41:00.066
41.0, -320.2962519051507, -239.4433547630906, -254.2645782874897, -234.21497462503612, 0.144000006839633, 0.12800000607967377, 1.008000047877431, 0.0, 0.0, 0.0, 0.0, 0.0, 1.6518372600669055E9, 0.0, 2022-05-06 12:41:00.066
42.0, -234.17009582556784, -79.76084635499865, -139.7712810439989, -158.8559905178845, 0.144000006839633, 0.12800000607967377, 1.008000047877431, 0.0, 0.0, 0.0, 0.0, 0.0, 1.651837260067864E9, 0.0, 2022-05-06 12:41:00.067
42.0, -211.55118089355528, -90.75615222472697, -135.85560579039156, -158.75501321908087, 0.144000006839633, 0.12800000607967377, 1.008000047877431, 0.0, 0.0, 0.0, 0.0, 0.0, 1.651837260067864E9, 0.0, 2022-05-06 12:41:00.067
43.0, -274.317921849899, -232.8910500407219, -220.64661758579314, -207.95713703613728, 0.144000006839633, 0.12800000607967377, 1.008000047877431, 0.0, 0.0, 0.0, 0.0, 0.0, 1.6518372600689063E9, 0.0, 2022-05-06 12:41:00.068
43.0, -306.42122306954116, -236.13354330230504, -240.64012274891138, -229.53635978046805, 0.144000006839633, 0.12800000607967377, 1.008000047877431, 0.0, 0.0, 0.0, 0.0, 0.0, 1.6518372600689063E9, 0.0, 2022-05-06 12:41:00.068
44.0, -232.50958024524152, -77.38600988313556, -140.97552882973105, -151.36123100668192, 0.144000006839633, 0.12800000607967377, 1.008000047877431, 0.0, 0.0, 0.0, 0.0, 0.0, 1.65183726006983E9, 0.0, 2022-05-06 12:41:00.069
44.0, -211.12109239865094, -82.61065012123436, -121.37097326200455, -152.5168600929901, 0.144000006839633, 0.12800000607967377, 1.008000047877431, 0.0, 0.0, 0.0, 0.0, 0.0, 1.65183726006983E9, 0.0, 2022-05-06 12:41:00.069
45.0, -283.0505882464349, -247.6748745655641, -227.69258910231292, -222.71852216124535, 0.144000006839633, 0.12800000607967377, 1.008000047877431, 0.0, 0.0, 0.0, 0.0, 0.0, 1.651837260079866E9, 0.0, 2022-05-06 12:41:00.079
45.0, -306.0696724737063, -236.87404349353164, -237.58836438506842, -225.23921473138034, 0.144000006839633, 0.12800000607967377, 1.008000047877431, 0.0, 0.0, 0.0, 0.0, 0.0, 1.651837260079866E9, 0.0, 2022-05-06 12:41:00.079
46.0, -227.72624820191413, -74.42026921827346, -138.76150805596262, -157.99207362812012, 0.144000006839633, 0.12800000607967377, 1.008000047877431, 0.0, 0.0, 0.0, 0.0, 0.0, 1.6518372600949867E9, 0.0, 2022-05-06 12:41:00.094
46.0, -206.01238905917853, -86.50762587506324, -126.34504020307213, -157.61808363255113, 0.144000006839633, 0.12800000607967377, 1.008000047877431, 0.0, 0.0, 0.0, 0.0, 0.0, 1.6518372600949867E9, 0.0, 2022-05-06 12:41:00.094
47.0, -280.0549283819273, -235.27336631249636, -221.5142743755132, -218.1072255158797, 0.144000006839633, 0.12800000607967377, 1.008000047877431, 0.0, 0.0, 0.0, 0.0, 0.0, 1.6518372601109433E9, 0.0, 2022-05-06 12:41:00.110
47.0, -305.00754088629037, -225.31401273049414, -239.76498615927994, -222.396890765056, 0.144000006839633, 0.12800000607967377, 1.008000047877431, 0.0, 0.0, 0.0, 0.0, 0.0, 1.6518372601109433E9, 0.0, 2022-05-06 12:41:00.110
48.0, -226.9969677105546, -68.71318188589066, -137.66571736894548, -158.85973041784018, 0.144000006839633, 0.12800000607967377, 1.008000047877431, 0.0, 0.0, 0.0, 0.0, 0.0, 1.6518372601118927E9, 0.0, 2022-05-06 12:41:00.111
48.0, -213.97089616488665, -96.72503255400807, -140.45942263584584, -165.68504783697426, 0.144000006839633, 0.12800000607967377, 1.008000047877431, 0.0, 0.0, 0.0, 0.0, 0.0, 1.6518372601118927E9, 0.0, 2022-05-06 12:41:00.111
49.0, -282.3587067546323, -239.47327396273613, -227.97682149894536, -218.04364721663296, 0.144000006839633, 0.12800000607967377, 1.008000047877431, 0.0, 0.0, 0.0, 0.0, 0.0, 1.651837260124879E9, 0.0, 2022-05-06 12:41:00.124
49.0, -304.6298109907657, -237.71552098356187, -244.89986879844218, -225.1120581328869, 0.144000006839633, 0.12800000607967377, 1.008000047877431, 0.0, 0.0, 0.0, 0.0, 0.0, 1.651837260124879E9, 0.0, 2022-05-06 12:41:00.124
50.0, -228.20121549628675, -77.4421083824709, -140.33600593730807, -159.79470540676266, 0.144000006839633, 0.12800000607967377, 1.008000047877431, 0.0, 0.0, 0.0, 0.0, 0.0, 1.6518372601409633E9, 0.0, 2022-05-06 12:41:00.140
50.0, -211.18841059785336, -89.63792213797569, -131.71179663948715, -159.99292010441422, 0.144000006839633, 0.12800000607967377, 1.008000047877431, 0.0, 0.0, 0.0, 0.0, 0.0, 1.6518372601409633E9, 0.0, 2022-05-06 12:41:00.140
51.0, -273.0164366653189, -232.71527474280447, -222.19119626749307, -210.77702160272747, 0.144000006839633, 0.12800000607967377, 1.008000047877431, 0.0, 0.0, 0.0, 0.0, 0.0, 1.6518372601418266E9, 0.0, 2022-05-06 12:41:00.141
51.0, -305.7293415777385, -229.78693307749927, -240.53914545010775, -228.06283919792622, 0.144000006839633, 0.12800000607967377, 1.008000047877431, 0.0, 0.0, 0.0, 0.0, 0.0, 1.6518372601418266E9, 0.0, 2022-05-06 12:41:00.141
52.0, -233.39219663478434, -72.55779904033989, -141.7010694211349, -159.97796050459146, 0.144000006839633, 0.12800000607967377, 1.008000047877431, 0.0, 0.0, 0.0, 0.0, 0.0, 1.6518372601549046E9, 0.0, 2022-05-06 12:41:00.154
52.0, -205.6533586634323, -91.02916492149234, -139.30379354953766, -158.6315965205431, 0.144000006839633, 0.12800000607967377, 1.008000047877431, 0.0, 0.0, 0.0, 0.0, 0.0, 1.6518372601549046E9, 0.0, 2022-05-06 12:41:00.154
53.0, -289.442077270709, -251.66534781828523, -240.71866064798087, -228.63504389114678, 0.144000006839633, 0.12800000607967377, 1.008000047877431, 0.0, 0.0, 0.0, 0.0, 0.0, 1.651837260170954E9, 0.0, 2022-05-06 12:41:00.170
53.0, -307.9882411509752, -230.27685997169465, -229.0352131864056, -220.15669069159776, 0.144000006839633, 0.12800000607967377, 1.008000047877431, 0.0, 0.0, 0.0, 0.0, 0.0, 1.651837260170954E9, 0.0, 2022-05-06 12:41:00.170
54.0, -222.92795655876398, -63.67927654553205, -141.38691782485694, -154.61494396813214, 0.144000006839633, 0.12800000607967377, 1.008000047877431, 0.0, 0.0, 0.0, 0.0, 0.0, 1.651837260171866E9, 0.0, 2022-05-06 12:41:00.171
54.0, -221.94810277037323, -99.98248541541398, -138.85874545481056, -168.61338950227946, 0.144000006839633, 0.12800000607967377, 1.008000047877431, 0.0, 0.0, 0.0, 0.0, 0.0, 1.651837260171866E9, 0.0, 2022-05-06 12:41:00.171
55.0, -270.43590569589287, -233.98310082778335, -216.6224852334708, -197.97534405440092, 0.144000006839633, 0.12800000607967377, 1.008000047877431, 0.0, 0.0, 0.0, 0.0, 0.0, 1.6518372601849132E9, 0.0, 2022-05-06 12:41:00.184
55.0, -285.1037933221087, -219.09081920422614, -231.05475916247815, -217.68835672084242, 0.144000006839633, 0.12800000607967377, 1.008000047877431, 0.0, 0.0, 0.0, 0.0, 0.0, 1.6518372601849132E9, 0.0, 2022-05-06 12:41:00.184
56.0, -241.86307003442198, -74.60726421605796, -148.91533643566072, -174.61218903120607, 0.144000006839633, 0.12800000607967377, 1.008000047877431, 0.0, 0.0, 0.0, 0.0, 0.0, 1.651837260200884E9, 0.0, 2022-05-06 12:41:00.200
56.0, -209.9131047129631, -94.39133498165756, -130.15973815787584, -161.92270848155022, 0.144000006839633, 0.12800000607967377, 1.008000047877431, 0.0, 0.0, 0.0, 0.0, 0.0, 1.651837260200884E9, 0.0, 2022-05-06 12:41:00.200
57.0, -289.5467944694683, -254.29075758717954, -235.30702541209757, -223.83301234804094, 0.144000006839633, 0.12800000607967377, 1.008000047877431, 0.0, 0.0, 0.0, 0.0, 0.0, 1.651837260201849E9, 0.0, 2022-05-06 12:41:00.201
57.0, -299.5921657504514, -228.39943019393831, -244.3800227046013, -229.60367797967046, 0.144000006839633, 0.12800000607967377, 1.008000047877431, 0.0, 0.0, 0.0, 0.0, 0.0, 1.651837260201849E9, 0.0, 2022-05-06 12:41:00.201
58.0, -233.94570182822645, -72.3670641425997, -146.29740646667778, -163.43736796360463, 0.144000006839633, 0.12800000607967377, 1.008000047877431, 0.0, 0.0, 0.0, 0.0, 0.0, 1.6518372602149072E9, 0.0, 2022-05-06 12:41:00.214
58.0, -212.97234287671745, -89.5631241388619, -124.60224682372063, -155.19462846126407, 0.144000006839633, 0.12800000607967377, 1.008000047877431, 0.0, 0.0, 0.0, 0.0, 0.0, 1.6518372602149072E9, 0.0, 2022-05-06 12:41:00.214
59.0, -286.92512460052967, -246.54542477894574, -239.8884028578177, -224.91010353527963, 0.144000006839633, 0.12800000607967377, 1.008000047877431, 0.0, 0.0, 0.0, 0.0, 0.0, 1.6518372602309265E9, 0.0, 2022-05-06 12:41:00.230
59.0, -302.1726967198774, -224.12472454458475, -235.28084611240774, -221.43199657648802, 0.144000006839633, 0.12800000607967377, 1.008000047877431, 0.0, 0.0, 0.0, 0.0, 0.0, 1.6518372602309265E9, 0.0, 2022-05-06 12:41:00.230
60.0, -226.67533631436527, -70.30637926701456, -147.09026525728405, -154.16615597344935, 0.144000006839633, 0.12800000607967377, 1.008000047877431, 0.0, 0.0, 0.0, 0.0, 0.0, 1.6518372602318633E9, 0.0, 2022-05-06 12:41:00.231
60.0, -200.78026902116835, -92.20349350757897, -122.2797689512372, -149.86901092436165, 0.144000006839633, 0.12800000607967377, 1.008000047877431, 0.0, 0.0, 0.0, 0.0, 0.0, 1.6518372602318633E9, 0.0, 2022-05-06 12:41:00.231
61.0, -287.5496878931299, -242.79804502334446, -223.34308545384556, -220.0257941931486, 0.144000006839633, 0.12800000607967377, 1.008000047877431, 0.0, 0.0, 0.0, 0.0, 0.0, 1.6518372602449412E9, 0.0, 2022-05-06 12:41:00.244
61.0, -304.31565939448774, -229.00903388671577, -233.20146173704416, -227.0755056096241, 0.144000006839633, 0.12800000607967377, 1.008000047877431, 0.0, 0.0, 0.0, 0.0, 0.0, 1.6518372602449412E9, 0.0, 2022-05-06 12:41:00.244
62.0, -231.2529738601297, -73.9266024241224, -142.11993821617216, -165.21008054260164, 0.144000006839633, 0.12800000607967377, 1.008000047877431, 0.0, 0.0, 0.0, 0.0, 0.0, 1.6518372602609768E9, 0.0, 2022-05-06 12:41:00.260
62.0, -209.31098082009703, -92.64106180239469, -131.76041533891112, -163.02223906852305, 0.144000006839633, 0.12800000607967377, 1.008000047877431, 0.0, 0.0, 0.0, 0.0, 0.0, 1.6518372602609768E9, 0.0, 2022-05-06 12:41:00.260
63.0, -275.2005382394418, -250.36760253366083, -234.15513622574508, -227.4831547047943, 0.144000006839633, 0.12800000607967377, 1.008000047877431, 0.0, 0.0, 0.0, 0.0, 0.0, 1.6518372602618587E9, 0.0, 2022-05-06 12:41:00.261
63.0, -303.19742930773646, -235.2210077131167, -247.36072296928614, -226.22654831968248, 0.144000006839633, 0.12800000607967377, 1.008000047877431, 0.0, 0.0, 0.0, 0.0, 0.0, 1.6518372602618587E9, 0.0, 2022-05-06 12:41:00.261
64.0, -233.444555234164, -69.53969977609813, -147.1426238566637, -164.7126738484949, 0.144000006839633, 0.12800000607967377, 1.008000047877431, 0.0, 0.0, 0.0, 0.0, 0.0, 1.6518372602748845E9, 0.0, 2022-05-06 12:41:00.274
64.0, -216.9927353290841, -104.36938806343824, -141.38691782485694, -160.24349340144545, 0.144000006839633, 0.12800000607967377, 1.008000047877431, 0.0, 0.0, 0.0, 0.0, 0.0, 1.6518372602748845E9, 0.0, 2022-05-06 12:41:00.274
65.0, -281.0198225704953, -242.3716964283958, -225.10083843301982, -204.8754594726488, 0.144000006839633, 0.12800000607967377, 1.008000047877431, 0.0, 0.0, 0.0, 0.0, 0.0, 1.6518372602909658E9, 0.0, 2022-05-06 12:41:00.290
