%OpenBCI Raw EEG Data
%Number of channels = 4
%Sample Rate = 200 Hz
%Board = OpenBCI_GUI$BoardGanglionBLE
Sample Index, EXG Channel 0, EXG Channel 1, EXG Channel 2, EXG Channel 3, Accel Channel 0, Accel Channel 1, Accel Channel 2, Other, Other, Other, Other, Other, Timestamp, Other, Timestamp (Formatted)
0.0, -301.32934927986935, -250.44053058279678, -242.97382032126188, -223.4777218522504, 0.0, 0.0, 0.0, 0.0, 0.0, 0.0, 0.0, 0.0, 1.6518372343569024E9, 0.0, 2022-05-06 12:40:34.356
1.0, -251.45404347078875, -119.46923413453624, -176.94214670360088, -172.7459789533168, 0.0, 0.06400000303983688, 0.0, 0.0, 0.0, 0.0, 0.0, 0.0, 1.6518372343699443E9, 0.0, 2022-05-06 12:40:34.369
1.0, -200.9691339689307, -49.480746363755316, -115.45071163214743, -148.74704093765467, 0.0, 0.06400000303983688, 0.0, 0.0, 0.0, 0.0, 0.0, 0.0, 1.6518372343699443E9, 0.0, 2022-05-06 12:40:34.369
2.0, -248.6191993043758, -184.11340486863628, -195.465871184133, -205.72067686263472, 0.06400000303983688, 0.06400000303983688, 0.0, 0.0, 0.0, 0.0, 0.0, 0.0, 1.6518372343868966E9, 0.0, 2022-05-06 12:40:34.386
2.0, -288.65108843008056, -248.7313963030465, -244.0396918086335, -225.71792192570865, 0.06400000303983688, 0.06400000303983688, 0.0, 0.0, 0.0, 0.0, 0.0, 0.0, 1.6518372343868966E9, 0.0, 2022-05-06 12:40:34.386
3.0, -264.0649861213751, -120.02273932797834, -172.02791816182435, -180.35667536314577, 0.06400000303983688, 0.06400000303983688, 0.0, 0.0, 0.0, 0.0, 0.0, 0.0, 1.6518372343879008E9, 0.0, 2022-05-06 12:40:34.387
3.0, -193.60901085613295, -53.82651011226699, -118.08360120095313, -149.09859153348953, 0.06400000303983688, 0.06400000303983688, 0.0, 0.0, 0.0, 0.0, 0.0, 0.0, 1.6518372343879008E9, 0.0, 2022-05-06 12:40:34.387
4.0, -263.8518118239008, -189.20340870833024, -198.92527864314616, -200.42123862542212, 0.06400000303983688, 0.06400000303983688, 0.0, 0.0, 0.0, 0.0, 0.0, 0.0, 1.6518372343989851E9, 0.0, 2022-05-06 12:40:34.398
4.0, -315.3988529131748, -265.1121581089683, -260.13996111787856, -240.78971874713898, 0.06400000303983688, 0.06400000303983688, 0.0, 0.0, 0.0, 0.0, 0.0, 0.0, 1.6518372343989851E9, 0.0, 2022-05-06 12:40:34.398
5.0, -260.53078066324815, -132.80197747657076, -175.30033062305301, -183.37477462738752, 0.06400000303983688, 0.06400000303983688, 0.0, 0.0, 0.0, 0.0, 0.0, 0.0, 1.6518372344149404E9, 0.0, 2022-05-06 12:40:34.414
5.0, -204.0021928329952, -70.1997921182774, -119.51224298402667, -135.82194669079036, 0.06400000303983688, 0.06400000303983688, 0.0, 0.0, 0.0, 0.0, 0.0, 0.0, 1.6518372344149404E9, 0.0, 2022-05-06 12:40:34.414
6.0, -247.37381261913106, -196.00628672773018, -199.542362135835, -206.82768724951893, 0.06400000303983688, 0.06400000303983688, 0.0, 0.0, 0.0, 0.0, 0.0, 0.0, 1.651837234415911E9, 0.0, 2022-05-06 12:40:34.415
6.0, -307.2084720102139, -263.8817310235463, -258.4158672383055, -246.39208888076246, 0.06400000303983688, 0.06400000303983688, 0.0, 0.0, 0.0, 0.0, 0.0, 0.0, 1.651837234415911E9, 0.0, 2022-05-06 12:40:34.415
7.0, -244.82320084935054, -119.39443613542244, -173.83428984042257, -184.91561340913177, 0.06400000303983688, 0.06400000303983688, 0.0, 0.0, 0.0, 0.0, 0.0, 0.0, 1.6518372344289448E9, 0.0, 2022-05-06 12:40:34.428
7.0, -186.19278924399987, -51.28711804235354, -108.36360121611506, -136.37919178418815, 0.06400000303983688, 0.06400000303983688, 0.0, 0.0, 0.0, 0.0, 0.0, 0.0, 1.6518372344289448E9, 0.0, 2022-05-06 12:40:34.428
8.0, -244.81946094939485, -175.96042296523228, -180.24447836447507, -170.47959958016872, 0.06400000303983688, 0.06400000303983688, 0.0, 0.0, 0.0, 0.0, 0.0, 0.0, 1.6518372344449492E9, 0.0, 2022-05-06 12:40:34.444
8.0, -298.6852400111966, -236.2812693505548, -226.59679841529578, -211.60727939289063, 0.06400000303983688, 0.06400000303983688, 0.0, 0.0, 0.0, 0.0, 0.0, 0.0, 1.6518372344449492E9, 0.0, 2022-05-06 12:40:34.444
9.0, -231.4231393081136, -95.71712951594964, -147.3296188544482, -156.0735049508512, 0.06400000303983688, 0.06400000303983688, 0.0, 0.0, 0.0, 0.0, 0.0, 0.0, 1.65183723444589E9, 0.0, 2022-05-06 12:40:34.445
9.0, -200.28099237708375, -56.747371977660805, -119.18687168788165, -148.97891473490745, 0.06400000303983688, 0.06400000303983688, 0.0, 0.0, 0.0, 0.0, 0.0, 0.0, 1.65183723444589E9, 0.0, 2022-05-06 12:40:34.445
10.0, -256.4767291112803, -208.58357027871534, -212.53477458190173, -214.1055325632915, 0.06400000303983688, 0.06400000303983688, 0.5120000243186951, 0.0, 0.0, 0.0, 0.0, 0.0, 1.6518372344759548E9, 0.0, 2022-05-06 12:40:34.475
10.0, -293.1614077766426, -254.5095417345874, -253.1164290010929, -239.98190035670996, 0.06400000303983688, 0.06400000303983688, 0.5120000243186951, 0.0, 0.0, 0.0, 0.0, 0.0, 1.6518372344759548E9, 0.0, 2022-05-06 12:40:34.475
11.0, -261.24136165482923, -118.56791824521497, -174.65332793071866, -191.69605202879757, 0.06400000303983688, 0.09600000455975533, 0.5120000243186951, 0.0, 0.0, 0.0, 0.0, 0.0, 1.651837234476882E9, 0.0, 2022-05-06 12:40:34.476
11.0, -209.20813357131556, -72.48487099120393, -121.76740265730768, -152.41214289423078, 0.06400000303983688, 0.09600000455975533, 0.5120000243186951, 0.0, 0.0, 0.0, 0.0, 0.0, 1.651837234476882E9, 0.0, 2022-05-06 12:40:34.476
12.0, -258.4326967881061, -220.85044213337824, -199.86773343198, -196.1278334762901, 0.11200000531971455, 0.09600000455975533, 0.5120000243186951, 0.0, 0.0, 0.0, 0.0, 0.0, 1.6518372344779296E9, 0.0, 2022-05-06 12:40:34.477
12.0, -302.3391222679056, -239.84913390828297, -236.19712160155177, -206.67435135133564, 0.11200000531971455, 0.09600000455975533, 0.5120000243186951, 0.0, 0.0, 0.0, 0.0, 0.0, 1.6518372344779296E9, 0.0, 2022-05-06 12:40:34.477
13.0, -226.8342820624821, -77.38040003320202, -149.76429372560233, -161.17472849041224, 0.11200000531971455, 0.09600000455975533, 0.5120000243186951, 0.0, 0.0, 0.0, 0.0, 0.0, 1.6518372344889429E9, 0.0, 2022-05-06 12:40:34.488
13.0, -190.5198534927331, -68.16902644233778, -117.47399750817567, -149.87649072427303, 0.11200000531971455, 0.09600000455975533, 0.5120000243186951, 0.0, 0.0, 0.0, 0.0, 0.0, 1.6518372344889429E9, 0.0, 2022-05-06 12:40:34.488
14.0, -278.3775832518004, -235.7988222562708, -221.48809507582337, -215.74734864383936, 0.11200000531971455, 0.09600000455975533, 0.5120000243186951, 0.0, 0.0, 0.0, 0.0, 0.0, 1.6518372345049496E9, 0.0, 2022-05-06 12:40:34.504
14.0, -298.8198764096014, -244.58758715214208, -247.5252785673365, -228.9192762877792, 0.11200000531971455, 0.09600000455975533, 0.5120000243186951, 0.0, 0.0, 0.0, 0.0, 0.0, 1.6518372345049496E9, 0.0, 2022-05-06 12:40:34.504
15.0, -221.32540942775086, -68.6813927362673, -135.6536511927843, -146.35350496601313, 0.11200000531971455, 0.09600000455975533, 0.5120000243186951, 0.0, 0.0, 0.0, 0.0, 0.0, 1.6518372345058956E9, 0.0, 2022-05-06 12:40:34.505
15.0, -192.2252478725277, -64.24587138881907, -116.08275472465903, -147.26230065524578, 0.11200000531971455, 0.09600000455975533, 0.5120000243186951, 0.0, 0.0, 0.0, 0.0, 0.0, 1.6518372345058956E9, 0.0, 2022-05-06 12:40:34.505
16.0, -281.6612154128961, -242.34738707868382, -217.138591427356, -212.6207922808826, 0.11200000531971455, 0.09600000455975533, 0.5120000243186951, 0.0, 0.0, 0.0, 0.0, 0.0, 1.6518372345189526E9, 0.0, 2022-05-06 12:40:34.518
16.0, -289.0362981255166, -236.25882995082065, -237.50234668608755, -200.74287002161145, 0.11200000531971455, 0.09600000455975533, 0.5120000243186951, 0.0, 0.0, 0.0, 0.0, 0.0, 1.6518372345189526E9, 0.0, 2022-05-06 12:40:34.518
17.0, -208.3068176819943, -65.58101567300037, -140.28364733792841, -156.0323660513386, 0.11200000531971455, 0.09600000455975533, 0.5120000243186951, 0.0, 0.0, 0.0, 0.0, 0.0, 1.651837234534946E9, 0.0, 2022-05-06 12:40:34.534
17.0, -216.20548638841137, -75.81712185172364, -124.37411292642355, -163.51590586267412, 0.11200000531971455, 0.09600000455975533, 0.5120000243186951, 0.0, 0.0, 0.0, 0.0, 0.0, 1.651837234534946E9, 0.0, 2022-05-06 12:40:34.534
18.0, -283.9388144859113, -243.00186957092956, -228.5565059920773, -222.61754486244172, 0.11200000531971455, 0.09600000455975533, 0.5120000243186951, 0.0, 0.0, 0.0, 0.0, 0.0, 1.6518372345359125E9, 0.0, 2022-05-06 12:40:34.535
18.0, -300.73470518691465, -241.66298538679257, -248.29195805825293, -233.84098462946713, 0.11200000531971455, 0.09600000455975533, 0.5120000243186951, 0.0, 0.0, 0.0, 0.0, 0.0, 1.6518372345359125E9, 0.0, 2022-05-06 12:40:34.535
19.0, -218.29983036359772, -72.10340119572356, -138.86996515467763, -160.79325869493186, 0.11200000531971455, 0.09600000455975533, 0.5120000243186951, 0.0, 0.0, 0.0, 0.0, 0.0, 1.6518372345489523E9, 0.0, 2022-05-06 12:40:34.548
19.0, -203.08591734385118, -73.2777297818102, -117.28326261043549, -146.46570196468383, 0.11200000531971455, 0.09600000455975533, 0.5120000243186951, 0.0, 0.0, 0.0, 0.0, 0.0, 1.6518372345489523E9, 0.0, 2022-05-06 12:40:34.548
20.0, -266.79885298898444, -234.49359717173502, -208.89585192501545, -190.85457453876734, 0.11200000531971455, 0.09600000455975533, 0.7680000364780426, 0.0, 0.0, 0.0, 0.0, 0.0, 1.6518372345649698E9, 0.0, 2022-05-06 12:40:34.564
20.0, -290.69307380588725, -222.70543251140043, -232.24778724834323, -199.3516272380948, 0.11200000531971455, 0.09600000455975533, 0.7680000364780426, 0.0, 0.0, 0.0, 0.0, 0.0, 1.6518372345649698E9, 0.0, 2022-05-06 12:40:34.564
21.0, -214.5636703078635, -67.39860705146566, -147.5839320514351, -176.46343950927258, 0.11200000531971455, 0.11200000531971455, 0.7680000364780426, 0.0, 0.0, 0.0, 0.0, 0.0, 1.6518372345659013E9, 0.0, 2022-05-06 12:40:34.565
21.0, -208.80422437610105, -80.12548660067841, -122.5752210477367, -162.5210924744606, 0.11200000531971455, 0.11200000531971455, 0.7680000364780426, 0.0, 0.0, 0.0, 0.0, 0.0, 1.6518372345659013E9, 0.0, 2022-05-06 12:40:34.565
22.0, -286.01819886127487, -250.74346247920766, -232.6329969437793, -231.3315117591992, 0.12800000607967377, 0.11200000531971455, 0.7680000364780426, 0.0, 0.0, 0.0, 0.0, 0.0, 1.6518372345789447E9, 0.0, 2022-05-06 12:40:34.578
22.0, -319.7969752610661, -250.57142708124593, -257.047063854523, -245.0008460972458, 0.12800000607967377, 0.11200000531971455, 0.7680000364780426, 0.0, 0.0, 0.0, 0.0, 0.0, 1.6518372345789447E9, 0.0, 2022-05-06 12:40:34.578
23.0, -225.44303927896544, -69.93425922142342, -139.00086165312678, -156.80278544221073, 0.12800000607967377, 0.11200000531971455, 0.7680000364780426, 0.0, 0.0, 0.0, 0.0, 0.0, 1.6518372345950344E9, 0.0, 2022-05-06 12:40:34.595
23.0, -198.4484413987957, -74.18652547104284, -111.18348578270525, -136.75692167971283, 0.12800000607967377, 0.11200000531971455, 0.7680000364780426, 0.0, 0.0, 0.0, 0.0, 0.0, 1.6518372345950344E9, 0.0, 2022-05-06 12:40:34.595
24.0, -284.50353937922046, -248.86603270145133, -230.15718317311257, -210.67230440396816, 0.12800000607967377, 0.11200000531971455, 0.7680000364780426, 0.0, 0.0, 0.0, 0.0, 0.0, 1.6518372345959122E9, 0.0, 2022-05-06 12:40:34.595
24.0, -305.989264624659, -243.07292767008767, -252.72373950574547, -232.2926660478115, 0.12800000607967377, 0.11200000531971455, 0.7680000364780426, 0.0, 0.0, 0.0, 0.0, 0.0, 1.6518372345959122E9, 0.0, 2022-05-06 12:40:34.595
25.0, -233.74935708055273, -75.52914955513552, -145.63170427456498, -162.13962267898023, 0.12800000607967377, 0.11200000531971455, 0.7680000364780426, 0.0, 0.0, 0.0, 0.0, 0.0, 1.6518372346090055E9, 0.0, 2022-05-06 12:40:34.609
25.0, -210.7153132534586, -82.79577516904101, -133.36857231985778, -154.04647917486727, 0.12800000607967377, 0.11200000531971455, 0.7680000364780426, 0.0, 0.0, 0.0, 0.0, 0.0, 1.6518372346090055E9, 0.0, 2022-05-06 12:40:34.609
26.0, -276.0812846790068, -249.6962904916145, -227.60657140333205, -220.14921089168638, 0.12800000607967377, 0.11200000531971455, 0.7680000364780426, 0.0, 0.0, 0.0, 0.0, 0.0, 1.6518372346249723E9, 0.0, 2022-05-06 12:40:34.624
26.0, -310.04331617662683, -242.33990727877244, -249.95621353853494, -231.01362026296556, 0.12800000607967377, 0.11200000531971455, 0.7680000364780426, 0.0, 0.0, 0.0, 0.0, 0.0, 1.6518372346249723E9, 0.0, 2022-05-06 12:40:34.624
27.0, -227.73933785175905, -72.18941889470443, -143.64207749813795, -167.18100781925023, 0.12800000607967377, 0.11200000531971455, 0.7680000364780426, 0.0, 0.0, 0.0, 0.0, 0.0, 1.6518372346258945E9, 0.0, 2022-05-06 12:40:34.625
27.0, -212.820876928512, -83.67091175867245, -126.5769140003249, -155.46764115802944, 0.12800000607967377, 0.11200000531971455, 0.7680000364780426, 0.0, 0.0, 0.0, 0.0, 0.0, 1.6518372346258945E9, 0.0, 2022-05-06 12:40:34.625
28.0, -291.10820270096883, -250.96785647654906, -228.20869529619813, -227.23632130771875, 0.12800000607967377, 0.11200000531971455, 0.7680000364780426, 0.0, 0.0, 0.0, 0.0, 0.0, 1.6518372346389449E9, 0.0, 2022-05-06 12:40:34.638
28.0, -302.6009152648039, -237.7996687325649, -245.03450519684702, -231.58208505623043, 0.12800000607967377, 0.11200000531971455, 0.7680000364780426, 0.0, 0.0, 0.0, 0.0, 0.0, 1.6518372346389449E9, 0.0, 2022-05-06 12:40:34.638
29.0, -231.70363180479035, -72.18567899474874, -132.99832222424448, -154.72714096680284, 0.12800000607967377, 0.11200000531971455, 0.7680000364780426, 0.0, 0.0, 0.0, 0.0, 0.0, 1.651837234654968E9, 0.0, 2022-05-06 12:40:34.654
29.0, -211.0780835491605, -80.4994765962474, -129.74834916274995, -150.97976121120155, 0.12800000607967377, 0.11200000531971455, 0.7680000364780426, 0.0, 0.0, 0.0, 0.0, 0.0, 1.651837234654968E9, 0.0, 2022-05-06 12:40:34.654
30.0, -293.8645089683123, -245.4702035416849, -232.54697924479842, -218.6270716097206, 0.12800000607967377, 0.11200000531971455, 0.8960000425577164, 0.0, 0.0, 0.0, 0.0, 0.0, 1.6518372346559217E9, 0.0, 2022-05-06 12:40:34.655
30.0, -305.07672903547063, -230.8284952151589, -238.09325087908655, -225.09709853306413, 0.12800000607967377, 0.11200000531971455, 0.8960000425577164, 0.0, 0.0, 0.0, 0.0, 0.0, 1.6518372346559217E9, 0.0, 2022-05-06 12:40:34.655
31.0, -236.84599424386397, -74.88214686280116, -147.48295475263149, -180.67082695942372, 0.12800000607967377, 0.11200000531971455, 0.8960000425577164, 0.0, 0.0, 0.0, 0.0, 0.0, 1.6518372346689415E9, 0.0, 2022-05-06 12:40:34.668
31.0, -210.62181575456634, -86.03826843062416, -125.37640611454844, -156.11838375031948, 0.12800000607967377, 0.11200000531971455, 0.8960000425577164, 0.0, 0.0, 0.0, 0.0, 0.0, 1.6518372346689415E9, 0.0, 2022-05-06 12:40:34.668
32.0, -281.57893761387095, -244.53522855276242, -225.04473993368447, -220.6615771856159, 0.12800000607967377, 0.11200000531971455, 0.8960000425577164, 0.0, 0.0, 0.0, 0.0, 0.0, 1.651837234684974E9, 0.0, 2022-05-06 12:40:34.684
32.0, -301.3069098801352, -229.14180033514276, -241.5264790384099, -227.41957640554756, 0.12800000607967377, 0.11200000531971455, 0.8960000425577164, 0.0, 0.0, 0.0, 0.0, 0.0, 1.651837234684974E9, 0.0, 2022-05-06 12:40:34.684
33.0, -233.21081148693338, -67.5295035499148, -137.33660617284477, -164.7500728480518, 0.12800000607967377, 0.11200000531971455, 0.8960000425577164, 0.0, 0.0, 0.0, 0.0, 0.0, 1.6518372346859117E9, 0.0, 2022-05-06 12:40:34.685
33.0, -204.3387838290073, -79.6879183058627, -123.71963043417782, -157.20669463742524, 0.12800000607967377, 0.11200000531971455, 0.8960000425577164, 0.0, 0.0, 0.0, 0.0, 0.0, 1.6518372346859117E9, 0.0, 2022-05-06 12:40:34.685
34.0, -296.8190299333073, -260.26898766634986, -229.75701387785375, -229.3344051828608, 0.12800000607967377, 0.11200000531971455, 0.8960000425577164, 0.0, 0.0, 0.0, 0.0, 0.0, 1.6518372346989589E9, 0.0, 2022-05-06 12:40:34.698
34.0, -307.93027270166203, -236.40842594904825, -244.90734859835356, -216.6636241329834, 0.12800000607967377, 0.11200000531971455, 0.8960000425577164, 0.0, 0.0, 0.0, 0.0, 0.0, 1.6518372346989589E9, 0.0, 2022-05-06 12:40:34.698
35.0, -233.02755638910457, -68.65147353662178, -142.8492187075317, -175.66684081871063, 0.12800000607967377, 0.11200000531971455, 0.8960000425577164, 0.0, 0.0, 0.0, 0.0, 0.0, 1.6518372347149603E9, 0.0, 2022-05-06 12:40:34.714
35.0, -207.91786808660254, -88.1326124058105, -124.59476702380925, -153.20874158479273, 0.12800000607967377, 0.11200000531971455, 0.8960000425577164, 0.0, 0.0, 0.0, 0.0, 0.0, 1.6518372347149603E9, 0.0, 2022-05-06 12:40:34.714
36.0, -284.06597108440474, -243.45813736552373, -233.47073453385383, -220.8822312830016, 0.12800000607967377, 0.11200000531971455, 0.8960000425577164, 0.0, 0.0, 0.0, 0.0, 0.0, 1.6518372347159088E9, 0.0, 2022-05-06 12:40:34.715
36.0, -295.1921734525822, -227.93007274949923, -241.78827203530818, -225.81889922451228, 0.12800000607967377, 0.11200000531971455, 0.8960000425577164, 0.0, 0.0, 0.0, 0.0, 0.0, 1.6518372347159088E9, 0.0, 2022-05-06 12:40:34.715
37.0, -211.68394734198228, -60.56206993246451, -133.85849921405315, -153.71362807881087, 0.12800000607967377, 0.11200000531971455, 0.8960000425577164, 0.0, 0.0, 0.0, 0.0, 0.0, 1.6518372347289755E9, 0.0, 2022-05-06 12:40:34.728
37.0, -224.5305036897771, -90.23069628095254, -131.22934954520315, -157.6629624320194, 0.12800000607967377, 0.11200000531971455, 0.8960000425577164, 0.0, 0.0, 0.0, 0.0, 0.0, 1.6518372347289755E9, 0.0, 2022-05-06 12:40:34.728
38.0, -284.4100418803282, -245.8030546377413, -227.4457557052374, -218.74300850834697, 0.12800000607967377, 0.11200000531971455, 0.8960000425577164, 0.0, 0.0, 0.0, 0.0, 0.0, 1.6518372347450624E9, 0.0, 2022-05-06 12:40:34.745
38.0, -290.599576306995, -220.02766414312646, -232.75267374236137, -222.05655986908823, 0.12800000607967377, 0.11200000531971455, 0.8960000425577164, 0.0, 0.0, 0.0, 0.0, 0.0, 1.6518372347450624E9, 0.0, 2022-05-06 12:40:34.745
39.0, -207.39428209280595, -59.01749125076458, -129.35191976744682, -152.0755518982187, 0.12800000607967377, 0.11200000531971455, 0.8960000425577164, 0.0, 0.0, 0.0, 0.0, 0.0, 1.6518372347459216E9, 0.0, 2022-05-06 12:40:34.745
39.0, -228.7565906397067, -86.85730652092025, -126.6554518993944, -157.64426293224096, 0.12800000607967377, 0.11200000531971455, 0.8960000425577164, 0.0, 0.0, 0.0, 0.0, 0.0, 1.6518372347459216E9, 0.0, 2022-05-06 12:40:34.745
40.0, -289.05873752525076, -244.71848365059122, -227.812265900895, -216.5140281347558, 0.12800000607967377, 0.11200000531971455, 0.9600000455975533, 0.0, 0.0, 0.0, 0.0, 0.0, 1.6518372347589457E9, 0.0, 2022-05-06 12:40:34.758
40.0, -302.4924581660889, -225.91052677342668, -237.73422048334032, -217.66965722106397, 0.12800000607967377, 0.11200000531971455, 0.9600000455975533, 0.0, 0.0, 0.0, 0.0, 0.0, 1.6518372347589457E9, 0.0, 2022-05-06 12:40:34.758
41.0, -232.89291999069974, -66.59078866103664, -134.32972660847008, -155.35918405931443, 0.12800000607967377, 0.12800000607967377, 0.9600000455975533, 0.0, 0.0, 0.0, 0.0, 0.0, 1.6518372347749557E9, 0.0, 2022-05-06 12:40:34.774
41.0, -215.0461174021475, -87.20137731684372, -133.52190821804106, -167.33060381747782, 0.12800000607967377, 0.12800000607967377, 0.9600000455975533, 0.0, 0.0, 0.0, 0.0, 0.0, 1.6518372347749557E9, 0.0, 2022-05-06 12:40:34.774
42.0, -290.21810651151463, -252.8004074548371, -240.86451674625278, -237.8127583824098, 0.12800000607967377, 0.12800000607967377, 0.9600000455975533, 0.0, 0.0, 0.0, 0.0, 0.0, 1.6518372347759023E9, 0.0, 2022-05-06 12:40:34.775
42.0, -303.5358902537264, -228.07218894781545, -239.8510038582608, -228.45178879331797, 0.12800000607967377, 0.12800000607967377, 0.9600000455975533, 0.0, 0.0, 0.0, 0.0, 0.0, 1.6518372347759023E9, 0.0, 2022-05-06 12:40:34.775
43.0, -227.66827975260094, -56.6763138785027, -139.01956115290523, -162.30791817698628, 0.12800000607967377, 0.12800000607967377, 0.9600000455975533, 0.0, 0.0, 0.0, 0.0, 0.0, 1.6518372347890036E9, 0.0, 2022-05-06 12:40:34.789
43.0, -210.58815665496513, -90.93379747262225, -130.03258155938238, -156.35773734748363, 0.12800000607967377, 0.12800000607967377, 0.9600000455975533, 0.0, 0.0, 0.0, 0.0, 0.0, 1.6518372347890036E9, 0.0, 2022-05-06 12:40:34.789
44.0, -284.1258094836958, -250.7659018789418, -229.95522857550532, -215.474335947074, 0.12800000607967377, 0.12800000607967377, 0.9600000455975533, 0.0, 0.0, 0.0, 0.0, 0.0, 1.6518372348049767E9, 0.0, 2022-05-06 12:40:34.804
44.0, -297.4211538261734, -222.72413201117888, -241.5264790384099, -232.0757518503815, 0.12800000607967377, 0.12800000607967377, 0.9600000455975533, 0.0, 0.0, 0.0, 0.0, 0.0, 1.6518372348049767E9, 0.0, 2022-05-06 12:40:34.804
45.0, -226.40419356757775, -56.58281637961045, -132.9123045252636, -154.41672927048057, 0.12800000607967377, 0.12800000607967377, 0.9600000455975533, 0.0, 0.0, 0.0, 0.0, 0.0, 1.6518372348059268E9, 0.0, 2022-05-06 12:40:34.805
45.0, -221.2019927292131, -98.27522108564153, -136.38293168414384, -160.77081929519773, 0.12800000607967377, 0.12800000607967377, 0.9600000455975533, 0.0, 0.0, 0.0, 0.0, 0.0, 1.6518372348059268E9, 0.0, 2022-05-06 12:40:34.805
46.0, -288.235959534999, -256.57022661017254, -236.8890030933544, -220.4783220877871, 0.12800000607967377, 0.12800000607967377, 0.9600000455975533, 0.0, 0.0, 0.0, 0.0, 0.0, 1.651837234818952E9, 0.0, 2022-05-06 12:40:34.818
46.0, -305.4694185308181, -230.17775262286887, -247.24478607065976, -237.31161178834736, 0.12800000607967377, 0.12800000607967377, 0.9600000455975533, 0.0, 0.0, 0.0, 0.0, 0.0, 1.651837234818952E9, 0.0, 2022-05-06 12:40:34.818
47.0, -224.56416278937832, -61.76257781824097, -132.5794534292072, -160.89797589369118, 0.12800000607967377, 0.12800000607967377, 0.9600000455975533, 0.0, 0.0, 0.0, 0.0, 0.0, 1.6518372348509645E9, 0.0, 2022-05-06 12:40:34.850
47.0, -194.0390993510373, -80.71265089372173, -118.02750270161778, -137.72181586828083, 0.12800000607967377, 0.12800000607967377, 0.9600000455975533, 0.0, 0.0, 0.0, 0.0, 0.0, 1.6518372348509645E9, 0.0, 2022-05-06 12:40:34.850
48.0, -298.861015309114, -254.6553978328593, -234.91059601679444, -217.49014202319086, 0.12800000607967377, 0.12800000607967377, 0.9600000455975533, 0.0, 0.0, 0.0, 0.0, 0.0, 1.65183723485189E9, 0.0, 2022-05-06 12:40:34.851
48.0, -313.77947623236105, -235.14059986406937, -247.51405886746943, -228.3358518946916, 0.12800000607967377, 0.12800000607967377, 0.9600000455975533, 0.0, 0.0, 0.0, 0.0, 0.0, 1.65183723485189E9, 0.0, 2022-05-06 12:40:34.851
49.0, -230.10669452371076, -64.25335118873045, -138.9933818532154, -169.7839781884104, 0.12800000607967377, 0.12800000607967377, 0.9600000455975533, 0.0, 0.0, 0.0, 0.0, 0.0, 1.65183723485288E9, 0.0, 2022-05-06 12:40:34.852
49.0, -208.64340867800638, -96.52494790637866, -131.79407443851233, -160.43796819914132, 0.12800000607967377, 0.12800000607967377, 0.9600000455975533, 0.0, 0.0, 0.0, 0.0, 0.0, 1.65183723485288E9, 0.0, 2022-05-06 12:40:34.852
50.0, -288.2023004353978, -259.26669447822496, -241.51151943858713, -229.8542512767017, 0.12800000607967377, 0.12800000607967377, 0.9920000471174717, 0.0, 0.0, 0.0, 0.0, 0.0, 1.6518372348539183E9, 0.0, 2022-05-06 12:40:34.853
50.0, -316.0308960056864, -229.04456293629482, -240.50548635050654, -229.30822588317096, 0.12800000607967377, 0.12800000607967377, 0.9920000471174717, 0.0, 0.0, 0.0, 0.0, 0.0, 1.6518372348539183E9, 0.0, 2022-05-06 12:40:34.853
51.0, -206.57150410255417, -52.09119653282687, -118.07238150108606, -130.7618620507419, 0.12800000607967377, 0.12800000607967377, 0.9920000471174717, 0.0, 0.0, 0.0, 0.0, 0.0, 1.651837234863937E9, 0.0, 2022-05-06 12:40:34.863
51.0, -205.0456249206327, -93.05058084754273, -131.78285473864526, -151.97083469945937, 0.12800000607967377, 0.12800000607967377, 0.9920000471174717, 0.0, 0.0, 0.0, 0.0, 0.0, 1.651837234863937E9, 0.0, 2022-05-06 12:40:34.863
52.0, -297.9783989195712, -261.8023466481827, -249.98239283822477, -240.12027665507048, 0.12800000607967377, 0.12800000607967377, 0.9920000471174717, 0.0, 0.0, 0.0, 0.0, 0.0, 1.6518372348789573E9, 0.0, 2022-05-06 12:40:34.878
52.0, -310.7576370681636, -232.3506344971247, -251.8261635163799, -249.08855674881488, 0.12800000607967377, 0.12800000607967377, 0.9920000471174717, 0.0, 0.0, 0.0, 0.0, 0.0, 1.6518372348789573E9, 0.0, 2022-05-06 12:40:34.878
53.0, -237.70991113362834, -74.66897256532684, -148.30573274288327, -175.9772525150329, 0.12800000607967377, 0.12800000607967377, 0.9920000471174717, 0.0, 0.0, 0.0, 0.0, 0.0, 1.65183723489496E9, 0.0, 2022-05-06 12:40:34.894
53.0, -224.52302388986573, -105.02574050566182, -141.37943802494556, -168.13094240799546, 0.12800000607967377, 0.12800000607967377, 0.9920000471174717, 0.0, 0.0, 0.0, 0.0, 0.0, 1.65183723489496E9, 0.0, 2022-05-06 12:40:34.894
54.0, -289.76557861687616, -254.74515543179587, -235.3668638113886, -220.39230438880622, 0.12800000607967377, 0.12800000607967377, 0.9920000471174717, 0.0, 0.0, 0.0, 0.0, 0.0, 1.6518372348959067E9, 0.0, 2022-05-06 12:40:34.895
54.0, -301.22089218115434, -219.8294494454749, -239.34237746428698, -224.38277764152735, 0.12800000607967377, 0.12800000607967377, 0.9920000471174717, 0.0, 0.0, 0.0, 0.0, 0.0, 1.6518372348959067E9, 0.0, 2022-05-06 12:40:34.895
55.0, -222.65681381197646, -57.147541272919625, -136.64098478108644, -158.57923792116344, 0.12800000607967377, 0.12800000607967377, 0.9920000471174717, 0.0, 0.0, 0.0, 0.0, 0.0, 1.6518372349089465E9, 0.0, 2022-05-06 12:40:34.908
55.0, -214.9002613038756, -97.22430919809267, -132.5046554300934, -160.5165060982108, 0.12800000607967377, 0.12800000607967377, 0.9920000471174717, 0.0, 0.0, 0.0, 0.0, 0.0, 1.6518372349089465E9, 0.0, 2022-05-06 12:40:34.908
56.0, -282.5961904018186, -231.91306620230898, -219.25911470223218, -212.28046138491482, 0.12800000607967377, 0.12800000607967377, 0.9920000471174717, 0.0, 0.0, 0.0, 0.0, 0.0, 1.6518372349249656E9, 0.0, 2022-05-06 12:40:34.924
56.0, -301.4116270788945, -228.43869914347306, -241.25346634164453, -220.33246598951519, 0.12800000607967377, 0.12800000607967377, 0.9920000471174717, 0.0, 0.0, 0.0, 0.0, 0.0, 1.6518372349249656E9, 0.0, 2022-05-06 12:40:34.924
57.0, -239.00391651829705, -75.15889945952222, -142.737021708861, -155.71447455510497, 0.12800000607967377, 0.12800000607967377, 0.9920000471174717, 0.0, 0.0, 0.0, 0.0, 0.0, 1.6518372349259026E9, 0.0, 2022-05-06 12:40:34.925
57.0, -221.71061912318692, -102.36667163716629, -142.29945341404527, -166.73595972452313, 0.12800000607967377, 0.12800000607967377, 0.9920000471174717, 0.0, 0.0, 0.0, 0.0, 0.0, 1.6518372349259026E9, 0.0, 2022-05-06 12:40:34.925
58.0, -280.2662327294238, -237.29104233859107, -224.39399734139442, -211.86533248983324, 0.12800000607967377, 0.12800000607967377, 0.9920000471174717, 0.0, 0.0, 0.0, 0.0, 0.0, 1.651837234938958E9, 0.0, 2022-05-06 12:40:34.938
58.0, -299.69875289918855, -223.91342019708827, -236.23078070115298, -204.96147717162967, 0.12800000607967377, 0.12800000607967377, 0.9920000471174717, 0.0, 0.0, 0.0, 0.0, 0.0, 1.651837234938958E9, 0.0, 2022-05-06 12:40:34.938
59.0, -234.66189266974106, -79.41116570914164, -150.7404076140374, -169.8176372880116, 0.12800000607967377, 0.12800000607967377, 0.9920000471174717, 0.0, 0.0, 0.0, 0.0, 0.0, 1.6518372349549701E9, 0.0, 2022-05-06 12:40:34.954
59.0, -196.297998924274, -83.34928036248311, -128.80963427387178, -152.12417059764266, 0.12800000607967377, 0.12800000607967377, 0.9920000471174717, 0.0, 0.0, 0.0, 0.0, 0.0, 1.6518372349549701E9, 0.0, 2022-05-06 12:40:34.954
60.0, -281.98658670904115, -240.40637900168076, -233.9681412279606, -224.27806044276804, 0.12800000607967377, 0.12800000607967377, 1.008000047877431, 0.0, 0.0, 0.0, 0.0, 0.0, 1.6518372349559047E9, 0.0, 2022-05-06 12:40:34.955
60.0, -316.3824466015212, -226.9389992612414, -242.4838934270665, -229.6597764790058, 0.12800000607967377, 0.12800000607967377, 1.008000047877431, 0.0, 0.0, 0.0, 0.0, 0.0, 1.6518372349559047E9, 0.0, 2022-05-06 12:40:34.955
61.0, -233.27064988622442, -73.40862628025934, -141.87310481909662, -165.90196203440428, 0.12800000607967377, 0.12800000607967377, 1.008000047877431, 0.0, 0.0, 0.0, 0.0, 0.0, 1.6518372349689443E9, 0.0, 2022-05-06 12:40:34.968
61.0, -207.16988809546456, -84.5049094487913, -126.25902250409126, -149.8091725250706, 0.12800000607967377, 0.12800000607967377, 1.008000047877431, 0.0, 0.0, 0.0, 0.0, 0.0, 1.6518372349689443E9, 0.0, 2022-05-06 12:40:34.968
62.0, -280.21387413004413, -240.76914929738268, -227.79730630107224, -216.19239673856646, 0.12800000607967377, 0.12800000607967377, 1.008000047877431, 0.0, 0.0, 0.0, 0.0, 0.0, 1.651837234984944E9, 0.0, 2022-05-06 12:40:34.984
62.0, -293.6438548709266, -230.36848752060905, -240.8906960459426, -224.57351253926754, 0.12800000607967377, 0.12800000607967377, 1.008000047877431, 0.0, 0.0, 0.0, 0.0, 0.0, 1.651837234984944E9, 0.0, 2022-05-06 12:40:34.984
63.0, -228.29658294515684, -77.14478633599356, -146.8509116601199, -159.73112710751593, 0.12800000607967377, 0.12800000607967377, 1.008000047877431, 0.0, 0.0, 0.0, 0.0, 0.0, 1.6518372349859154E9, 0.0, 2022-05-06 12:40:34.985
63.0, -231.86070760292932, -102.78554043220356, -148.0738589456305, -172.10645606089383, 0.12800000607967377, 0.12800000607967377, 1.008000047877431, 0.0, 0.0, 0.0, 0.0, 0.0, 1.6518372349859154E9, 0.0, 2022-05-06 12:40:34.985
64.0, -279.2714193412103, -237.12274684058502, -226.93712931126356, -220.05571339279413, 0.12800000607967377, 0.12800000607967377, 1.008000047877431, 0.0, 0.0, 0.0, 0.0, 0.0, 1.6518372349989529E9, 0.0, 2022-05-06 12:40:34.998
64.0, -294.0814231657423, -222.51843751361594, -236.95632129255682, -218.9187838062644, 0.12800000607967377, 0.12800000607967377, 1.008000047877431, 0.0, 0.0, 0.0, 0.0, 0.0, 1.6518372349989529E9, 0.0, 2022-05-06 12:40:34.998
65.0, -238.5364290238358, -70.03897642018273, -136.3230932848528, -156.1894418494776, 0.12800000607967377, 0.12800000607967377, 1.008000047877431, 0.0, 0.0, 0.0, 0.0, 0.0, 1.6518372350319874E9, 0.0, 2022-05-06 12:40:35.031
65.0, -202.9662405452691, -86.15420532925054, -119.833874380216, -150.50105401687324, 0.12800000607967377, 0.12800000607967377, 1.008000047877431, 0.0, 0.0, 0.0, 0.0, 0.0, 1.6518372350319874E9, 0.0, 2022-05-06 12:40:35.031
66.0, -273.27261981228366, -235.43979186052456, -226.38362411782146, -212.49737558234483, 0.12800000607967377, 0.12800000607967377, 1.008000047877431, 0.0, 0.0, 0.0, 0.0, 0.0, 1.6518372350329204E9, 0.0, 2022-05-06 12:40:35.032
66.0, -301.29943008022383, -226.00776417227462, -242.8915425222367, -221.09540558047593, 0.12800000607967377, 0.12800000607967377, 1.008000047877431, 0.0, 0.0, 0.0, 0.0, 0.0, 1.6518372350329204E9, 0.0, 2022-05-06 12:40:35.032
67.0, -226.1311808708124, -66.62444776063785, -141.90676391869783, -158.42590202298015, 0.12800000607967377, 0.12800000607967377, 1.008000047877431, 0.0, 0.0, 0.0, 0.0, 0.0, 1.6518372350338933E9, 0.0, 2022-05-06 12:40:35.033
67.0, -204.27894542971626, -99.84971896698698, -135.2534818975255, -159.24120021332055, 0.12800000607967377, 0.12800000607967377, 1.008000047877431, 0.0, 0.0, 0.0, 0.0, 0.0, 1.6518372350338933E9, 0.0, 2022-05-06 12:40:35.033
68.0, -288.50523233180866, -243.77976876171306, -233.68390883132815, -218.30918011348695, 0.12800000607967377, 0.12800000607967377, 1.008000047877431, 0.0, 0.0, 0.0, 0.0, 0.0, 1.6518372350349302E9, 0.0, 2022-05-06 12:40:35.034
68.0, -296.497398537118, -219.6013155481778, -232.37868374679238, -219.33391270134598, 0.12800000607967377, 0.12800000607967377, 1.008000047877431, 0.0, 0.0, 0.0, 0.0, 0.0, 1.6518372350349302E9, 0.0, 2022-05-06 12:40:35.034
69.0, -226.11996117094532, -66.02606376772746, -138.48475545924157, -157.09823753871024, 0.12800000607967377, 0.12800000607967377, 1.008000047877431, 0.0, 0.0, 0.0, 0.0, 0.0, 1.651837235043936E9, 0.0, 2022-05-06 12:40:35.043
69.0, -211.33239674614742, -94.27726803300902, -124.10484012961388, -145.68780277390033, 0.12800000607967377, 0.12800000607967377, 1.008000047877431, 0.0, 0.0, 0.0, 0.0, 0.0, 1.651837235043936E9, 0.0, 2022-05-06 12:40:35.043
70.0, -273.13424351392314, -234.276682974305, -216.00914164073765, -205.1709115691483, 0.12800000607967377, 0.12800000607967377, 1.008000047877431, 0.0, 0.0, 0.0, 0.0, 0.0, 1.6518372350589943E9, 0.0, 2022-05-06 12:40:35.058
70.0, -289.5000457200222, -217.10680227773264, -238.80757177062333, -226.5145206162706, 0.12800000607967377, 0.12800000607967377, 1.008000047877431, 0.0, 0.0, 0.0, 0.0, 0.0, 1.6518372350589943E9, 0.0, 2022-05-06 12:40:35.058
71.0, -220.91776033258066, -58.24707185989246, -127.13041919376701, -143.98240839410573, 0.12800000607967377, 0.11200000531971455, 1.008000047877431, 0.0, 0.0, 0.0, 0.0, 0.0, 1.6518372350749972E9, 0.0, 2022-05-06 12:40:35.074
71.0, -206.06661760853603, -88.86563279712573, -122.48546344880015, -144.06094629317522, 0.12800000607967377, 0.11200000531971455, 1.008000047877431, 0.0, 0.0, 0.0, 0.0, 0.0, 1.6518372350749972E9, 0.0, 2022-05-06 12:40:35.074
72.0, -264.59979181503877, -226.29573646886274, -204.6884644748643, -190.51050374284387, 0.12800000607967377, 0.11200000531971455, 1.008000047877431, 0.0, 0.0, 0.0, 0.0, 0.0, 1.651837235075897E9, 0.0, 2022-05-06 12:40:35.075
72.0, -293.29230427509174, -219.3470023511909, -234.4805075218901, -218.60837210994214, 0.12800000607967377, 0.11200000531971455, 1.008000047877431, 0.0, 0.0, 0.0, 0.0, 0.0, 1.651837235075897E9, 0.0, 2022-05-06 12:40:35.075
73.0, -228.96228513726965, -75.68996525323018, -146.98180815856904, -173.37054224591702, 0.12800000607967377, 0.11200000531971455, 1.008000047877431, 0.0, 0.0, 0.0, 0.0, 0.0, 1.6518372350890312E9, 0.0, 2022-05-06 12:40:35.089
73.0, -183.7730739726685, -89.12368589406833, -119.04101558960974, -144.52843378763646, 0.12800000607967377, 0.11200000531971455, 1.008000047877431, 0.0, 0.0, 0.0, 0.0, 0.0, 1.6518372350890312E9, 0.0, 2022-05-06 12:40:35.089
74.0, -288.54263133136556, -250.51906848186627, -233.82228512968868, -227.43079610541463, 0.12800000607967377, 0.11200000531971455, 1.008000047877431, 0.0, 0.0, 0.0, 0.0, 0.0, 1.651837235104961E9, 0.0, 2022-05-06 12:40:35.104
74.0, -304.55314304167405, -219.59009584831074, -234.34213122352958, -223.80309314839542, 0.12800000607967377, 0.11200000531971455, 1.008000047877431, 0.0, 0.0, 0.0, 0.0, 0.0, 1.651837235104961E9, 0.0, 2022-05-06 12:40:35.104
75.0, -209.38764876918867, -59.06610995018855, -127.54928798880428, -151.23781430814415, 0.12800000607967377, 0.11200000531971455, 1.008000047877431, 0.0, 0.0, 0.0, 0.0, 0.0, 1.651837235105919E9, 0.0, 2022-05-06 12:40:35.105
75.0, -209.6756210657768, -97.70675629237667, -128.60767967626452, -151.82497860118747, 0.12800000607967377, 0.11200000531971455, 1.008000047877431, 0.0, 0.0, 0.0, 0.0, 0.0, 1.651837235105919E9, 0.0, 2022-05-06 12:40:35.105
76.0, -290.92120770318434, -256.5552670103498, -237.39388958737254, -230.23198117222637, 0.12800000607967377, 0.11200000531971455, 1.008000047877431, 0.0, 0.0, 0.0, 0.0, 0.0, 1.6518372351189673E9, 0.0, 2022-05-06 12:40:35.118
76.0, -305.084208835382, -227.11103465920314, -243.6731816129759, -239.23392036557198, 0.12800000607967377, 0.11200000531971455, 1.008000047877431, 0.0, 0.0, 0.0, 0.0, 0.0, 1.6518372351189673E9, 0.0, 2022-05-06 12:40:35.118
77.0, -227.52242365432903, -71.3105424051173, -143.55979969911277, -160.13877620268613, 0.12800000607967377, 0.11200000531971455, 1.008000047877431, 0.0, 0.0, 0.0, 0.0, 0.0, 1.6518372351349435E9, 0.0, 2022-05-06 12:40:35.134
77.0, -205.49815281527117, -98.1405846872367, -135.7284491918981, -162.5996303735301, 0.12800000607967377, 0.11200000531971455, 1.008000047877431, 0.0, 0.0, 0.0, 0.0, 0.0, 1.6518372351349435E9, 0.0, 2022-05-06 12:40:35.134
78.0, -277.0461788675748, -244.3557133548893, -226.63793731480837, -217.63225822150707, 0.12800000607967377, 0.11200000531971455, 1.008000047877431, 0.0, 0.0, 0.0, 0.0, 0.0, 1.6518372351358972E9, 0.0, 2022-05-06 12:40:35.135
78.0, -304.62794104078785, -217.79494386957958, -233.64650983177125, -217.34428592491895, 0.12800000607967377, 0.11200000531971455, 1.008000047877431, 0.0, 0.0, 0.0, 0.0, 0.0, 1.6518372351358972E9, 0.0, 2022-05-06 12:40:35.135
79.0, -236.1690723518841, -62.98178520379588, -133.24141572136432, -155.37788355909288, 0.12800000607967377, 0.11200000531971455, 1.008000047877431, 0.0, 0.0, 0.0, 0.0, 0.0, 1.6518372351489587E9, 0.0, 2022-05-06 12:40:35.148
79.0, -201.01027286844328, -96.55486710602418, -134.04923411179334, -150.5908116158098, 0.12800000607967377, 0.11200000531971455, 1.008000047877431, 0.0, 0.0, 0.0, 0.0, 0.0, 1.6518372351489587E9, 0.0, 2022-05-06 12:40:35.148
80.0, -272.41992262238637, -240.27174260327592, -224.50619434006512, -207.96087693609297, 0.12800000607967377, 0.11200000531971455, 1.0240000486373901, 0.0, 0.0, 0.0, 0.0, 0.0, 1.6518372351649516E9, 0.0, 2022-05-06 12:40:35.164
80.0, -288.81190412817523, -207.76827208837494, -230.71816816646606, -213.25657527334988, 0.12800000607967377, 0.11200000531971455, 1.0240000486373901, 0.0, 0.0, 0.0, 0.0, 0.0, 1.6518372351649516E9, 0.0, 2022-05-06 12:40:35.164
81.0, -214.38789500994608, -54.0060253101401, -127.16781819332391, -142.363031713292, 0.12800000607967377, 0.12800000607967377, 1.0240000486373901, 0.0, 0.0, 0.0, 0.0, 0.0, 1.6518372351658828E9, 0.0, 2022-05-06 12:40:35.165
81.0, -223.07568260701373, -104.86118490761146, -137.804093667306, -158.39972272329032, 0.12800000607967377, 0.12800000607967377, 1.0240000486373901, 0.0, 0.0, 0.0, 0.0, 0.0, 1.6518372351658828E9, 0.0, 2022-05-06 12:40:35.165
82.0, -281.06283141998574, -247.8375602136366, -222.2173755671829, -213.11445907503366, 0.144000006839633, 0.12800000607967377, 1.0240000486373901, 0.0, 0.0, 0.0, 0.0, 0.0, 1.6518372351789813E9, 0.0, 2022-05-06 12:40:35.178
82.0, -291.94594029104337, -214.33179651061073, -231.94485535193235, -211.01637519989163, 0.144000006839633, 0.12800000607967377, 1.0240000486373901, 0.0, 0.0, 0.0, 0.0, 0.0, 1.6518372351789813E9, 0.0, 2022-05-06 12:40:35.178
83.0, -214.859122404363, -62.776090706232935, -134.20630990993232, -160.93537489324808, 0.144000006839633, 0.12800000607967377, 1.0240000486373901, 0.0, 0.0, 0.0, 0.0, 0.0, 1.6518372351949556E9, 0.0, 2022-05-06 12:40:35.194
83.0, -199.05804509157315, -91.38258546730503, -120.9820236666128, -141.30090012587607, 0.144000006839633, 0.12800000607967377, 1.0240000486373901, 0.0, 0.0, 0.0, 0.0, 0.0, 1.6518372351949556E9, 0.0, 2022-05-06 12:40:35.194
84.0, -274.0056402035989, -236.13915315223858, -220.4783220877871, -195.23399738688022, 0.144000006839633, 0.12800000607967377, 1.0240000486373901, 0.0, 0.0, 0.0, 0.0, 0.0, 1.651837235195902E9, 0.0, 2022-05-06 12:40:35.195
84.0, -298.66654051141813, -212.12899543670937, -240.1127968551591, -226.37614431791008, 0.144000006839633, 0.12800000607967377, 1.0240000486373901, 0.0, 0.0, 0.0, 0.0, 0.0, 1.651837235195902E9, 0.0, 2022-05-06 12:40:35.195
85.0, -218.96553255571052, -61.24647162435576, -125.49234301317483, -153.3695572828874, 0.144000006839633, 0.12800000607967377, 1.0240000486373901, 0.0, 0.0, 0.0, 0.0, 0.0, 1.6518372352089493E9, 0.0, 2022-05-06 12:40:35.208
85.0, -214.10366261331365, -103.4400229244493, -142.6622237097472, -162.19572117831558, 0.144000006839633, 0.12800000607967377, 1.0240000486373901, 0.0, 0.0, 0.0, 0.0, 0.0, 1.6518372352089493E9, 0.0, 2022-05-06 12:40:35.208
86.0, -281.05535162007436, -254.3973447359167, -232.0009538512677, -223.8816310474649, 0.144000006839633, 0.12800000607967377, 1.0240000486373901, 0.0, 0.0, 0.0, 0.0, 0.0, 1.6518372352249696E9, 0.0, 2022-05-06 12:40:35.224
86.0, -283.3329506930895, -204.5968369259499, -216.8842782303691, -200.56335482373834, 0.144000006839633, 0.12800000607967377, 1.0240000486373901, 0.0, 0.0, 0.0, 0.0, 0.0, 1.6518372352249696E9, 0.0, 2022-05-06 12:40:35.224
87.0, -215.18823360046372, -55.70019999006763, -128.3945053787902, -157.40116943512112, 0.144000006839633, 0.12800000607967377, 1.0240000486373901, 0.0, 0.0, 0.0, 0.0, 0.0, 1.6518372352258863E9, 0.0, 2022-05-06 12:40:35.225
87.0, -209.7504190648906, -101.00534805329517, -133.42467081919312, -151.60432450380176, 0.144000006839633, 0.12800000607967377, 1.0240000486373901, 0.0, 0.0, 0.0, 0.0, 0.0, 1.6518372352258863E9, 0.0, 2022-05-06 12:40:35.225
88.0, -264.90272371144965, -240.96362409507856, -216.439230135642, -208.3909654309973, 0.144000006839633, 0.12800000607967377, 1.0240000486373901, 0.0, 0.0, 0.0, 0.0, 0.0, 1.651837235238968E9, 0.0, 2022-05-06 12:40:35.238
88.0, -289.2756517226808, -218.21755256457254, -228.53406659234315, -222.85689845960587, 0.144000006839633, 0.12800000607967377, 1.0240000486373901, 0.0, 0.0, 0.0, 0.0, 0.0, 1.651837235238968E9, 0.0, 2022-05-06 12:40:35.238
89.0, -216.60939558362588, -62.71999220689759, -132.66173122823238, -160.84187739435583, 0.144000006839633, 0.12800000607967377, 1.0240000486373901, 0.0, 0.0, 0.0, 0.0, 0.0, 1.6518372352549865E9, 0.0, 2022-05-06 12:40:35.254
89.0, -202.5249323504977, -96.69698330434039, -135.14876469876617, -153.4817542815581, 0.144000006839633, 0.12800000607967377, 1.0240000486373901, 0.0, 0.0, 0.0, 0.0, 0.0, 1.6518372352549865E9, 0.0, 2022-05-06 12:40:35.254
90.0, -300.95161938434467, -243.57033436419442, -226.2228084197268, -215.5790531458333, 0.144000006839633, 0.12800000607967377, 1.0240000486373901, 0.0, 0.0, 0.0, 0.0, 0.0, 1.6518372352559147E9, 0.0, 2022-05-06 12:40:35.255
90.0, -299.2312654047273, -206.69492080109194, -219.7004228970036, -218.55601351056248, 0.144000006839633, 0.12800000607967377, 1.0240000486373901, 0.0, 0.0, 0.0, 0.0, 0.0, 1.6518372352559147E9, 0.0, 2022-05-06 12:40:35.255
91.0, -217.28257757565007, -56.68753357836977, -128.88817217294127, -154.69722176715732, 0.144000006839633, 0.11200000531971455, 1.0240000486373901, 0.0, 0.0, 0.0, 0.0, 0.0, 1.6518372352689593E9, 0.0, 2022-05-06 12:40:35.268
91.0, -216.28402428748086, -116.69048846745864, -149.27810673136264, -169.54836449120194, 0.144000006839633, 0.11200000531971455, 1.0240000486373901, 0.0, 0.0, 0.0, 0.0, 0.0, 1.6518372352689593E9, 0.0, 2022-05-06 12:40:35.268
92.0, -298.0868560182862, -260.57191956276074, -243.34781031683087, -229.30822588317096, 0.144000006839633, 0.11200000531971455, 1.0240000486373901, 0.0, 0.0, 0.0, 0.0, 0.0, 1.6518372353009565E9, 0.0, 2022-05-06 12:40:35.300
92.0, -301.3443088796921, -223.494551402051, -242.69706772454083, -230.2544205719605, 0.144000006839633, 0.11200000531971455, 1.0240000486373901, 0.0, 0.0, 0.0, 0.0, 0.0, 1.6518372353009565E9, 0.0, 2022-05-06 12:40:35.300
93.0, -224.94937248481438, -70.27085021743551, -142.30693321395665, -164.5929970499128, 0.144000006839633, 0.11200000531971455, 1.0240000486373901, 0.0, 0.0, 0.0, 0.0, 0.0, 1.6518372353018804E9, 0.0, 2022-05-06 12:40:35.301
93.0, -218.54292386071756, -113.48913410538808, -145.63918407447636, -161.34676388837397, 0.144000006839633, 0.11200000531971455, 1.0240000486373901, 0.0, 0.0, 0.0, 0.0, 0.0, 1.6518372353018804E9, 0.0, 2022-05-06 12:40:35.301
94.0, -278.32148475246504, -246.4313578302972, -226.52948021609336, -209.01926862355322, 0.144000006839633, 0.11200000531971455, 1.0240000486373901, 0.0, 0.0, 0.0, 0.0, 0.0, 1.651837235302896E9, 0.0, 2022-05-06 12:40:35.302
94.0, -288.3780757333152, -200.97287386888638, -224.64831053838134, -210.9565368006006, 0.144000006839633, 0.11200000531971455, 1.0240000486373901, 0.0, 0.0, 0.0, 0.0, 0.0, 1.651837235302896E9, 0.0, 2022-05-06 12:40:35.302
95.0, -206.25735250627622, -49.66400146158412, -118.95873779058456, -144.1806230917573, 0.144000006839633, 0.11200000531971455, 1.0240000486373901, 0.0, 0.0, 0.0, 0.0, 0.0, 1.6518372353038945E9, 0.0, 2022-05-06 12:40:35.303
95.0, -196.68320861971006, -88.27472860412672, -118.69694479368627, -141.7010694211349, 0.144000006839633, 0.11200000531971455, 1.0240000486373901, 0.0, 0.0, 0.0, 0.0, 0.0, 1.6518372353038945E9, 0.0, 2022-05-06 12:40:35.303
96.0, -279.6304497369565, -252.1010461631231, -234.80587881803513, -214.9956287527457, 0.144000006839633, 0.11200000531971455, 1.0240000486373901, 0.0, 0.0, 0.0, 0.0, 0.0, 1.6518372353139303E9, 0.0, 2022-05-06 12:40:35.313
96.0, -291.7851245929487, -200.84197737043723, -224.16960334405303, -209.2436626208946, 0.144000006839633, 0.11200000531971455, 1.0240000486373901, 0.0, 0.0, 0.0, 0.0, 0.0, 1.6518372353139303E9, 0.0, 2022-05-06 12:40:35.313
97.0, -209.08845677273348, -48.291458177845925, -126.20292400475591, -143.33540570177138, 0.144000006839633, 0.11200000531971455, 1.0240000486373901, 0.0, 0.0, 0.0, 0.0, 0.0, 1.651837235328978E9, 0.0, 2022-05-06 12:40:35.328
97.0, -216.79639058141038, -106.42446308908984, -136.27447458542883, -161.7095341840759, 0.144000006839633, 0.11200000531971455, 1.0240000486373901, 0.0, 0.0, 0.0, 0.0, 0.0, 1.651837235328978E9, 0.0, 2022-05-06 12:40:35.328
98.0, -269.2297879601829, -246.82030742568895, -228.75098078977317, -201.74516320973635, 0.144000006839633, 0.11200000531971455, 1.0240000486373901, 0.0, 0.0, 0.0, 0.0, 0.0, 1.6518372353449492E9, 0.0, 2022-05-06 12:40:35.344
98.0, -284.17442818311974, -200.4118888755329, -224.11350484471768, -207.6916041392833, 0.144000006839633, 0.11200000531971455, 1.0240000486373901, 0.0, 0.0, 0.0, 0.0, 0.0, 1.6518372353449492E9, 0.0, 2022-05-06 12:40:35.344
99.0, -212.35712933400646, -50.86824924731627, -116.96163121424615, -146.56293936353177, 0.144000006839633, 0.11200000531971455, 1.0240000486373901, 0.0, 0.0, 0.0, 0.0, 0.0, 1.6518372353458908E9, 0.0, 2022-05-06 12:40:35.345
99.0, -199.7050477839075, -110.02972664637491, -138.27906096167862, -161.94514788128436, 0.144000006839633, 0.11200000531971455, 1.0240000486373901, 0.0, 0.0, 0.0, 0.0, 0.0, 1.6518372353458908E9, 0.0, 2022-05-06 12:40:35.345
100.0, -296.80407033348456, -245.15605194540694, -218.79910700768232, -201.33003431465477, 0.144000006839633, 0.11200000531971455, 1.0240000486373901, 0.0, 0.0, 0.0, 0.0, 0.0, 1.6518372353599408E9, 0.0, 2022-05-06 12:40:35.359
100.0, -293.976705966983, -198.1118504027836, -227.3335587065667, -221.16272377967834, 0.144000006839633, 0.11200000531971455, 1.0240000486373901, 0.0, 0.0, 0.0, 0.0, 0.0, 1.6518372353599408E9, 0.0, 2022-05-06 12:40:35.359
0.0, -216.77582113165408, -65.38467092532665, -128.84142342349514, -155.98374735191464, 0.144000006839633, 0.11200000531971455, 1.0240000486373901, 0.0, 0.0, 0.0, 0.0, 0.0, 1.651837235360892E9, 0.0, 2022-05-06 12:40:35.360
1.0, -220.63165798597038, -123.6859713345766, -150.92553266184404, -167.68963421322405, 0.144000006839633, 0.11200000531971455, 1.0240000486373901, 0.0, 0.0, 0.0, 0.0, 0.0, 1.6518372353739471E9, 0.0, 2022-05-06 12:40:35.373
1.0, -291.75333544332534, -263.47221197839826, -250.92671757703647, -238.87862986978143, 0.144000006839633, 0.11200000531971455, 1.0240000486373901, 0.0, 0.0, 0.0, 0.0, 0.0, 1.6518372353739471E9, 0.0, 2022-05-06 12:40:35.373
2.0, -295.0968060037121, -201.56190811190754, -229.78132322756574, -216.6262251334265, 0.144000006839633, 0.11200000531971455, 1.0240000486373901, 0.0, 0.0, 0.0, 0.0, 0.0, 1.6518372354069407E9, 0.0, 2022-05-06 12:40:35.406
2.0, -219.05716010462493, -60.73971518035978, -127.26692554214969, -153.6313502797857, 0.144000006839633, 0.11200000531971455, 1.0240000486373901, 0.0, 0.0, 0.0, 0.0, 0.0, 1.6518372354069407E9, 0.0, 2022-05-06 12:40:35.406
3.0, -212.9499034769833, -124.11231992952526, -153.3115888335742, -169.1893340954557, 0.144000006839633, 0.11200000531971455, 1.0240000486373901, 0.0, 0.0, 0.0, 0.0, 0.0, 1.6518372354078908E9, 0.0, 2022-05-06 12:40:35.407
3.0, -297.1687105791643, -259.35832202713937, -244.20237745670602, -227.3709577061236, 0.144000006839633, 0.11200000531971455, 1.0240000486373901, 0.0, 0.0, 0.0, 0.0, 0.0, 1.6518372354078908E9, 0.0, 2022-05-06 12:40:35.407
4.0, -286.08364711049944, -183.65526712406427, -217.27883767569438, -208.45080383028835, 0.144000006839633, 0.11200000531971455, 1.0240000486373901, 0.0, 0.0, 0.0, 0.0, 0.0, 1.6518372354088943E9, 0.0, 2022-05-06 12:40:35.408
4.0, -216.656144333072, -55.26824154518545, -126.83683704724535, -153.57151188049465, 0.144000006839633, 0.11200000531971455, 1.0240000486373901, 0.0, 0.0, 0.0, 0.0, 0.0, 1.6518372354088943E9, 0.0, 2022-05-06 12:40:35.408
5.0, -222.93543635867536, -130.0213618595153, -148.59183508949354, -162.04986508004367, 0.144000006839633, 0.11200000531971455, 1.0240000486373901, 0.0, 0.0, 0.0, 0.0, 0.0, 1.6518372354098947E9, 0.0, 2022-05-06 12:40:35.409
5.0, -281.74910306185484, -252.66016120649874, -230.77987651573494, -213.83251986652613, 0.144000006839633, 0.11200000531971455, 1.0240000486373901, 0.0, 0.0, 0.0, 0.0, 0.0, 1.6518372354098947E9, 0.0, 2022-05-06 12:40:35.409
6.0, -270.88469369057566, -176.06327021401376, -206.25361260632053, -186.6434471886605, 0.144000006839633, 0.11200000531971455, 1.0240000486373901, 0.0, 0.0, 0.0, 0.0, 0.0, 1.6518372354189596E9, 0.0, 2022-05-06 12:40:35.418
6.0, -214.22520936187357, -58.77626770362258, -135.25535184750333, -163.97217365726829, 0.144000006839633, 0.11200000531971455, 1.0240000486373901, 0.0, 0.0, 0.0, 0.0, 0.0, 1.6518372354189596E9, 0.0, 2022-05-06 12:40:35.418
7.0, -214.0643936637789, -130.23453615698963, -148.00467079645023, -173.8567292401567, 0.144000006839633, 0.11200000531971455, 1.0240000486373901, 0.0, 0.0, 0.0, 0.0, 0.0, 1.6518372354339423E9, 0.0, 2022-05-06 12:40:35.433
7.0, -301.7014693254605, -264.0518964715302, -241.05338169401512, -224.917583335191, 0.144000006839633, 0.11200000531971455, 1.0240000486373901, 0.0, 0.0, 0.0, 0.0, 0.0, 1.6518372354339423E9, 0.0, 2022-05-06 12:40:35.433
8.0, -291.92911074124277, -187.11841448303312, -217.31249677529559, -218.5073948111385, 0.144000006839633, 0.11200000531971455, 1.0240000486373901, 0.0, 0.0, 0.0, 0.0, 0.0, 1.651837235450003E9, 0.0, 2022-05-06 12:40:35.450
8.0, -217.37794502452016, -52.69519037567079, -118.43328184681013, -139.01582125294954, 0.144000006839633, 0.11200000531971455, 1.0240000486373901, 0.0, 0.0, 0.0, 0.0, 0.0, 1.651837235450003E9, 0.0, 2022-05-06 12:40:35.450
9.0, -225.5122274281457, -130.74690245091915, -153.2068716348149, -162.1471024788916, 0.144000006839633, 0.11200000531971455, 1.0240000486373901, 0.0, 0.0, 0.0, 0.0, 0.0, 1.6518372354509094E9, 0.0, 2022-05-06 12:40:35.450
9.0, -296.1327582914382, -260.0913424184546, -241.60314698750153, -215.6239319453016, 0.144000006839633, 0.11200000531971455, 1.0240000486373901, 0.0, 0.0, 0.0, 0.0, 0.0, 1.6518372354509094E9, 0.0, 2022-05-06 12:40:35.450
10.0, -282.53074215259403, -180.1210616659373, -211.47077304450795, -214.46082305908203, 0.144000006839633, 0.11200000531971455, 1.0240000486373901, 0.0, 0.0, 0.0, 0.0, 0.0, 1.6518372354639378E9, 0.0, 2022-05-06 12:40:35.463
10.0, -217.4377834238112, -55.9900422366336, -125.55031146248803, -146.90701015945524, 0.144000006839633, 0.11200000531971455, 1.0240000486373901, 0.0, 0.0, 0.0, 0.0, 0.0, 1.6518372354639378E9, 0.0, 2022-05-06 12:40:35.463
11.0, -226.00963412225246, -129.26964196842164, -157.15994588797912, -165.79350493568927, 0.144000006839633, 0.11200000531971455, 1.0240000486373901, 0.0, 0.0, 0.0, 0.0, 0.0, 1.65183723547996E9, 0.0, 2022-05-06 12:40:35.479
11.0, -303.5078410040587, -264.8597148619592, -259.68556327326223, -245.71516698878258, 0.144000006839633, 0.11200000531971455, 1.0240000486373901, 0.0, 0.0, 0.0, 0.0, 0.0, 1.65183723547996E9, 0.0, 2022-05-06 12:40:35.479
12.0, -302.24001491907984, -199.41520553734154, -235.3874332611449, -235.20230821333826, 0.12800000607967377, 0.11200000531971455, 1.0240000486373901, 0.0, 0.0, 0.0, 0.0, 0.0, 1.6518372354809225E9, 0.0, 2022-05-06 12:40:35.480
12.0, -227.97682149894536, -68.9226162834093, -142.66409365972504, -170.81245067622513, 0.12800000607967377, 0.11200000531971455, 1.0240000486373901, 0.0, 0.0, 0.0, 0.0, 0.0, 1.6518372354809225E9, 0.0, 2022-05-06 12:40:35.480
13.0, -229.58123857993633, -148.477768140845, -165.79163498571143, -182.7950901342556, 0.12800000607967377, 0.11200000531971455, 1.0240000486373901, 0.0, 0.0, 0.0, 0.0, 0.0, 1.6518372354939573E9, 0.0, 2022-05-06 12:40:35.493
13.0, -314.974374268204, -280.7542896736413, -261.2151823551394, -240.08287765551358, 0.12800000607967377, 0.11200000531971455, 1.0240000486373901, 0.0, 0.0, 0.0, 0.0, 0.0, 1.6518372354939573E9, 0.0, 2022-05-06 12:40:35.493
14.0, -283.93320463597775, -191.25100393407047, -228.7154517401941, -220.1005921922624, 0.12800000607967377, 0.11200000531971455, 1.0240000486373901, 0.0, 0.0, 0.0, 0.0, 0.0, 1.65183723550999E9, 0.0, 2022-05-06 12:40:35.509
14.0, -214.49448215868324, -58.48081560712308, -131.1938204956241, -157.46848763432354, 0.12800000607967377, 0.11200000531971455, 1.0240000486373901, 0.0, 0.0, 0.0, 0.0, 0.0, 1.65183723550999E9, 0.0, 2022-05-06 12:40:35.509
15.0, -253.07529010158032, -150.23552112001926, -162.89321252005175, -182.66045373585075, 0.12800000607967377, 0.11200000531971455, 1.0240000486373901, 0.0, 0.0, 0.0, 0.0, 0.0, 1.6518372355109167E9, 0.0, 2022-05-06 12:40:35.510
15.0, -299.00874135736376, -270.33118849713355, -245.2046706448309, -226.02085382211953, 0.12800000607967377, 0.11200000531971455, 1.0240000486373901, 0.0, 0.0, 0.0, 0.0, 0.0, 1.6518372355109167E9, 0.0, 2022-05-06 12:40:35.510
16.0, -285.40672521851957, -183.03818363137543, -205.17652141908184, -203.10648679360747, 0.12800000607967377, 0.11200000531971455, 1.0240000486373901, 0.0, 0.0, 0.0, 0.0, 0.0, 1.6518372355239415E9, 0.0, 2022-05-06 12:40:35.523
16.0, -221.92566337063909, -57.755275015719235, -128.71800672495738, -146.15529026836157, 0.12800000607967377, 0.11200000531971455, 1.0240000486373901, 0.0, 0.0, 0.0, 0.0, 0.0, 1.6518372355239415E9, 0.0, 2022-05-06 12:40:35.523
17.0, -222.0341204693541, -139.62916484568268, -159.11591356480494, -180.1921197650954, 0.12800000607967377, 0.11200000531971455, 1.0240000486373901, 0.0, 0.0, 0.0, 0.0, 0.0, 1.6518372355399482E9, 0.0, 2022-05-06 12:40:35.539
17.0, -302.8458787119016, -258.77863753400743, -238.02780262986198, -214.46456295903772, 0.12800000607967377, 0.11200000531971455, 1.0240000486373901, 0.0, 0.0, 0.0, 0.0, 0.0, 1.6518372355399482E9, 0.0, 2022-05-06 12:40:35.539
18.0, -288.3874254832044, -181.0859558545053, -219.42554025026038, -217.89405121840537, 0.12800000607967377, 0.11200000531971455, 1.0240000486373901, 0.0, 0.0, 0.0, 0.0, 0.0, 1.6518372355408964E9, 0.0, 2022-05-06 12:40:35.540
18.0, -215.26864144951105, -48.27836852800101, -119.80208523059264, -148.56004593987018, 0.12800000607967377, 0.11200000531971455, 1.0240000486373901, 0.0, 0.0, 0.0, 0.0, 0.0, 1.6518372355408964E9, 0.0, 2022-05-06 12:40:35.540
19.0, -224.9923813343048, -134.101592711173, -157.3207615860738, -163.26907246559858, 0.12800000607967377, 0.11200000531971455, 1.0240000486373901, 0.0, 0.0, 0.0, 0.0, 0.0, 1.6518372355539432E9, 0.0, 2022-05-06 12:40:35.553
19.0, -293.1296186270192, -260.99639820773154, -247.89739861292765, -232.45348174590617, 0.12800000607967377, 0.11200000531971455, 1.0240000486373901, 0.0, 0.0, 0.0, 0.0, 0.0, 1.6518372355539432E9, 0.0, 2022-05-06 12:40:35.553
20.0, -285.6872177151963, -179.0888492781669, -215.5622235960327, -204.60244677588344, 0.12800000607967377, 0.11200000531971455, 1.0240000486373901, 0.0, 0.0, 0.0, 0.0, 0.0, 1.6518372355699427E9, 0.0, 2022-05-06 12:40:35.569
20.0, -211.6222389927134, -59.12033849954605, -126.42544805211946, -165.68878773692995, 0.12800000607967377, 0.11200000531971455, 1.0240000486373901, 0.0, 0.0, 0.0, 0.0, 0.0, 1.6518372355699427E9, 0.0, 2022-05-06 12:40:35.569
21.0, -246.77355867624283, -139.00086165312678, -162.16393202869222, -177.7911039935425, 0.12800000607967377, 0.11200000531971455, 1.0240000486373901, 0.0, 0.0, 0.0, 0.0, 0.0, 1.6518372355849416E9, 0.0, 2022-05-06 12:40:35.584
21.0, -308.2537740478292, -273.3418079614639, -255.23134242603555, -242.95886072143912, 0.12800000607967377, 0.11200000531971455, 1.0240000486373901, 0.0, 0.0, 0.0, 0.0, 0.0, 1.6518372355849416E9, 0.0, 2022-05-06 12:40:35.584
22.0, -294.5769599098712, -184.65756031218916, -228.61447444139048, -222.5464867632836, 0.12800000607967377, 0.11200000531971455, 1.0240000486373901, 0.0, 0.0, 0.0, 0.0, 0.0, 1.651837235585904E9, 0.0, 2022-05-06 12:40:35.585
22.0, -220.94954948220402, -60.964109177701175, -130.53933800337836, -158.1828085258603, 0.12800000607967377, 0.11200000531971455, 1.0240000486373901, 0.0, 0.0, 0.0, 0.0, 0.0, 1.651837235585904E9, 0.0, 2022-05-06 12:40:35.585
23.0, -232.1879488490522, -146.63399746268988, -163.77956880955026, -176.76637140568346, 0.12800000607967377, 0.11200000531971455, 1.0240000486373901, 0.0, 0.0, 0.0, 0.0, 0.0, 1.6518372355999918E9, 0.0, 2022-05-06 12:40:35.599
23.0, -302.8795378115028, -262.99350478406996, -243.14398576924577, -227.72998810186982, 0.12800000607967377, 0.11200000531971455, 1.0240000486373901, 0.0, 0.0, 0.0, 0.0, 0.0, 1.6518372355999918E9, 0.0, 2022-05-06 12:40:35.599
24.0, -279.5388221880421, -176.38864151015878, -208.2245398829691, -203.9853632831946, 0.12800000607967377, 0.11200000531971455, 1.0240000486373901, 0.0, 0.0, 0.0, 0.0, 0.0, 1.6518372356009092E9, 0.0, 2022-05-06 12:40:35.600
24.0, -212.11216588690877, -46.02320885472, -121.4813003106974, -150.28039991948754, 0.12800000607967377, 0.11200000531971455, 1.0240000486373901, 0.0, 0.0, 0.0, 0.0, 0.0, 1.6518372356009092E9, 0.0, 2022-05-06 12:40:35.600
25.0, -223.60487845074385, -140.9530894299969, -157.23100398713723, -169.9747130861506, 0.12800000607967377, 0.11200000531971455, 1.0240000486373901, 0.0, 0.0, 0.0, 0.0, 0.0, 1.6518372356139553E9, 0.0, 2022-05-06 12:40:35.613
25.0, -306.4324427694082, -262.58585568889976, -244.27717545581982, -229.3269253829494, 0.12800000607967377, 0.11200000531971455, 1.0240000486373901, 0.0, 0.0, 0.0, 0.0, 0.0, 1.6518372356139553E9, 0.0, 2022-05-06 12:40:35.613
26.0, -282.93091144785285, -177.32361649908125, -205.43083461606875, -204.14243908133358, 0.12800000607967377, 0.11200000531971455, 1.0240000486373901, 0.0, 0.0, 0.0, 0.0, 0.0, 1.651837235629938E9, 0.0, 2022-05-06 12:40:35.629
26.0, -217.42282382398844, -55.18596374616027, -131.0442244973965, -155.15722946170717, 0.12800000607967377, 0.11200000531971455, 1.0240000486373901, 0.0, 0.0, 0.0, 0.0, 0.0, 1.651837235629938E9, 0.0, 2022-05-06 12:40:35.629
27.0, -229.34188498277217, -129.325740467757, -148.07572889560834, -166.91547492239624, 0.12800000607967377, 0.11200000531971455, 1.0240000486373901, 0.0, 0.0, 0.0, 0.0, 0.0, 1.6518372356309152E9, 0.0, 2022-05-06 12:40:35.630
27.0, -300.815113035962, -267.10739473532885, -250.29841438448057, -235.73337400704622, 0.12800000607967377, 0.11200000531971455, 1.0240000486373901, 0.0, 0.0, 0.0, 0.0, 0.0, 1.6518372356309152E9, 0.0, 2022-05-06 12:40:35.630
28.0, -285.2010307209566, -188.36380116827786, -217.76128476997837, -217.60981882177293, 0.12800000607967377, 0.11200000531971455, 1.0240000486373901, 0.0, 0.0, 0.0, 0.0, 0.0, 1.6518372356439564E9, 0.0, 2022-05-06 12:40:35.643
28.0, -223.05511315725744, -52.25014228094369, -122.3377374005504, -152.44954189378768, 0.12800000607967377, 0.11200000531971455, 1.0240000486373901, 0.0, 0.0, 0.0, 0.0, 0.0, 1.6518372356439564E9, 0.0, 2022-05-06 12:40:35.643
29.0, -218.91130400635302, -126.3188609033823, -143.54297014931217, -163.1905345665291, 0.12800000607967377, 0.11200000531971455, 1.0240000486373901, 0.0, 0.0, 0.0, 0.0, 0.0, 1.6518372356599684E9, 0.0, 2022-05-06 12:40:35.659
29.0, -286.2930815080181, -257.2751977518201, -241.48347018891945, -222.396890765056, 0.12800000607967377, 0.11200000531971455, 1.0240000486373901, 0.0, 0.0, 0.0, 0.0, 0.0, 1.6518372356599684E9, 0.0, 2022-05-06 12:40:35.659
30.0, -273.9364520544186, -183.718845423311, -211.75500544114038, -204.3518734788522, 0.12800000607967377, 0.11200000531971455, 1.0240000486373901, 0.0, 0.0, 0.0, 0.0, 0.0, 1.6518372356608944E9, 0.0, 2022-05-06 12:40:35.660
30.0, -227.30363950692117, -51.80509418621659, -126.11129645584151, -141.44301632419229, 0.12800000607967377, 0.11200000531971455, 1.0240000486373901, 0.0, 0.0, 0.0, 0.0, 0.0, 1.6518372356608944E9, 0.0, 2022-05-06 12:40:35.660
31.0, -228.39943019393831, -125.82893400918692, -151.69969195267186, -169.7428392888978, 0.12800000607967377, 0.12800000607967377, 1.0240000486373901, 0.0, 0.0, 0.0, 0.0, 0.0, 1.651837235673955E9, 0.0, 2022-05-06 12:40:35.673
31.0, -299.82029964774847, -270.6453400934115, -251.89909156551585, -238.76269297115505, 0.12800000607967377, 0.12800000607967377, 1.0240000486373901, 0.0, 0.0, 0.0, 0.0, 0.0, 1.651837235673955E9, 0.0, 2022-05-06 12:40:35.673
32.0, -288.2453092848882, -180.87278155703098, -211.048164349515, -208.9893494239077, 0.144000006839633, 0.12800000607967377, 1.0240000486373901, 0.0, 0.0, 0.0, 0.0, 0.0, 1.6518372356899946E9, 0.0, 2022-05-06 12:40:35.689
32.0, -213.70536326803267, -46.37849935051054, -110.88242383627221, -138.7353287562728, 0.144000006839633, 0.12800000607967377, 1.0240000486373901, 0.0, 0.0, 0.0, 0.0, 0.0, 1.6518372356899946E9, 0.0, 2022-05-06 12:40:35.689
33.0, -234.0728584267199, -131.05357424728572, -154.9833241137676, -175.0123583264649, 0.144000006839633, 0.12800000607967377, 1.0240000486373901, 0.0, 0.0, 0.0, 0.0, 0.0, 1.6518372356909087E9, 0.0, 2022-05-06 12:40:35.690
33.0, -288.71653667930514, -273.0912346644327, -251.59615966910496, -239.01700616814196, 0.144000006839633, 0.12800000607967377, 1.0240000486373901, 0.0, 0.0, 0.0, 0.0, 0.0, 1.6518372356909087E9, 0.0, 2022-05-06 12:40:35.690
34.0, -296.71992258448154, -187.55224287789315, -217.6416079713963, -216.03906084038317, 0.144000006839633, 0.12800000607967377, 1.0240000486373901, 0.0, 0.0, 0.0, 0.0, 0.0, 1.6518372357039487E9, 0.0, 2022-05-06 12:40:35.703
34.0, -227.95064219925553, -55.07002684753388, -128.13084243191406, -150.8077258132398, 0.144000006839633, 0.12800000607967377, 1.0240000486373901, 0.0, 0.0, 0.0, 0.0, 0.0, 1.6518372357039487E9, 0.0, 2022-05-06 12:40:35.703
35.0, -221.23378187883645, -125.20063081663102, -144.39940723916516, -144.08712559286505, 0.144000006839633, 0.12800000607967377, 1.0240000486373901, 0.0, 0.0, 0.0, 0.0, 0.0, 1.6518372357199492E9, 0.0, 2022-05-06 12:40:35.719
35.0, -298.2532815663144, -263.33009578008205, -248.64537860406563, -226.73143481370062, 0.144000006839633, 0.12800000607967377, 1.0240000486373901, 0.0, 0.0, 0.0, 0.0, 0.0, 1.6518372357199492E9, 0.0, 2022-05-06 12:40:35.719
36.0, -285.8779526129365, -181.3851478509605, -217.18534017680213, -213.75772186741233, 0.144000006839633, 0.12800000607967377, 1.0240000486373901, 0.0, 0.0, 0.0, 0.0, 0.0, 1.6518372357209072E9, 0.0, 2022-05-06 12:40:35.720
36.0, -218.36901851277798, -52.145425082184374, -124.09923027968034, -153.3658173829317, 0.144000006839633, 0.12800000607967377, 1.0240000486373901, 0.0, 0.0, 0.0, 0.0, 0.0, 1.6518372357209072E9, 0.0, 2022-05-06 12:40:35.720
37.0, -225.01482073403895, -132.09326643496752, -156.35960729746148, -170.19910708349198, 0.144000006839633, 0.12800000607967377, 1.0240000486373901, 0.0, 0.0, 0.0, 0.0, 0.0, 1.6518372357339418E9, 0.0, 2022-05-06 12:40:35.733
37.0, -297.49408187530935, -268.4612385192886, -246.7642089263536, -222.4417695645243, 0.144000006839633, 0.12800000607967377, 1.0240000486373901, 0.0, 0.0, 0.0, 0.0, 0.0, 1.6518372357339418E9, 0.0, 2022-05-06 12:40:35.733
38.0, -288.1742511857301, -182.4958981378004, -215.37148869829252, -207.01094234734774, 0.144000006839633, 0.12800000607967377, 1.0240000486373901, 0.0, 0.0, 0.0, 0.0, 0.0, 1.6518372357499619E9, 0.0, 2022-05-06 12:40:35.749
38.0, -220.7737741842866, -56.01996143627912, -127.68953423714265, -160.49406669847667, 0.144000006839633, 0.12800000607967377, 1.0240000486373901, 0.0, 0.0, 0.0, 0.0, 0.0, 1.6518372357499619E9, 0.0, 2022-05-06 12:40:35.749
39.0, -237.60332398489118, -138.34263926092535, -165.70561728673056, -182.50337793771178, 0.144000006839633, 0.12800000607967377, 1.0240000486373901, 0.0, 0.0, 0.0, 0.0, 0.0, 1.6518372357508943E9, 0.0, 2022-05-06 12:40:35.750
39.0, -307.4048167578876, -277.1228468166664, -262.7784605366178, -232.1804690491408, 0.144000006839633, 0.12800000607967377, 1.0240000486373901, 0.0, 0.0, 0.0, 0.0, 0.0, 1.6518372357508943E9, 0.0, 2022-05-06 12:40:35.750
40.0, -286.1659249095246, -178.32590968720615, -214.61602890724316, -201.49085001274943, 0.144000006839633, 0.12800000607967377, 1.0240000486373901, 0.0, 0.0, 0.0, 0.0, 0.0, 1.651837235763953E9, 0.0, 2022-05-06 12:40:35.763
40.0, -211.16597119811922, -51.677937587723136, -120.72958041960374, -154.27087317220867, 0.144000006839633, 0.12800000607967377, 1.0240000486373901, 0.0, 0.0, 0.0, 0.0, 0.0, 1.651837235763953E9, 0.0, 2022-05-06 12:40:35.763
41.0, -234.87693691719323, -133.10677932295948, -150.88813366228715, -156.7055480433628, 0.144000006839633, 0.12800000607967377, 1.0240000486373901, 0.0, 0.0, 0.0, 0.0, 0.0, 1.651837235780986E9, 0.0, 2022-05-06 12:40:35.780
41.0, -299.49866825155914, -267.6870792284608, -249.55043439334258, -235.69597500748932, 0.144000006839633, 0.12800000607967377, 1.0240000486373901, 0.0, 0.0, 0.0, 0.0, 0.0, 1.651837235780986E9, 0.0, 2022-05-06 12:40:35.780
42.0, -289.2887413725257, -181.5272640492767, -219.7845706460066, -217.42656372394413, 0.144000006839633, 0.12800000607967377, 1.0240000486373901, 0.0, 0.0, 0.0, 0.0, 0.0, 1.651837235794942E9, 0.0, 2022-05-06 12:40:35.794
42.0, -201.70028441026807, -43.15096568875015, -121.05869161570445, -152.0755518982187, 0.144000006839633, 0.12800000607967377, 1.0240000486373901, 0.0, 0.0, 0.0, 0.0, 0.0, 1.651837235794942E9, 0.0, 2022-05-06 12:40:35.794
43.0, -231.33899155911058, -137.27676777355373, -162.26490932749584, -174.2307192357257, 0.144000006839633, 0.12800000607967377, 1.0240000486373901, 0.0, 0.0, 0.0, 0.0, 0.0, 1.6518372357959225E9, 0.0, 2022-05-06 12:40:35.795
43.0, -306.20056897215545, -265.9143666494638, -243.60773336375132, -217.6621774211526, 0.144000006839633, 0.12800000607967377, 1.0240000486373901, 0.0, 0.0, 0.0, 0.0, 0.0, 1.6518372357959225E9, 0.0, 2022-05-06 12:40:35.795
44.0, -283.0244089467451, -179.4964983733371, -215.76043829368427, -209.78594811446965, 0.144000006839633, 0.12800000607967377, 1.0240000486373901, 0.0, 0.0, 0.0, 0.0, 0.0, 1.6518372358099704E9, 0.0, 2022-05-06 12:40:35.809
44.0, -225.5496264277026, -47.83332043327391, -125.83828375907615, -155.6995149552822, 0.144000006839633, 0.12800000607967377, 1.0240000486373901, 0.0, 0.0, 0.0, 0.0, 0.0, 1.6518372358099704E9, 0.0, 2022-05-06 12:40:35.809
45.0, -240.72240054793656, -142.26205441448838, -163.89924560813233, -178.49794508516788, 0.144000006839633, 0.12800000607967377, 1.0240000486373901, 0.0, 0.0, 0.0, 0.0, 0.0, 1.6518372358109262E9, 0.0, 2022-05-06 12:40:35.810
45.0, -302.23253511916846, -266.10510154720396, -252.60967255709693, -234.64132321998477, 0.144000006839633, 0.12800000607967377, 1.0240000486373901, 0.0, 0.0, 0.0, 0.0, 0.0, 1.6518372358109262E9, 0.0, 2022-05-06 12:40:35.810
46.0, -284.88687912467867, -178.90933408029377, -216.9684259793721, -213.05462067574263, 0.144000006839633, 0.12800000607967377, 1.0240000486373901, 0.0, 0.0, 0.0, 0.0, 0.0, 1.651837235823991E9, 0.0, 2022-05-06 12:40:35.823
46.0, -223.4365829527378, -51.59191988874227, -122.25545960152522, -155.63593665603548, 0.144000006839633, 0.12800000607967377, 1.0240000486373901, 0.0, 0.0, 0.0, 0.0, 0.0, 1.651837235823991E9, 0.0, 2022-05-06 12:40:35.823
47.0, -228.57520549185574, -136.89529797807336, -153.8351748273708, -153.05540568660945, 0.144000006839633, 0.12800000607967377, 1.0240000486373901, 0.0, 0.0, 0.0, 0.0, 0.0, 1.6518372358399565E9, 0.0, 2022-05-06 12:40:35.839
47.0, -291.3681257478893, -262.07348939497024, -248.6565983039327, -227.8870639000088, 0.144000006839633, 0.12800000607967377, 1.0240000486373901, 0.0, 0.0, 0.0, 0.0, 0.0, 1.6518372358399565E9, 0.0, 2022-05-06 12:40:35.839
48.0, -276.4272254249081, -171.10416287276894, -206.61638290202245, -200.39879922568798, 0.144000006839633, 0.12800000607967377, 1.0240000486373901, 0.0, 0.0, 0.0, 0.0, 0.0, 1.6518372358409343E9, 0.0, 2022-05-06 12:40:35.840
48.0, -210.49652910605073, -40.94068481493741, -115.30672548385337, -142.96515560615808, 0.144000006839633, 0.12800000607967377, 1.0240000486373901, 0.0, 0.0, 0.0, 0.0, 0.0, 1.6518372358409343E9, 0.0, 2022-05-06 12:40:35.840
49.0, -229.71213507838547, -141.35699862521142, -163.48411671305075, -175.87253531627357, 0.144000006839633, 0.12800000607967377, 1.0240000486373901, 0.0, 0.0, 0.0, 0.0, 0.0, 1.65183723585394E9, 0.0, 2022-05-06 12:40:35.853
49.0, -303.2161288075149, -270.2077717985958, -251.18103077402338, -232.52827974501997, 0.144000006839633, 0.12800000607967377, 1.0240000486373901, 0.0, 0.0, 0.0, 0.0, 0.0, 1.65183723585394E9, 0.0, 2022-05-06 12:40:35.853
50.0, -285.33566711936146, -176.35498241055757, -214.70578650617972, -208.33112703170627, 0.144000006839633, 0.12800000607967377, 1.0240000486373901, 0.0, 0.0, 0.0, 0.0, 0.0, 1.651837235869944E9, 0.0, 2022-05-06 12:40:35.869
50.0, -205.0923736700788, -52.05940738320351, -123.7439397838898, -147.00798745825887, 0.144000006839633, 0.12800000607967377, 1.0240000486373901, 0.0, 0.0, 0.0, 0.0, 0.0, 1.651837235869944E9, 0.0, 2022-05-06 12:40:35.869
51.0, -219.05342020466924, -136.11365888733417, -150.67121946485713, -167.521338715218, 0.144000006839633, 0.12800000607967377, 1.0240000486373901, 0.0, 0.0, 0.0, 0.0, 0.0, 1.6518372358708904E9, 0.0, 2022-05-06 12:40:35.870
51.0, -288.2901880843565, -260.43167331442237, -239.71823740983382, -217.4415233237669, 0.144000006839633, 0.12800000607967377, 1.0240000486373901, 0.0, 0.0, 0.0, 0.0, 0.0, 1.6518372358708904E9, 0.0, 2022-05-06 12:40:35.870
52.0, -299.8427390474826, -173.76323174126446, -211.7138665416278, -210.78824130259454, 0.144000006839633, 0.12800000607967377, 1.0240000486373901, 0.0, 0.0, 0.0, 0.0, 0.0, 1.6518372358839328E9, 0.0, 2022-05-06 12:40:35.883
52.0, -211.12857219856232, -46.97314344346523, -126.56756425043568, -162.90630216989666, 0.144000006839633, 0.12800000607967377, 1.0240000486373901, 0.0, 0.0, 0.0, 0.0, 0.0, 1.6518372358839328E9, 0.0, 2022-05-06 12:40:35.883
53.0, -236.2943590003997, -148.99013443477452, -161.8684799321927, -174.3803152339533, 0.144000006839633, 0.12800000607967377, 1.0240000486373901, 0.0, 0.0, 0.0, 0.0, 0.0, 1.6518372358999605E9, 0.0, 2022-05-06 12:40:35.899
53.0, -307.2253015600145, -275.96347783040255, -253.7353824437596, -231.53346635680646, 0.144000006839633, 0.12800000607967377, 1.0240000486373901, 0.0, 0.0, 0.0, 0.0, 0.0, 1.6518372358999605E9, 0.0, 2022-05-06 12:40:35.899
54.0, -274.7330507449806, -169.98593278601766, -209.12585577229038, -203.82828748505563, 0.144000006839633, 0.12800000607967377, 1.0240000486373901, 0.0, 0.0, 0.0, 0.0, 0.0, 1.651837235900914E9, 0.0, 2022-05-06 12:40:35.900
54.0, -213.56698696967214, -44.014882578514516, -114.09125799825415, -139.55810674652457, 0.144000006839633, 0.12800000607967377, 1.0240000486373901, 0.0, 0.0, 0.0, 0.0, 0.0, 1.651837235900914E9, 0.0, 2022-05-06 12:40:35.900
55.0, -234.15887612570077, -149.65583662688732, -170.24211593298241, -190.89945333823562, 0.144000006839633, 0.12800000607967377, 1.0240000486373901, 0.0, 0.0, 0.0, 0.0, 0.0, 1.651837235913946E9, 0.0, 2022-05-06 12:40:35.913
55.0, -304.42037659324706, -273.1622927635908, -256.6637241090648, -241.1188299432397, 0.144000006839633, 0.12800000607967377, 1.0240000486373901, 0.0, 0.0, 0.0, 0.0, 0.0, 1.651837235913946E9, 0.0, 2022-05-06 12:40:35.913
56.0, -279.37800648994744, -168.5236319033429, -209.65692156599835, -203.97414358332753, 0.144000006839633, 0.12800000607967377, 1.0240000486373901, 0.0, 0.0, 0.0, 0.0, 0.0, 1.6518372359299493E9, 0.0, 2022-05-06 12:40:35.929
56.0, -205.59726016409695, -47.77722193393856, -118.10417065070942, -148.2533741435036, 0.144000006839633, 0.12800000607967377, 1.0240000486373901, 0.0, 0.0, 0.0, 0.0, 0.0, 1.6518372359299493E9, 0.0, 2022-05-06 12:40:35.929
57.0, -229.95148867554963, -138.5894726580009, -161.165378740523, -174.5635703317821, 0.144000006839633, 0.12800000607967377, 1.0240000486373901, 0.0, 0.0, 0.0, 0.0, 0.0, 1.651837235930936E9, 0.0, 2022-05-06 12:40:35.930
57.0, -295.67649049684405, -268.85766791459173, -244.15375875728205, -223.85919164773077, 0.144000006839633, 0.12800000607967377, 1.0240000486373901, 0.0, 0.0, 0.0, 0.0, 0.0, 1.651837235930936E9, 0.0, 2022-05-06 12:40:35.930
58.0, -273.93271215446293, -165.21756034251302, -204.64545562537387, -193.0498958127573, 0.144000006839633, 0.12800000607967377, 1.0240000486373901, 0.0, 0.0, 0.0, 0.0, 0.0, 1.6518372359439557E9, 0.0, 2022-05-06 12:40:35.943
58.0, -206.8800458488986, -38.95105803851038, -110.7365677380003, -156.2193610491231, 0.144000006839633, 0.12800000607967377, 1.0240000486373901, 0.0, 0.0, 0.0, 0.0, 0.0, 1.6518372359439557E9, 0.0, 2022-05-06 12:40:35.943
59.0, -237.09095769096166, -147.46799515280873, -158.33427447406575, -170.54317787941545, 0.144000006839633, 0.12800000607967377, 1.0240000486373901, 0.0, 0.0, 0.0, 0.0, 0.0, 1.6518372359599483E9, 0.0, 2022-05-06 12:40:35.959
59.0, -296.30853358935565, -266.10884144715965, -253.7316425438039, -237.91373568121344, 0.144000006839633, 0.12800000607967377, 1.0240000486373901, 0.0, 0.0, 0.0, 0.0, 0.0, 1.6518372359599483E9, 0.0, 2022-05-06 12:40:35.959
60.0, -278.89929929561913, -167.70085391309112, -203.42624823981896, -199.6545591345057, 0.144000006839633, 0.12800000607967377, 1.0240000486373901, 0.0, 0.0, 0.0, 0.0, 0.0, 1.6518372359608955E9, 0.0, 2022-05-06 12:40:35.960
60.0, -187.8252555746585, -32.387533616274595, -105.23891480313614, -130.1410386580974, 0.144000006839633, 0.12800000607967377, 1.0240000486373901, 0.0, 0.0, 0.0, 0.0, 0.0, 1.6518372359608955E9, 0.0, 2022-05-06 12:40:35.960
61.0, -238.42984187509865, -148.29825294297189, -165.94123098393902, -182.81378963403404, 0.144000006839633, 0.12800000607967377, 1.0240000486373901, 0.0, 0.0, 0.0, 0.0, 0.0, 1.65183723597397E9, 0.0, 2022-05-06 12:40:35.973
61.0, -289.7001303676516, -258.80107693374157, -238.0203228299506, -220.9532893821597, 0.144000006839633, 0.12800000607967377, 1.0240000486373901, 0.0, 0.0, 0.0, 0.0, 0.0, 1.65183723597397E9, 0.0, 2022-05-06 12:40:35.973
62.0, -267.6384605290368, -162.1919812783599, -195.56871843291447, -189.26511705759913, 0.144000006839633, 0.12800000607967377, 1.0240000486373901, 0.0, 0.0, 0.0, 0.0, 0.0, 1.6518372359899597E9, 0.0, 2022-05-06 12:40:35.989
62.0, -227.90950329974294, -47.91559823229909, -123.87109638238326, -150.83390511292964, 0.144000006839633, 0.12800000607967377, 1.0240000486373901, 0.0, 0.0, 0.0, 0.0, 0.0, 1.6518372359899597E9, 0.0, 2022-05-06 12:40:35.989
63.0, -244.8624697988853, -150.11584432143718, -167.9495572601445, -188.9023467618972, 0.144000006839633, 0.12800000607967377, 1.0240000486373901, 0.0, 0.0, 0.0, 0.0, 0.0, 1.651837235990908E9, 0.0, 2022-05-06 12:40:35.990
63.0, -313.4447551863268, -277.6539126103744, -262.8382989359088, -245.0419849967584, 0.144000006839633, 0.12800000607967377, 1.0240000486373901, 0.0, 0.0, 0.0, 0.0, 0.0, 1.651837235990908E9, 0.0, 2022-05-06 12:40:35.990
64.0, -274.81158864405006, -162.78662537131459, -206.08531710831448, -202.9082720959559, 0.144000006839633, 0.12800000607967377, 1.0240000486373901, 0.0, 0.0, 0.0, 0.0, 0.0, 1.6518372360039427E9, 0.0, 2022-05-06 12:40:36.003
64.0, -210.86677920166403, -42.881692891940475, -122.7453864957206, -149.31550573091954, 0.144000006839633, 0.12800000607967377, 1.0240000486373901, 0.0, 0.0, 0.0, 0.0, 0.0, 1.6518372360039427E9, 0.0, 2022-05-06 12:40:36.003
65.0, -238.41862217523158, -157.64426293224096, -172.34767960803583, -180.87278155703098, 0.144000006839633, 0.12800000607967377, 1.0240000486373901, 0.0, 0.0, 0.0, 0.0, 0.0, 1.651837236019962E9, 0.0, 2022-05-06 12:40:36.019
65.0, -294.83127310685813, -262.06226969510317, -247.17933782143518, -224.8128661364317, 0.144000006839633, 0.12800000607967377, 1.0240000486373901, 0.0, 0.0, 0.0, 0.0, 0.0, 1.651837236019962E9, 0.0, 2022-05-06 12:40:36.019
66.0, -276.10559402871877, -164.83609054703265, -203.9722736333497, -198.88787964358926, 0.144000006839633, 0.12800000607967377, 1.0240000486373901, 0.0, 0.0, 0.0, 0.0, 0.0, 1.6518372360209093E9, 0.0, 2022-05-06 12:40:36.020
66.0, -195.38359338510782, -35.270996482111514, -105.52688709972426, -140.83341263141483, 0.144000006839633, 0.12800000607967377, 1.0240000486373901, 0.0, 0.0, 0.0, 0.0, 0.0, 1.6518372360209093E9, 0.0, 2022-05-06 12:40:36.020
67.0, -224.1808230439201, -139.67778354510665, -151.49025755515322, -152.4383221939206, 0.144000006839633, 0.12800000607967377, 1.0240000486373901, 0.0, 0.0, 0.0, 0.0, 0.0, 1.6518372360339427E9, 0.0, 2022-05-06 12:40:36.033
67.0, -299.68566324934363, -267.9152131257579, -245.63475913973525, -236.20460140146315, 0.144000006839633, 0.12800000607967377, 1.0240000486373901, 0.0, 0.0, 0.0, 0.0, 0.0, 1.6518372360339427E9, 0.0, 2022-05-06 12:40:36.033
68.0, -272.8631007671356, -159.98170040454715, -200.50164647446945, -202.62029979936779, 0.144000006839633, 0.12800000607967377, 1.0240000486373901, 0.0, 0.0, 0.0, 0.0, 0.0, 1.651837236049984E9, 0.0, 2022-05-06 12:40:36.049
68.0, -194.1344667999074, -34.96058478578925, -106.289826690685, -137.00001517683268, 0.144000006839633, 0.12800000607967377, 1.0240000486373901, 0.0, 0.0, 0.0, 0.0, 0.0, 1.651837236049984E9, 0.0, 2022-05-06 12:40:36.049
69.0, -228.9604151872918, -147.5502729518339, -158.7942821686156, -165.7785453358665, 0.144000006839633, 0.12800000607967377, 1.0240000486373901, 0.0, 0.0, 0.0, 0.0, 0.0, 1.6518372360509226E9, 0.0, 2022-05-06 12:40:36.050
69.0, -306.75033426564187, -272.29837587382644, -255.9194840178825, -238.16056907828897, 0.144000006839633, 0.12800000607967377, 1.0240000486373901, 0.0, 0.0, 0.0, 0.0, 0.0, 1.6518372360509226E9, 0.0, 2022-05-06 12:40:36.050
70.0, -265.9517656490207, -148.72086163796484, -185.0670793573372, -177.10296240169555, 0.144000006839633, 0.12800000607967377, 1.0240000486373901, 0.0, 0.0, 0.0, 0.0, 0.0, 1.651837236063983E9, 0.0, 2022-05-06 12:40:36.063
70.0, -197.6873717578128, -34.803508987650275, -101.9926816415973, -137.37774507235736, 0.144000006839633, 0.12800000607967377, 1.0240000486373901, 0.0, 0.0, 0.0, 0.0, 0.0, 1.651837236063983E9, 0.0, 2022-05-06 12:40:36.063
71.0, -214.3972447598353, -151.79505940154195, -165.82155418535694, -185.8281489983201, 0.144000006839633, 0.12800000607967377, 1.0240000486373901, 0.0, 0.0, 0.0, 0.0, 0.0, 1.6518372360799403E9, 0.0, 2022-05-06 12:40:36.079
71.0, -294.1057325154543, -265.5777756534517, -244.31083455542102, -222.56892616301775, 0.144000006839633, 0.12800000607967377, 1.0240000486373901, 0.0, 0.0, 0.0, 0.0, 0.0, 1.6518372360799403E9, 0.0, 2022-05-06 12:40:36.079
72.0, -286.7605690024793, -159.5179528100416, -198.62421669671312, -201.15799891669303, 0.144000006839633, 0.12800000607967377, 1.0240000486373901, 0.0, 0.0, 0.0, 0.0, 0.0, 1.6518372360808978E9, 0.0, 2022-05-06 12:40:36.080
72.0, -199.78545563295484, -40.832227716222405, -105.70266239764169, -144.33395898994058, 0.144000006839633, 0.12800000607967377, 1.0240000486373901, 0.0, 0.0, 0.0, 0.0, 0.0, 1.6518372360808978E9, 0.0, 2022-05-06 12:40:36.080
73.0, -229.0726121859625, -153.5565522806719, -163.58509401185438, -171.27245837077498, 0.144000006839633, 0.12800000607967377, 1.0240000486373901, 0.0, 0.0, 0.0, 0.0, 0.0, 1.6518372360939832E9, 0.0, 2022-05-06 12:40:36.093
73.0, -304.42785639315844, -278.9105189954862, -259.42751017631963, -247.6786144655198, 0.144000006839633, 0.12800000607967377, 1.0240000486373901, 0.0, 0.0, 0.0, 0.0, 0.0, 1.6518372360939832E9, 0.0, 2022-05-06 12:40:36.093
74.0, -275.59322773478925, -154.2633933722973, -191.4847476813011, -195.32749488577247, 0.144000006839633, 0.12800000607967377, 1.0240000486373901, 0.0, 0.0, 0.0, 0.0, 0.0, 1.6518372361099527E9, 0.0, 2022-05-06 12:40:36.109
74.0, -209.21748332120478, -46.468256949447095, -121.32422451255843, -147.16506325639784, 0.144000006839633, 0.12800000607967377, 1.0240000486373901, 0.0, 0.0, 0.0, 0.0, 0.0, 1.6518372361099527E9, 0.0, 2022-05-06 12:40:36.109
75.0, -237.629503284581, -160.98025369271636, -171.96994971251115, -183.37103472743183, 0.144000006839633, 0.12800000607967377, 1.0240000486373901, 0.0, 0.0, 0.0, 0.0, 0.0, 1.6518372361109648E9, 0.0, 2022-05-06 12:40:36.110
75.0, -306.3015462709591, -272.26471677422523, -257.89415119448677, -234.71986111905426, 0.144000006839633, 0.12800000607967377, 1.0240000486373901, 0.0, 0.0, 0.0, 0.0, 0.0, 1.6518372361109648E9, 0.0, 2022-05-06 12:40:36.110
76.0, -270.58924159407616, -156.31659844797105, -201.49271996272728, -198.59616744704545, 0.144000006839633, 0.12800000607967377, 1.0240000486373901, 0.0, 0.0, 0.0, 0.0, 0.0, 1.6518372361409411E9, 0.0, 2022-05-06 12:40:36.140
76.0, -199.83033443242311, -34.463178091682494, -96.07242001174018, -125.75787591002882, 0.144000006839633, 0.12800000607967377, 1.0240000486373901, 0.0, 0.0, 0.0, 0.0, 0.0, 1.6518372361409411E9, 0.0, 2022-05-06 12:40:36.140
77.0, -218.8065868075937, -144.30403979029506, -157.60499398270622, -156.32781814783812, 0.144000006839633, 0.12800000607967377, 1.0240000486373901, 0.0, 0.0, 0.0, 0.0, 0.0, 1.6518372361418977E9, 0.0, 2022-05-06 12:40:36.141
77.0, -286.9924427997321, -257.62300844769925, -240.17824510438368, -223.93772954680026, 0.144000006839633, 0.12800000607967377, 1.0240000486373901, 0.0, 0.0, 0.0, 0.0, 0.0, 1.6518372361418977E9, 0.0, 2022-05-06 12:40:36.141
78.0, -272.5339895710349, -159.0355057157576, -204.8212309232913, -200.38009972590953, 0.144000006839633, 0.12800000607967377, 1.0240000486373901, 0.0, 0.0, 0.0, 0.0, 0.0, 1.6518372361429465E9, 0.0, 2022-05-06 12:40:36.142
78.0, -210.59750640485436, -42.092574001289904, -111.69398212665692, -153.90062307659537, 0.144000006839633, 0.12800000607967377, 1.0240000486373901, 0.0, 0.0, 0.0, 0.0, 0.0, 1.6518372361429465E9, 0.0, 2022-05-06 12:40:36.142
79.0, -242.52877222653478, -163.0820774678141, -169.00420904764906, -181.59832214843482, 0.144000006839633, 0.12800000607967377, 1.0240000486373901, 0.0, 0.0, 0.0, 0.0, 0.0, 1.6518372361539607E9, 0.0, 2022-05-06 12:40:36.153
79.0, -304.31565939448774, -272.231057674624, -245.45898384181783, -232.80503234174103, 0.144000006839633, 0.12800000607967377, 1.0240000486373901, 0.0, 0.0, 0.0, 0.0, 0.0, 1.6518372361539607E9, 0.0, 2022-05-06 12:40:36.153
80.0, -272.9752977658063, -160.27341260109097, -199.20764108980075, -184.26487081684172, 0.144000006839633, 0.12800000607967377, 1.0240000486373901, 0.0, 0.0, 0.0, 0.0, 0.0, 1.651837236169938E9, 0.0, 2022-05-06 12:40:36.169
80.0, -202.16029210481793, -45.73897645808756, -120.50518642226234, -160.54642529785633, 0.144000006839633, 0.12800000607967377, 1.0240000486373901, 0.0, 0.0, 0.0, 0.0, 0.0, 1.651837236169938E9, 0.0, 2022-05-06 12:40:36.169
81.0, -233.94944172818214, -178.33338948711753, -179.86861841892824, -193.85771420318633, 0.144000006839633, 0.11200000531971455, 1.0240000486373901, 0.0, 0.0, 0.0, 0.0, 0.0, 1.6518372361709096E9, 0.0, 2022-05-06 12:40:36.170
81.0, -303.926709799096, -269.81134240329266, -252.83032665448263, -230.84158486500382, 0.144000006839633, 0.11200000531971455, 1.0240000486373901, 0.0, 0.0, 0.0, 0.0, 0.0, 1.6518372361709096E9, 0.0, 2022-05-06 12:40:36.170
82.0, -266.47161174286157, -148.97891473490745, -189.34178500669077, -187.95241217315197, 0.144000006839633, 0.11200000531971455, 1.0240000486373901, 0.0, 0.0, 0.0, 0.0, 0.0, 1.6518372361839437E9, 0.0, 2022-05-06 12:40:36.183
82.0, -203.33836059086025, -38.94731813855469, -114.28573279595003, -138.30524026136845, 0.144000006839633, 0.11200000531971455, 1.0240000486373901, 0.0, 0.0, 0.0, 0.0, 0.0, 1.6518372361839437E9, 0.0, 2022-05-06 12:40:36.183
83.0, -223.9938280461356, -151.6679028030485, -157.3132817861624, -172.3794687576592, 0.144000006839633, 0.11200000531971455, 1.0240000486373901, 0.0, 0.0, 0.0, 0.0, 0.0, 1.651837236199963E9, 0.0, 2022-05-06 12:40:36.199
83.0, -302.1128583205864, -271.3858402846381, -251.30070757260546, -237.0423389915377, 0.144000006839633, 0.11200000531971455, 1.0240000486373901, 0.0, 0.0, 0.0, 0.0, 0.0, 1.651837236199963E9, 0.0, 2022-05-06 12:40:36.199
84.0, -257.1517810532823, -144.48355498816818, -188.32079231878743, -194.02600970119238, 0.144000006839633, 0.11200000531971455, 1.0240000486373901, 0.0, 0.0, 0.0, 0.0, 0.0, 1.6518372362009273E9, 0.0, 2022-05-06 12:40:36.200
84.0, -206.1358057577163, -41.92053860332817, -115.87519027711824, -145.60926487483084, 0.144000006839633, 0.11200000531971455, 1.0240000486373901, 0.0, 0.0, 0.0, 0.0, 0.0, 1.6518372362009273E9, 0.0, 2022-05-06 12:40:36.200
85.0, -237.71552098356187, -156.58213134482503, -170.0962598347105, -174.05868383776397, 0.144000006839633, 0.11200000531971455, 1.0240000486373901, 0.0, 0.0, 0.0, 0.0, 0.0, 1.651837236213941E9, 0.0, 2022-05-06 12:40:36.213
85.0, -297.1088721798733, -270.74257749225944, -250.01418198784813, -228.7023620903492, 0.144000006839633, 0.11200000531971455, 1.0240000486373901, 0.0, 0.0, 0.0, 0.0, 0.0, 1.651837236213941E9, 0.0, 2022-05-06 12:40:36.213
86.0, -243.44130781572312, -139.12801825162023, -176.68596355663612, -167.17352801933885, 0.144000006839633, 0.11200000531971455, 1.0240000486373901, 0.0, 0.0, 0.0, 0.0, 0.0, 1.6518372362299407E9, 0.0, 2022-05-06 12:40:36.229
86.0, -212.36647908389568, -47.77722193393856, -117.42724875872955, -149.68949572648853, 0.144000006839633, 0.11200000531971455, 1.0240000486373901, 0.0, 0.0, 0.0, 0.0, 0.0, 1.6518372362299407E9, 0.0, 2022-05-06 12:40:36.229
87.0, -246.95307387411594, -167.4876796156168, -177.39280464826152, -185.07268920727074, 0.144000006839633, 0.11200000531971455, 1.0240000486373901, 0.0, 0.0, 0.0, 0.0, 0.0, 1.651837236230936E9, 0.0, 2022-05-06 12:40:36.230
87.0, -307.4048167578876, -272.44423197209835, -251.50266217021272, -237.7753593828529, 0.144000006839633, 0.11200000531971455, 1.0240000486373901, 0.0, 0.0, 0.0, 0.0, 0.0, 1.651837236230936E9, 0.0, 2022-05-06 12:40:36.230
88.0, -269.65800650510937, -153.50045378133655, -197.02727941563353, -199.01503624208272, 0.144000006839633, 0.11200000531971455, 1.0240000486373901, 0.0, 0.0, 0.0, 0.0, 0.0, 1.6518372362439463E9, 0.0, 2022-05-06 12:40:36.243
88.0, -205.14099236950278, -51.41240469086915, -122.94360119337216, -152.16904939711094, 0.144000006839633, 0.11200000531971455, 1.0240000486373901, 0.0, 0.0, 0.0, 0.0, 0.0, 1.6518372362439463E9, 0.0, 2022-05-06 12:40:36.243
89.0, -237.49486688617617, -163.47476696316153, -171.6520582162775, -180.4950516615063, 0.144000006839633, 0.11200000531971455, 1.0240000486373901, 0.0, 0.0, 0.0, 0.0, 0.0, 1.6518372362599692E9, 0.0, 2022-05-06 12:40:36.259
89.0, -301.23772173095495, -268.4313193196431, -240.15206580469385, -212.88632517773658, 0.144000006839633, 0.11200000531971455, 1.0240000486373901, 0.0, 0.0, 0.0, 0.0, 0.0, 1.6518372362599692E9, 0.0, 2022-05-06 12:40:36.259
90.0, -263.0907421829179, -142.34059231355786, -187.72240832587704, -187.9449323732406, 0.144000006839633, 0.11200000531971455, 1.008000047877431, 0.0, 0.0, 0.0, 0.0, 0.0, 1.651837236260904E9, 0.0, 2022-05-06 12:40:36.260
90.0, -197.59387425892055, -44.70302417036146, -109.85395134845749, -145.2876334786415, 0.144000006839633, 0.11200000531971455, 1.008000047877431, 0.0, 0.0, 0.0, 0.0, 0.0, 1.651837236260904E9, 0.0, 2022-05-06 12:40:36.260
91.0, -233.35105773527175, -165.21382044255733, -178.31282003736123, -164.47706015128642, 0.144000006839633, 0.11200000531971455, 1.008000047877431, 0.0, 0.0, 0.0, 0.0, 0.0, 1.651837236273948E9, 0.0, 2022-05-06 12:40:36.273
91.0, -311.47008800972253, -266.89422043785453, -254.68905693246052, -241.79949173517525, 0.144000006839633, 0.11200000531971455, 1.008000047877431, 0.0, 0.0, 0.0, 0.0, 0.0, 1.651837236273948E9, 0.0, 2022-05-06 12:40:36.273
92.0, -262.21934549324214, -146.1403306685388, -189.6671563028358, -198.3942128494382, 0.144000006839633, 0.11200000531971455, 1.008000047877431, 0.0, 0.0, 0.0, 0.0, 0.0, 1.651837236289968E9, 0.0, 2022-05-06 12:40:36.289
92.0, -196.70003816951066, -40.12164672464132, -108.27571356715634, -140.85585203114897, 0.144000006839633, 0.11200000531971455, 1.008000047877431, 0.0, 0.0, 0.0, 0.0, 0.0, 1.651837236289968E9, 0.0, 2022-05-06 12:40:36.289
93.0, -246.87827587500215, -175.46114632114768, -184.56219286331907, -188.80510936304927, 0.144000006839633, 0.11200000531971455, 1.008000047877431, 0.0, 0.0, 0.0, 0.0, 0.0, 1.651837236290903E9, 0.0, 2022-05-06 12:40:36.290
93.0, -297.71099607273936, -270.0506960004568, -249.53547479351982, -223.87789114750922, 0.144000006839633, 0.11200000531971455, 1.008000047877431, 0.0, 0.0, 0.0, 0.0, 0.0, 1.651837236290903E9, 0.0, 2022-05-06 12:40:36.290
94.0, -268.65945321694016, -137.8826315663755, -184.83894546004012, -189.58300855383277, 0.144000006839633, 0.11200000531971455, 1.008000047877431, 0.0, 0.0, 0.0, 0.0, 0.0, 1.651837236303959E9, 0.0, 2022-05-06 12:40:36.303
94.0, -200.42123862542212, -41.45305110886693, -108.20091556804255, -139.6553441453725, 0.144000006839633, 0.11200000531971455, 1.008000047877431, 0.0, 0.0, 0.0, 0.0, 0.0, 1.651837236303959E9, 0.0, 2022-05-06 12:40:36.303
95.0, -242.65966872498393, -174.6757673304528, -175.81456686696038, -177.94817979168147, 0.144000006839633, 0.11200000531971455, 1.008000047877431, 0.0, 0.0, 0.0, 0.0, 0.0, 1.6518372363199737E9, 0.0, 2022-05-06 12:40:36.319
95.0, -297.8867713706568, -263.8275024741888, -253.00236205244437, -231.6307037556544, 0.144000006839633, 0.11200000531971455, 1.008000047877431, 0.0, 0.0, 0.0, 0.0, 0.0, 1.6518372363199737E9, 0.0, 2022-05-06 12:40:36.319
96.0, -256.2691646637395, -128.97792977187783, -174.67389738047495, -180.17716016527265, 0.144000006839633, 0.11200000531971455, 1.008000047877431, 0.0, 0.0, 0.0, 0.0, 0.0, 1.6518372363209114E9, 0.0, 2022-05-06 12:40:36.320
96.0, -196.80475536826998, -39.53074253164232, -107.4791148765944, -132.9497035248205, 0.144000006839633, 0.11200000531971455, 1.008000047877431, 0.0, 0.0, 0.0, 0.0, 0.0, 1.6518372363209114E9, 0.0, 2022-05-06 12:40:36.320
97.0, -256.36266216263175, -186.50881079025567, -191.26783348387107, -202.93445139564574, 0.144000006839633, 0.11200000531971455, 1.008000047877431, 0.0, 0.0, 0.0, 0.0, 0.0, 1.6518372363339362E9, 0.0, 2022-05-06 12:40:36.333
97.0, -319.5894108135253, -284.9579372238368, -267.9657017751597, -244.84003039915115, 0.144000006839633, 0.11200000531971455, 1.008000047877431, 0.0, 0.0, 0.0, 0.0, 0.0, 1.6518372363339362E9, 0.0, 2022-05-06 12:40:36.333
98.0, -256.8264097571373, -141.03910712897778, -186.4770216406323, -189.5007307548076, 0.144000006839633, 0.11200000531971455, 1.008000047877431, 0.0, 0.0, 0.0, 0.0, 0.0, 1.6518372363499672E9, 0.0, 2022-05-06 12:40:36.349
98.0, -204.318214379251, -46.68517114687711, -110.8861637362279, -148.27955344319344, 0.144000006839633, 0.11200000531971455, 1.008000047877431, 0.0, 0.0, 0.0, 0.0, 0.0, 1.6518372363499672E9, 0.0, 2022-05-06 12:40:36.349
99.0, -261.8752746973187, -186.1946591939777, -194.5926045444794, -202.30240830313414, 0.144000006839633, 0.11200000531971455, 1.008000047877431, 0.0, 0.0, 0.0, 0.0, 0.0, 1.6518372363509116E9, 0.0, 2022-05-06 12:40:36.350
99.0, -306.6194377671927, -267.4215463316068, -255.53053442249075, -232.69283534307033, 0.144000006839633, 0.11200000531971455, 1.008000047877431, 0.0, 0.0, 0.0, 0.0, 0.0, 1.6518372363509116E9, 0.0, 2022-05-06 12:40:36.350
100.0, -260.9103805087507, -133.76126181520522, -184.12462456850335, -178.77843758184463, 0.144000006839633, 0.11200000531971455, 1.008000047877431, 0.0, 0.0, 0.0, 0.0, 0.0, 1.6518372363649626E9, 0.0, 2022-05-06 12:40:36.364
100.0, -217.37046522460878, -55.290680944919586, -127.76433223625645, -152.67393589112908, 0.144000006839633, 0.11200000531971455, 1.008000047877431, 0.0, 0.0, 0.0, 0.0, 0.0, 1.6518372363649626E9, 0.0, 2022-05-06 12:40:36.364
0.0, -248.9146514008753, -179.68349337112159, -182.20418594125658, -181.89190429495648, 0.144000006839633, 0.11200000531971455, 1.008000047877431, 0.0, 0.0, 0.0, 0.0, 0.0, 1.651837236365903E9, 0.0, 2022-05-06 12:40:36.365
1.0, -300.8581218854524, -267.2831700332463, -261.3853478031233, -233.66707928152755, 0.144000006839633, 0.12800000607967377, 1.008000047877431, 0.0, 0.0, 0.0, 0.0, 0.0, 1.6518372363789532E9, 0.0, 2022-05-06 12:40:36.378
1.0, -270.8117656414397, -149.05371273402125, -190.07293544802815, -198.1492494023405, 0.144000006839633, 0.12800000607967377, 1.008000047877431, 0.0, 0.0, 0.0, 0.0, 0.0, 1.6518372363789532E9, 0.0, 2022-05-06 12:40:36.378
2.0, -226.1611000704579, -56.165817534551024, -128.36458617914468, -157.43669848470017, 0.144000006839633, 0.12800000607967377, 1.008000047877431, 0.0, 0.0, 0.0, 0.0, 0.0, 1.6518372363949375E9, 0.0, 2022-05-06 12:40:36.394
2.0, -254.04953404003754, -185.41302010323852, -187.76541717536747, -189.53999970434234, 0.144000006839633, 0.12800000607967377, 1.008000047877431, 0.0, 0.0, 0.0, 0.0, 0.0, 1.6518372363949375E9, 0.0, 2022-05-06 12:40:36.394
3.0, -318.33467437839136, -271.21754478663206, -252.07299691345543, -231.6811924050562, 0.144000006839633, 0.12800000607967377, 1.008000047877431, 0.0, 0.0, 0.0, 0.0, 0.0, 1.6518372363959017E9, 0.0, 2022-05-06 12:40:36.395
3.0, -279.05076524382457, -150.1869024205953, -195.9408384785056, -202.6670485488139, 0.144000006839633, 0.12800000607967377, 1.008000047877431, 0.0, 0.0, 0.0, 0.0, 0.0, 1.6518372363959017E9, 0.0, 2022-05-06 12:40:36.395
4.0, -201.55255836201832, -48.495282725431025, -119.56460158340633, -149.9381990735419, 0.144000006839633, 0.12800000607967377, 1.008000047877431, 0.0, 0.0, 0.0, 0.0, 0.0, 1.6518372364089646E9, 0.0, 2022-05-06 12:40:36.408
4.0, -261.52559405146167, -188.7527507636696, -193.77169650420547, -197.4050093111582, 0.144000006839633, 0.12800000607967377, 1.008000047877431, 0.0, 0.0, 0.0, 0.0, 0.0, 1.6518372364089646E9, 0.0, 2022-05-06 12:40:36.408
5.0, -314.0973677285947, -264.0930353710428, -257.3462558509782, -234.23554407479241, 0.144000006839633, 0.12800000607967377, 1.008000047877431, 0.0, 0.0, 0.0, 0.0, 0.0, 1.6518372364250045E9, 0.0, 2022-05-06 12:40:36.425
5.0, -272.6630161195062, -140.48560193553567, -186.99499778449535, -195.01147333951667, 0.144000006839633, 0.12800000607967377, 1.008000047877431, 0.0, 0.0, 0.0, 0.0, 0.0, 1.6518372364250045E9, 0.0, 2022-05-06 12:40:36.425
6.0, -206.49670610344037, -50.42507110256702, -122.51164274848998, -149.418352979701, 0.144000006839633, 0.12800000607967377, 1.008000047877431, 0.0, 0.0, 0.0, 0.0, 0.0, 1.6518372364259164E9, 0.0, 2022-05-06 12:40:36.425
6.0, -252.57227355754003, -189.65780655294657, -199.07487464137375, -205.34855681704357, 0.144000006839633, 0.12800000607967377, 1.008000047877431, 0.0, 0.0, 0.0, 0.0, 0.0, 1.6518372364259164E9, 0.0, 2022-05-06 12:40:36.425
7.0, -312.2498571504839, -268.18822582252324, -253.40440129768103, -230.09921472379938, 0.144000006839633, 0.12800000607967377, 1.008000047877431, 0.0, 0.0, 0.0, 0.0, 0.0, 1.651837236438987E9, 0.0, 2022-05-06 12:40:36.438
7.0, -274.5965443965979, -141.4392764242366, -190.88823363836855, -191.27157338382676, 0.144000006839633, 0.12800000607967377, 1.008000047877431, 0.0, 0.0, 0.0, 0.0, 0.0, 1.651837236438987E9, 0.0, 2022-05-06 12:40:36.438
8.0, -208.4115348807536, -45.77263555768877, -115.22257773485035, -154.9085261146538, 0.144000006839633, 0.12800000607967377, 1.008000047877431, 0.0, 0.0, 0.0, 0.0, 0.0, 1.651837236454944E9, 0.0, 2022-05-06 12:40:36.454
8.0, -243.1365059693344, -174.51121173240244, -177.06182350218296, -186.23766804346815, 0.144000006839633, 0.12800000607967377, 1.008000047877431, 0.0, 0.0, 0.0, 0.0, 0.0, 1.651837236454944E9, 0.0, 2022-05-06 12:40:36.454
9.0, -302.1184681705199, -254.06636358983815, -244.97466679755598, -212.84331632824615, 0.144000006839633, 0.12800000607967377, 1.008000047877431, 0.0, 0.0, 0.0, 0.0, 0.0, 1.651837236455896E9, 0.0, 2022-05-06 12:40:36.455
9.0, -269.2597071598284, -139.57306634634733, -197.47793736029416, -199.5554517856799, 0.144000006839633, 0.12800000607967377, 1.008000047877431, 0.0, 0.0, 0.0, 0.0, 0.0, 1.651837236455896E9, 0.0, 2022-05-06 12:40:36.455
10.0, -207.79819128802046, -53.06918037123978, -121.03064236603677, -153.18443223508075, 0.144000006839633, 0.12800000607967377, 1.0240000486373901, 0.0, 0.0, 0.0, 0.0, 0.0, 1.6518372364689493E9, 0.0, 2022-05-06 12:40:36.468
10.0, -263.2571677309461, -193.1284337118268, -189.30625595711172, -198.16046910220757, 0.144000006839633, 0.12800000607967377, 1.0240000486373901, 0.0, 0.0, 0.0, 0.0, 0.0, 1.6518372364689493E9, 0.0, 2022-05-06 12:40:36.468
11.0, -298.2252323166467, -259.59393572434783, -235.3706037113443, -214.7095264061354, 0.144000006839633, 0.12800000607967377, 1.0240000486373901, 0.0, 0.0, 0.0, 0.0, 0.0, 1.651837236484943E9, 0.0, 2022-05-06 12:40:36.484
11.0, -254.74141553184018, -123.319461138919, -169.14071539603174, -170.03268153546378, 0.144000006839633, 0.12800000607967377, 1.0240000486373901, 0.0, 0.0, 0.0, 0.0, 0.0, 1.651837236484943E9, 0.0, 2022-05-06 12:40:36.484
12.0, -209.2305729710497, -44.833920668810606, -121.85716025624424, -148.18418599432334, 0.144000006839633, 0.12800000607967377, 1.0240000486373901, 0.0, 0.0, 0.0, 0.0, 0.0, 1.6518372364859405E9, 0.0, 2022-05-06 12:40:36.485
12.0, -252.42267755931243, -190.37212744448334, -198.19973805174232, -213.72219281783327, 0.144000006839633, 0.12800000607967377, 1.0240000486373901, 0.0, 0.0, 0.0, 0.0, 0.0, 1.6518372364859405E9, 0.0, 2022-05-06 12:40:36.485
13.0, -314.0487490291707, -268.22188492212445, -258.2064328407869, -244.5015694531612, 0.144000006839633, 0.12800000607967377, 1.0240000486373901, 0.0, 0.0, 0.0, 0.0, 0.0, 1.6518372364989865E9, 0.0, 2022-05-06 12:40:36.498
13.0, -280.94315462140366, -143.9599689943716, -192.28321632184088, -200.40440907562152, 0.144000006839633, 0.12800000607967377, 1.0240000486373901, 0.0, 0.0, 0.0, 0.0, 0.0, 1.6518372364989865E9, 0.0, 2022-05-06 12:40:36.498
14.0, -222.16688691778108, -59.756121492013335, -126.42731800209731, -160.41739874938503, 0.144000006839633, 0.12800000607967377, 1.0240000486373901, 0.0, 0.0, 0.0, 0.0, 0.0, 1.6518372365149508E9, 0.0, 2022-05-06 12:40:36.514
14.0, -260.63549786200747, -190.29732944536954, -193.4949439074844, -197.00857991585508, 0.144000006839633, 0.12800000607967377, 1.0240000486373901, 0.0, 0.0, 0.0, 0.0, 0.0, 1.6518372365149508E9, 0.0, 2022-05-06 12:40:36.514
15.0, -309.2803765856661, -260.73460521083325, -251.20908002369106, -229.15675993496552, 0.144000006839633, 0.12800000607967377, 1.0240000486373901, 0.0, 0.0, 0.0, 0.0, 0.0, 1.6518372365159204E9, 0.0, 2022-05-06 12:40:36.515
15.0, -256.15883761504665, -125.18941111676395, -180.31927636358887, -182.6249246862717, 0.144000006839633, 0.12800000607967377, 1.0240000486373901, 0.0, 0.0, 0.0, 0.0, 0.0, 1.6518372365159204E9, 0.0, 2022-05-06 12:40:36.515
16.0, -210.9284875509329, -55.62353204097599, -120.91470546741039, -155.55178890703246, 0.144000006839633, 0.12800000607967377, 1.0240000486373901, 0.0, 0.0, 0.0, 0.0, 0.0, 1.6518372365289664E9, 0.0, 2022-05-06 12:40:36.528
16.0, -247.8039011140354, -186.69580578804016, -181.44872615020722, -186.4059635414742, 0.144000006839633, 0.12800000607967377, 1.0240000486373901, 0.0, 0.0, 0.0, 0.0, 0.0, 1.6518372365289664E9, 0.0, 2022-05-06 12:40:36.528
17.0, -308.195805598516, -261.85283529758453, -256.3065636632964, -225.63751407666132, 0.144000006839633, 0.12800000607967377, 1.0240000486373901, 0.0, 0.0, 0.0, 0.0, 0.0, 1.6518372365449567E9, 0.0, 2022-05-06 12:40:36.544
17.0, -277.0424389676191, -134.22500940971076, -188.15436677075922, -188.3694110182114, 0.144000006839633, 0.12800000607967377, 1.0240000486373901, 0.0, 0.0, 0.0, 0.0, 0.0, 1.6518372365449567E9, 0.0, 2022-05-06 12:40:36.544
18.0, -205.27375881792977, -52.571773677133024, -108.17286631837487, -141.06715637864545, 0.144000006839633, 0.12800000607967377, 1.0240000486373901, 0.0, 0.0, 0.0, 0.0, 0.0, 1.651837236545951E9, 0.0, 2022-05-06 12:40:36.545
18.0, -236.3897264492698, -184.13023441843688, -175.28911092318594, -182.6249246862717, 0.144000006839633, 0.12800000607967377, 1.0240000486373901, 0.0, 0.0, 0.0, 0.0, 0.0, 1.651837236545951E9, 0.0, 2022-05-06 12:40:36.545
19.0, -314.11232732841745, -266.62120774108917, -260.2371985167265, -241.3899726900272, 0.144000006839633, 0.12800000607967377, 1.0240000486373901, 0.0, 0.0, 0.0, 0.0, 0.0, 1.6518372365589595E9, 0.0, 2022-05-06 12:40:36.558
19.0, -267.8796840761788, -130.35047305561602, -185.40554030332714, -190.63953029131517, 0.144000006839633, 0.12800000607967377, 1.0240000486373901, 0.0, 0.0, 0.0, 0.0, 0.0, 1.6518372365589595E9, 0.0, 2022-05-06 12:40:36.558
20.0, -206.3732894049026, -47.691204234957695, -116.239830522798, -153.92493242630735, 0.144000006839633, 0.12800000607967377, 1.0240000486373901, 0.0, 0.0, 0.0, 0.0, 0.0, 1.6518372365749447E9, 0.0, 2022-05-06 12:40:36.574
20.0, -261.67892994964495, -190.4618850434199, -189.67650605272502, -194.38317014696077, 0.144000006839633, 0.12800000607967377, 1.0240000486373901, 0.0, 0.0, 0.0, 0.0, 0.0, 1.6518372365749447E9, 0.0, 2022-05-06 12:40:36.574
21.0, -303.6106882528402, -256.88624815642834, -246.4182681804523, -213.98772571468726, 0.144000006839633, 0.12800000607967377, 1.0240000486373901, 0.0, 0.0, 0.0, 0.0, 0.0, 1.6518372365758936E9, 0.0, 2022-05-06 12:40:36.575
21.0, -246.9512039241381, -121.36723336204886, -173.2658250471577, -182.15743719181046, 0.144000006839633, 0.12800000607967377, 1.0240000486373901, 0.0, 0.0, 0.0, 0.0, 0.0, 1.6518372365758936E9, 0.0, 2022-05-06 12:40:36.575
22.0, -206.47426670370623, -50.8028009980917, -123.99264313094318, -156.15017289994285, 0.144000006839633, 0.12800000607967377, 1.0240000486373901, 0.0, 0.0, 0.0, 0.0, 0.0, 1.651837236588943E9, 0.0, 2022-05-06 12:40:36.588
22.0, -267.0344666861929, -197.9828238543123, -197.0590685652569, -197.27037291275337, 0.144000006839633, 0.12800000607967377, 1.0240000486373901, 0.0, 0.0, 0.0, 0.0, 0.0, 1.651837236588943E9, 0.0, 2022-05-06 12:40:36.588
23.0, -311.33732156129554, -261.5648630009964, -255.6820003706962, -231.18004581099376, 0.144000006839633, 0.12800000607967377, 1.0240000486373901, 0.0, 0.0, 0.0, 0.0, 0.0, 1.6518372366049428E9, 0.0, 2022-05-06 12:40:36.604
23.0, -258.9226236823015, -122.36952655017376, -173.53509784396738, -188.2572140195407, 0.144000006839633, 0.12800000607967377, 1.0240000486373901, 0.0, 0.0, 0.0, 0.0, 0.0, 1.6518372366049428E9, 0.0, 2022-05-06 12:40:36.604
24.0, -213.28462452301756, -57.26160822156817, -120.55193517170846, -150.99285086104646, 0.144000006839633, 0.12800000607967377, 1.0240000486373901, 0.0, 0.0, 0.0, 0.0, 0.0, 1.6518372366058948E9, 0.0, 2022-05-06 12:40:36.605
24.0, -266.0433931979351, -201.45345101319253, -206.730449850671, -211.5680104433559, 0.144000006839633, 0.12800000607967377, 1.0240000486373901, 0.0, 0.0, 0.0, 0.0, 0.0, 1.6518372366058948E9, 0.0, 2022-05-06 12:40:36.605
25.0, -313.0651553408243, -262.0921888947487, -259.0030315313488, -238.3494340260513, 0.144000006839633, 0.12800000607967377, 1.0240000486373901, 0.0, 0.0, 0.0, 0.0, 0.0, 1.6518372366189387E9, 0.0, 2022-05-06 12:40:36.618
25.0, -253.93359714141116, -122.63879934698343, -176.61303550750017, -186.23766804346815, 0.144000006839633, 0.12800000607967377, 1.0240000486373901, 0.0, 0.0, 0.0, 0.0, 0.0, 1.6518372366189387E9, 0.0, 2022-05-06 12:40:36.618
26.0, -206.50418590335175, -53.20755666960031, -116.62130031827837, -149.02566348435357, 0.144000006839633, 0.12800000607967377, 1.0240000486373901, 0.0, 0.0, 0.0, 0.0, 0.0, 1.6518372366349592E9, 0.0, 2022-05-06 12:40:36.634
26.0, -279.84362403443083, -206.5845937523991, -207.3550131432712, -208.16844138363376, 0.144000006839633, 0.12800000607967377, 1.0240000486373901, 0.0, 0.0, 0.0, 0.0, 0.0, 1.6518372366349592E9, 0.0, 2022-05-06 12:40:36.634
27.0, -316.2328506032936, -260.1137818181887, -252.39836820960045, -226.4640319668688, 0.144000006839633, 0.12800000607967377, 1.0240000486373901, 0.0, 0.0, 0.0, 0.0, 0.0, 1.6518372366358843E9, 0.0, 2022-05-06 12:40:36.635
27.0, -262.5877256388776, -119.42248538509011, -177.63402819540352, -185.75148104922846, 0.144000006839633, 0.12800000607967377, 1.0240000486373901, 0.0, 0.0, 0.0, 0.0, 0.0, 1.6518372366358843E9, 0.0, 2022-05-06 12:40:36.635
28.0, -210.27774495864287, -63.342685549519956, -123.90288553200662, -163.15126561699435, 0.144000006839633, 0.12800000607967377, 1.0240000486373901, 0.0, 0.0, 0.0, 0.0, 0.0, 1.6518372366490612E9, 0.0, 2022-05-06 12:40:36.649
28.0, -249.37839899538085, -194.91610589064658, -190.69749874062836, -195.9277488286607, 0.144000006839633, 0.12800000607967377, 1.0240000486373901, 0.0, 0.0, 0.0, 0.0, 0.0, 1.6518372366490612E9, 0.0, 2022-05-06 12:40:36.649
29.0, -313.4316655364819, -260.21475911699235, -253.21740629989654, -218.1577141652815, 0.144000006839633, 0.12800000607967377, 1.0240000486373901, 0.0, 0.0, 0.0, 0.0, 0.0, 1.651837236665021E9, 0.0, 2022-05-06 12:40:36.665
29.0, -254.55816043401137, -112.6831856649369, -166.82571732345968, -173.45468999492005, 0.144000006839633, 0.12800000607967377, 1.0240000486373901, 0.0, 0.0, 0.0, 0.0, 0.0, 1.651837236665021E9, 0.0, 2022-05-06 12:40:36.665
30.0, -198.97576729254797, -48.850573221221566, -115.01314333733171, -146.06740261940286, 0.144000006839633, 0.12800000607967377, 1.0240000486373901, 0.0, 0.0, 0.0, 0.0, 0.0, 1.6518372366659653E9, 0.0, 2022-05-06 12:40:36.665
30.0, -261.46201575221494, -197.84444755595177, -192.7544437162578, -206.6724814013578, 0.144000006839633, 0.12800000607967377, 1.0240000486373901, 0.0, 0.0, 0.0, 0.0, 0.0, 1.6518372366659653E9, 0.0, 2022-05-06 12:40:36.665
31.0, -311.59163475828245, -263.69660597573966, -253.90928779169917, -233.61846058210358, 0.144000006839633, 0.12800000607967377, 1.0240000486373901, 0.0, 0.0, 0.0, 0.0, 0.0, 1.6518372366789348E9, 0.0, 2022-05-06 12:40:36.678
31.0, -253.5109884464182, -124.34419372677803, -176.95336640346795, -180.0256942170672, 0.144000006839633, 0.12800000607967377, 1.0240000486373901, 0.0, 0.0, 0.0, 0.0, 0.0, 1.6518372366789348E9, 0.0, 2022-05-06 12:40:36.678
32.0, -214.69082690635696, -55.39913804363459, -121.67016525845975, -148.9396457853727, 0.144000006839633, 0.12800000607967377, 1.0240000486373901, 0.0, 0.0, 0.0, 0.0, 0.0, 1.6518372366949496E9, 0.0, 2022-05-06 12:40:36.694
32.0, -257.0264944047667, -198.18103855196387, -194.77772959228605, -193.13778346171603, 0.144000006839633, 0.12800000607967377, 1.0240000486373901, 0.0, 0.0, 0.0, 0.0, 0.0, 1.6518372366949496E9, 0.0, 2022-05-06 12:40:36.694
33.0, -305.8209691266529, -256.4112808620557, -247.9329276625067, -221.69191962340847, 0.144000006839633, 0.12800000607967377, 1.0240000486373901, 0.0, 0.0, 0.0, 0.0, 0.0, 1.651837236695888E9, 0.0, 2022-05-06 12:40:36.695
33.0, -262.12397804437205, -122.14513255283237, -181.4562059501186, -198.83739099418744, 0.144000006839633, 0.12800000607967377, 1.0240000486373901, 0.0, 0.0, 0.0, 0.0, 0.0, 1.651837236695888E9, 0.0, 2022-05-06 12:40:36.695
34.0, -211.1154825487174, -56.999815224669874, -121.9469178551808, -161.73384353378788, 0.144000006839633, 0.12800000607967377, 1.0240000486373901, 0.0, 0.0, 0.0, 0.0, 0.0, 1.6518372367089386E9, 0.0, 2022-05-06 12:40:36.708
34.0, -269.02409346261993, -203.95918398350477, -201.4272717135027, -202.5623313500546, 0.144000006839633, 0.12800000607967377, 1.0240000486373901, 0.0, 0.0, 0.0, 0.0, 0.0, 1.6518372367089386E9, 0.0, 2022-05-06 12:40:36.708
35.0, -322.5084027289413, -265.69745245203376, -265.4244397552684, -238.3157749264501, 0.144000006839633, 0.12800000607967377, 1.0240000486373901, 0.0, 0.0, 0.0, 0.0, 0.0, 1.6518372367249708E9, 0.0, 2022-05-06 12:40:36.724
35.0, -255.4033778239973, -109.16767970658839, -168.17208130750805, -184.65569036221132, 0.144000006839633, 0.12800000607967377, 1.0240000486373901, 0.0, 0.0, 0.0, 0.0, 0.0, 1.6518372367249708E9, 0.0, 2022-05-06 12:40:36.724
36.0, -210.90230825124308, -60.89679097849876, -118.88019989151508, -150.80585586326197, 0.144000006839633, 0.12800000607967377, 1.0240000486373901, 0.0, 0.0, 0.0, 0.0, 0.0, 1.6518372367259052E9, 0.0, 2022-05-06 12:40:36.725
36.0, -264.8167060124688, -213.16307777445763, -207.59436674043536, -203.7067407364957, 0.144000006839633, 0.12800000607967377, 1.0240000486373901, 0.0, 0.0, 0.0, 0.0, 0.0, 1.6518372367259052E9, 0.0, 2022-05-06 12:40:36.725
37.0, -308.10978789953515, -264.1640934702009, -255.43516697362065, -230.82101541524753, 0.144000006839633, 0.12800000607967377, 1.0240000486373901, 0.0, 0.0, 0.0, 0.0, 0.0, 1.651837236738938E9, 0.0, 2022-05-06 12:40:36.738
37.0, -258.2905805897899, -117.57123490702361, -169.72413978911936, -178.03606744064018, 0.144000006839633, 0.12800000607967377, 1.0240000486373901, 0.0, 0.0, 0.0, 0.0, 0.0, 1.651837236738938E9, 0.0, 2022-05-06 12:40:36.738
38.0, -210.13936866028234, -64.80124653223902, -130.133558858186, -159.1720120641403, 0.144000006839633, 0.12800000607967377, 1.0240000486373901, 0.0, 0.0, 0.0, 0.0, 0.0, 1.651837236755016E9, 0.0, 2022-05-06 12:40:36.755
38.0, -248.41350480681285, -196.18767187558115, -191.6137742297724, -189.7718735015951, 0.144000006839633, 0.12800000607967377, 1.0240000486373901, 0.0, 0.0, 0.0, 0.0, 0.0, 1.651837236755016E9, 0.0, 2022-05-06 12:40:36.755
39.0, -321.4013923420571, -264.4221465671435, -268.7566906157881, -255.04434742825106, 0.144000006839633, 0.12800000607967377, 1.0240000486373901, 0.0, 0.0, 0.0, 0.0, 0.0, 1.6518372367559075E9, 0.0, 2022-05-06 12:40:36.755
39.0, -256.4655094114132, -117.04016911331564, -173.34810284618288, -188.85933791240677, 0.144000006839633, 0.12800000607967377, 1.0240000486373901, 0.0, 0.0, 0.0, 0.0, 0.0, 1.6518372367559075E9, 0.0, 2022-05-06 12:40:36.755
40.0, -207.86924938717857, -66.35704491380602, -128.7684953743592, -160.95594434300438, 0.144000006839633, 0.12800000607967377, 1.0240000486373901, 0.0, 0.0, 0.0, 0.0, 0.0, 1.6518372367689505E9, 0.0, 2022-05-06 12:40:36.768
40.0, -265.86761790001765, -212.79656757880002, -212.55721398163587, -207.62615589005873, 0.144000006839633, 0.12800000607967377, 1.0240000486373901, 0.0, 0.0, 0.0, 0.0, 0.0, 1.6518372367689505E9, 0.0, 2022-05-06 12:40:36.768
41.0, -318.04296218184754, -260.02402421925217, -254.99011887889355, -235.15181956393644, 0.144000006839633, 0.12800000607967377, 1.0240000486373901, 0.0, 0.0, 0.0, 0.0, 0.0, 1.6518372367849507E9, 0.0, 2022-05-06 12:40:36.784
41.0, -243.08040746999905, -106.40015373937786, -166.81449762359262, -165.71683698659763, 0.144000006839633, 0.12800000607967377, 1.0240000486373901, 0.0, 0.0, 0.0, 0.0, 0.0, 1.6518372367849507E9, 0.0, 2022-05-06 12:40:36.784
42.0, -207.21850679488853, -55.88158513791859, -112.05862237233669, -129.13313562003896, 0.144000006839633, 0.12800000607967377, 1.0240000486373901, 0.0, 0.0, 0.0, 0.0, 0.0, 1.6518372367859404E9, 0.0, 2022-05-06 12:40:36.785
42.0, -267.8909037760459, -209.14642522204667, -207.52704854123294, -206.60890310211107, 0.144000006839633, 0.12800000607967377, 1.0240000486373901, 0.0, 0.0, 0.0, 0.0, 0.0, 1.6518372367859404E9, 0.0, 2022-05-06 12:40:36.785
43.0, -295.2632315517403, -245.75630588829517, -239.83604425843805, -218.32226976333186, 0.144000006839633, 0.12800000607967377, 1.0240000486373901, 0.0, 0.0, 0.0, 0.0, 0.0, 1.651837236798957E9, 0.0, 2022-05-06 12:40:36.798
43.0, -261.6153516503982, -118.76426299288869, -180.4913117615506, -191.1144975856878, 0.144000006839633, 0.12800000607967377, 1.0240000486373901, 0.0, 0.0, 0.0, 0.0, 0.0, 1.651837236798957E9, 0.0, 2022-05-06 12:40:36.798
44.0, -211.44459374481812, -65.94939581863582, -128.92931107245386, -159.8339743562974, 0.144000006839633, 0.12800000607967377, 1.0240000486373901, 0.0, 0.0, 0.0, 0.0, 0.0, 1.6518372368149612E9, 0.0, 2022-05-06 12:40:36.814
44.0, -264.26694071898237, -211.12857219856232, -213.27153487317264, -203.112096643541, 0.144000006839633, 0.12800000607967377, 1.0240000486373901, 0.0, 0.0, 0.0, 0.0, 0.0, 1.6518372368149612E9, 0.0, 2022-05-06 12:40:36.814
45.0, -315.0959210167639, -263.6816463759169, -276.99943011812866, -254.8012539311312, 0.144000006839633, 0.12800000607967377, 1.0240000486373901, 0.0, 0.0, 0.0, 0.0, 0.0, 1.651837236815915E9, 0.0, 2022-05-06 12:40:36.815
45.0, -266.37998419394717, -117.56375510711223, -179.35064227506518, -189.26324710762128, 0.144000006839633, 0.12800000607967377, 1.0240000486373901, 0.0, 0.0, 0.0, 0.0, 0.0, 1.651837236815915E9, 0.0, 2022-05-06 12:40:36.815
46.0, -211.1192224486731, -70.69532886240631, -125.38762581441551, -158.77184276888147, 0.144000006839633, 0.12800000607967377, 1.0240000486373901, 0.0, 0.0, 0.0, 0.0, 0.0, 1.651837236828953E9, 0.0, 2022-05-06 12:40:36.828
46.0, -260.3662250651978, -208.8023544261232, -203.77966878563166, -194.34577114740387, 0.144000006839633, 0.12800000607967377, 1.0240000486373901, 0.0, 0.0, 0.0, 0.0, 0.0, 1.651837236828953E9, 0.0, 2022-05-06 12:40:36.828
47.0, -308.8652476905845, -253.50911849644035, -254.03270449023694, -235.1293801642023, 0.144000006839633, 0.12800000607967377, 1.0240000486373901, 0.0, 0.0, 0.0, 0.0, 0.0, 1.6518372368449724E9, 0.0, 2022-05-06 12:40:36.844
47.0, -247.33267371961847, -102.26382438838482, -166.39188892859966, -169.30340104410425, 0.144000006839633, 0.12800000607967377, 1.0240000486373901, 0.0, 0.0, 0.0, 0.0, 0.0, 1.6518372368449724E9, 0.0, 2022-05-06 12:40:36.844
48.0, -206.6687415014021, -63.350165349431336, -117.65725260600448, -158.33801437402144, 0.144000006839633, 0.12800000607967377, 1.0240000486373901, 0.0, 0.0, 0.0, 0.0, 0.0, 1.6518372368459265E9, 0.0, 2022-05-06 12:40:36.845
48.0, -265.19443590799347, -209.53537481743842, -197.8743667555973, -199.78732558293268, 0.144000006839633, 0.12800000607967377, 1.0240000486373901, 0.0, 0.0, 0.0, 0.0, 0.0, 1.6518372368459265E9, 0.0, 2022-05-06 12:40:36.845
49.0, -304.73639813950285, -249.53360484354198, -253.05659060180187, -219.69481304707006, 0.144000006839633, 0.12800000607967377, 1.0240000486373901, 0.0, 0.0, 0.0, 0.0, 0.0, 1.6518372368589635E9, 0.0, 2022-05-06 12:40:36.858
49.0, -247.79642131412402, -107.40244692750275, -166.61254302598536, -183.64965727413073, 0.144000006839633, 0.12800000607967377, 1.0240000486373901, 0.0, 0.0, 0.0, 0.0, 0.0, 1.6518372368589635E9, 0.0, 2022-05-06 12:40:36.858
50.0, -205.39343561651185, -69.45368207711726, -128.5815003765747, -158.4315118729137, 0.144000006839633, 0.12800000607967377, 1.0240000486373901, 0.0, 0.0, 0.0, 0.0, 0.0, 1.6518372368749547E9, 0.0, 2022-05-06 12:40:36.874
50.0, -262.7822004365735, -214.00455526448786, -201.9508577072993, -202.7418465479277, 0.144000006839633, 0.12800000607967377, 1.0240000486373901, 0.0, 0.0, 0.0, 0.0, 0.0, 1.6518372368749547E9, 0.0, 2022-05-06 12:40:36.874
51.0, -310.52576327091083, -256.5384374605492, -260.83932240959257, -234.91994576668367, 0.144000006839633, 0.12800000607967377, 1.0240000486373901, 0.0, 0.0, 0.0, 0.0, 0.0, 1.6518372368758967E9, 0.0, 2022-05-06 12:40:36.875
51.0, -250.34703308390453, -104.72467855922878, -172.55524405557662, -180.14911091560498, 0.144000006839633, 0.12800000607967377, 1.0240000486373901, 0.0, 0.0, 0.0, 0.0, 0.0, 1.6518372368758967E9, 0.0, 2022-05-06 12:40:36.875
52.0, -221.91257372079417, -76.222900996916, -135.74340879172087, -165.51488238899037, 0.144000006839633, 0.12800000607967377, 1.0240000486373901, 0.0, 0.0, 0.0, 0.0, 0.0, 1.6518372368889315E9, 0.0, 2022-05-06 12:40:36.888
52.0, -267.0980449854396, -215.55287384614348, -215.72490924410522, -214.2308192118071, 0.144000006839633, 0.12800000607967377, 1.0240000486373901, 0.0, 0.0, 0.0, 0.0, 0.0, 1.6518372368889315E9, 0.0, 2022-05-06 12:40:36.888
53.0, -327.45629037031904, -263.0608229832724, -268.8763674143702, -243.54789496446028, 0.144000006839633, 0.12800000607967377, 1.0240000486373901, 0.0, 0.0, 0.0, 0.0, 0.0, 1.6518372369049482E9, 0.0, 2022-05-06 12:40:36.904
53.0, -248.71643670322374, -104.83313565794379, -156.85888394154608, -164.62478619953617, 0.144000006839633, 0.12800000607967377, 1.0240000486373901, 0.0, 0.0, 0.0, 0.0, 0.0, 1.6518372369049482E9, 0.0, 2022-05-06 12:40:36.904
54.0, -204.42854142794386, -64.24774133879691, -116.28470932226628, -132.06521718529984, 0.144000006839633, 0.12800000607967377, 1.0240000486373901, 0.0, 0.0, 0.0, 0.0, 0.0, 1.6518372369058893E9, 0.0, 2022-05-06 12:40:36.905
54.0, -263.67603652598336, -215.90068454202265, -210.8817388014868, -208.23575958283618, 0.144000006839633, 0.12800000607967377, 1.0240000486373901, 0.0, 0.0, 0.0, 0.0, 0.0, 1.6518372369058893E9, 0.0, 2022-05-06 12:40:36.905
55.0, -300.25599799258634, -239.5555517617613, -239.39847596362233, -227.58600195357576, 0.144000006839633, 0.12800000607967377, 1.0240000486373901, 0.0, 0.0, 0.0, 0.0, 0.0, 1.6518372369189534E9, 0.0, 2022-05-06 12:40:36.918
55.0, -245.46272374177352, -104.53768356144428, -161.78807208314538, -176.6934433565475, 0.144000006839633, 0.12800000607967377, 1.0240000486373901, 0.0, 0.0, 0.0, 0.0, 0.0, 1.6518372369189534E9, 0.0, 2022-05-06 12:40:36.918
56.0, -202.97746024513617, -68.33545199036598, -126.3562599029392, -155.62284700619057, 0.144000006839633, 0.12800000607967377, 1.0240000486373901, 0.0, 0.0, 0.0, 0.0, 0.0, 1.651837236934945E9, 0.0, 2022-05-06 12:40:36.934
56.0, -264.0388068216853, -219.44984959997237, -210.1337588103488, -208.0038857855834, 0.144000006839633, 0.12800000607967377, 1.0240000486373901, 0.0, 0.0, 0.0, 0.0, 0.0, 1.651837236934945E9, 0.0, 2022-05-06 12:40:36.934
57.0, -312.3545743492432, -255.25939167570323, -250.3788222335279, -234.650672969874, 0.144000006839633, 0.12800000607967377, 1.0240000486373901, 0.0, 0.0, 0.0, 0.0, 0.0, 1.6518372369358974E9, 0.0, 2022-05-06 12:40:36.935
57.0, -244.9914963473566, -101.48218529764563, -161.10741029120982, -158.13605977641419, 0.144000006839633, 0.12800000607967377, 1.0240000486373901, 0.0, 0.0, 0.0, 0.0, 0.0, 1.6518372369358974E9, 0.0, 2022-05-06 12:40:36.935
58.0, -201.98264685692266, -65.79232002049685, -128.20003058109432, -150.48422446707264, 0.144000006839633, 0.12800000607967377, 1.0240000486373901, 0.0, 0.0, 0.0, 0.0, 0.0, 1.6518372369489985E9, 0.0, 2022-05-06 12:40:36.948
58.0, -263.04773333342746, -213.8474794663489, -208.93699082452804, -202.47257375111803, 0.144000006839633, 0.12800000607967377, 1.0240000486373901, 0.0, 0.0, 0.0, 0.0, 0.0, 1.6518372369489985E9, 0.0, 2022-05-06 12:40:36.948
59.0, -306.9130199137144, -249.75425894092768, -259.8669484211132, -244.30335475550964, 0.144000006839633, 0.12800000607967377, 1.0240000486373901, 0.0, 0.0, 0.0, 0.0, 0.0, 1.6518372369649725E9, 0.0, 2022-05-06 12:40:36.964
59.0, -246.16582493344322, -99.36166202276945, -165.5616311384365, -177.48256224719808, 0.144000006839633, 0.12800000607967377, 1.0240000486373901, 0.0, 0.0, 0.0, 0.0, 0.0, 1.6518372369649725E9, 0.0, 2022-05-06 12:40:36.964
60.0, -206.45556720392779, -75.0373527109623, -122.29098865110427, -147.27913020504639, 0.144000006839633, 0.12800000607967377, 1.0240000486373901, 0.0, 0.0, 0.0, 0.0, 0.0, 1.6518372369659257E9, 0.0, 2022-05-06 12:40:36.965
60.0, -263.9303497229703, -218.45877611171454, -202.14907240495086, -193.12656376184896, 0.144000006839633, 0.12800000607967377, 1.0240000486373901, 0.0, 0.0, 0.0, 0.0, 0.0, 1.6518372369659257E9, 0.0, 2022-05-06 12:40:36.965
61.0, -292.6004227832891, -244.35384340491146, -249.39896844513714, -231.1314271115698, 0.144000006839633, 0.12800000607967377, 1.0240000486373901, 0.0, 0.0, 0.0, 0.0, 0.0, 1.6518372369789307E9, 0.0, 2022-05-06 12:40:36.978
61.0, -255.4332970236428, -99.12604832556099, -160.6661020964384, -185.14935715636238, 0.144000006839633, 0.12800000607967377, 1.0240000486373901, 0.0, 0.0, 0.0, 0.0, 0.0, 1.6518372369789307E9, 0.0, 2022-05-06 12:40:36.978
62.0, -194.43552874634042, -63.95976904220879, -108.6066947132349, -140.66698708338663, 0.144000006839633, 0.12800000607967377, 1.0240000486373901, 0.0, 0.0, 0.0, 0.0, 0.0, 1.6518372369949594E9, 0.0, 2022-05-06 12:40:36.994
62.0, -264.7830469128676, -217.1423313273117, -209.41569801885635, -197.01605971576646, 0.144000006839633, 0.12800000607967377, 1.0240000486373901, 0.0, 0.0, 0.0, 0.0, 0.0, 1.6518372369949594E9, 0.0, 2022-05-06 12:40:36.994
63.0, -297.2640780280344, -239.29001886490732, -243.84895691089332, -215.932473691646, 0.144000006839633, 0.12800000607967377, 1.0240000486373901, 0.0, 0.0, 0.0, 0.0, 0.0, 1.6518372369959087E9, 0.0, 2022-05-06 12:40:36.995
63.0, -238.0539819295518, -91.90804141107947, -158.23890702519566, -177.0262944526039, 0.144000006839633, 0.12800000607967377, 1.0240000486373901, 0.0, 0.0, 0.0, 0.0, 0.0, 1.6518372369959087E9, 0.0, 2022-05-06 12:40:36.995
64.0, -210.68913395376876, -75.35524420719594, -116.43430532049388, -151.18732565874234, 0.144000006839633, 0.12800000607967377, 1.0240000486373901, 0.0, 0.0, 0.0, 0.0, 0.0, 1.6518372370089395E9, 0.0, 2022-05-06 12:40:37.008
64.0, -274.7872792943381, -222.42307006474584, -208.020715335384, -193.04428596282378, 0.144000006839633, 0.12800000607967377, 1.0240000486373901, 0.0, 0.0, 0.0, 0.0, 0.0, 1.6518372370089395E9, 0.0, 2022-05-06 12:40:37.008
65.0, -304.9869714365341, -238.7851323708892, -246.87079607509077, -234.80400886805728, 0.144000006839633, 0.12800000607967377, 1.0240000486373901, 0.0, 0.0, 0.0, 0.0, 0.0, 1.6518372370249658E9, 0.0, 2022-05-06 12:40:37.024
65.0, -227.4999842545949, -87.05365126859397, -148.5525661399588, -164.81552109727636, 0.144000006839633, 0.12800000607967377, 1.0240000486373901, 0.0, 0.0, 0.0, 0.0, 0.0, 1.6518372370249658E9, 0.0, 2022-05-06 12:40:37.024
66.0, -192.98444756353274, -74.47262781765312, -122.07781435362995, -152.94881853787228, 0.144000006839633, 0.12800000607967377, 1.0240000486373901, 0.0, 0.0, 0.0, 0.0, 0.0, 1.651837237025924E9, 0.0, 2022-05-06 12:40:37.025
