%OpenBCI Raw EEG Data
%Number of channels = 4
%Sample Rate = 200 Hz
%Board = OpenBCI_GUI$BoardGanglionBLE
Sample Index, EXG Channel 0, EXG Channel 1, EXG Channel 2, EXG Channel 3, Accel Channel 0, Accel Channel 1, Accel Channel 2, Other, Other, Other, Other, Other, Timestamp, Other, Timestamp (Formatted)
71.0, 25.954905692487955, 78.22748737316579, 29.990257744677365, 22.862008429132402, 0.0, 0.12800000607967377, 0.0, 0.0, 0.0, 0.0, 0.0, 0.0, 1.6518367422250347E9, 0.0, 2022-05-06 12:32:22.225
71.0, 92.69716030173004, 212.09346638713032, 128.42068467848003, 83.75879940763116, 0.0, 0.12800000607967377, 0.0, 0.0, 0.0, 0.0, 0.0, 0.0, 1.6518367422250347E9, 0.0, 2022-05-06 12:32:22.225
0.0, -253.20618660002947, -194.97407433995977, -191.6810924289748, -193.05550566269085, 0.0, 0.12800000607967377, 0.0, 0.0, 0.0, 0.0, 0.0, 0.0, 1.651836742258005E9, 0.0, 2022-05-06 12:32:22.258
1.0, -304.09126539714634, -242.7999149733223, -247.31958406977355, -226.66598656447604, 0.0, 0.12800000607967377, 0.0, 0.0, 0.0, 0.0, 0.0, 0.0, 1.651836742287074E9, 0.0, 2022-05-06 12:32:22.287
1.0, -254.70588648226112, -117.5918043567799, -164.80991124734282, -174.64771808078513, 0.0, 0.12800000607967377, 0.0, 0.0, 0.0, 0.0, 0.0, 0.0, 1.651836742287074E9, 0.0, 2022-05-06 12:32:22.287
2.0, -181.9012540448457, -47.6332357856445, -91.29843771830201, -109.4425623533316, 0.12800000607967377, 0.12800000607967377, 0.0, 0.0, 0.0, 0.0, 0.0, 0.0, 1.6518367422879865E9, 0.0, 2022-05-06 12:32:22.287
2.0, -236.339237799868, -175.5864329696633, -176.8972679041326, -173.61176579305902, 0.12800000607967377, 0.12800000607967377, 0.0, 0.0, 0.0, 0.0, 0.0, 0.0, 1.6518367422879865E9, 0.0, 2022-05-06 12:32:22.287
3.0, -321.8296108869836, -254.1729507385753, -259.4667791258544, -251.46526317065582, 0.12800000607967377, 0.12800000607967377, 0.0, 0.0, 0.0, 0.0, 0.0, 0.0, 1.6518367422890537E9, 0.0, 2022-05-06 12:32:22.289
3.0, -251.31005732249469, -114.25207369634882, -163.4149285638705, -180.0256942170672, 0.12800000607967377, 0.12800000607967377, 0.0, 0.0, 0.0, 0.0, 0.0, 0.0, 1.6518367422890537E9, 0.0, 2022-05-06 12:32:22.289
4.0, -190.55164264235646, -53.923747511114925, -99.14848772529513, -125.80836455943063, 0.12800000607967377, 0.12800000607967377, 0.0, 0.0, 0.0, 0.0, 0.0, 0.0, 1.6518367423019967E9, 0.0, 2022-05-06 12:32:22.301
4.0, -256.5720965601504, -186.58173883939162, -185.6860328000039, -186.27880694298074, 0.12800000607967377, 0.12800000607967377, 0.0, 0.0, 0.0, 0.0, 0.0, 0.0, 1.6518367423019967E9, 0.0, 2022-05-06 12:32:22.301
5.0, -304.4839548924938, -245.8367137373425, -246.47062677983195, -232.3506344971247, 0.12800000607967377, 0.12800000607967377, 0.0, 0.0, 0.0, 0.0, 0.0, 0.0, 1.6518367423160417E9, 0.0, 2022-05-06 12:32:22.316
5.0, -238.42610197514296, -114.42784899426624, -159.3309578122571, -169.75592893874273, 0.12800000607967377, 0.12800000607967377, 0.0, 0.0, 0.0, 0.0, 0.0, 0.0, 1.6518367423160417E9, 0.0, 2022-05-06 12:32:22.316
6.0, -197.2011847635731, -63.92423999262974, -106.26551734097302, -129.3388301176019, 0.12800000607967377, 0.12800000607967377, 0.0, 0.0, 0.0, 0.0, 0.0, 0.0, 1.6518367423170457E9, 0.0, 2022-05-06 12:32:22.317
6.0, -249.69816044159234, -183.15973037993535, -176.72897240612656, -173.5481874938123, 0.12800000607967377, 0.12800000607967377, 0.0, 0.0, 0.0, 0.0, 0.0, 0.0, 1.6518367423170457E9, 0.0, 2022-05-06 12:32:22.317
7.0, -314.65648277197033, -241.10948019335046, -246.156475183554, -219.9042474445887, 0.12800000607967377, 0.12800000607967377, 0.0, 0.0, 0.0, 0.0, 0.0, 0.0, 1.6518367423301156E9, 0.0, 2022-05-06 12:32:22.330
7.0, -235.8193917060271, -107.00414758222178, -166.27595202997327, -178.6606307332404, 0.12800000607967377, 0.12800000607967377, 0.0, 0.0, 0.0, 0.0, 0.0, 0.0, 1.6518367423301156E9, 0.0, 2022-05-06 12:32:22.330
8.0, -196.41954567283392, -62.768610906321555, -116.1276335241273, -156.1987915993668, 0.12800000607967377, 0.12800000607967377, 0.0, 0.0, 0.0, 0.0, 0.0, 0.0, 1.6518367423460834E9, 0.0, 2022-05-06 12:32:22.346
8.0, -273.2408306626603, -202.55111165018752, -198.4615310486406, -199.95936098089442, 0.12800000607967377, 0.12800000607967377, 0.0, 0.0, 0.0, 0.0, 0.0, 0.0, 1.6518367423460834E9, 0.0, 2022-05-06 12:32:22.346
9.0, -316.54139234963804, -253.04724085191265, -262.0061711957678, -238.4279719251208, 0.12800000607967377, 0.12800000607967377, 0.0, 0.0, 0.0, 0.0, 0.0, 0.0, 1.65183674234704E9, 0.0, 2022-05-06 12:32:22.347
9.0, -247.79455136414617, -119.77216603094712, -172.8581759519875, -183.5486799753271, 0.12800000607967377, 0.12800000607967377, 0.0, 0.0, 0.0, 0.0, 0.0, 0.0, 1.65183674234704E9, 0.0, 2022-05-06 12:32:22.347
10.0, -199.00755644217134, -59.47375904535875, -110.38314719218761, -138.5689032082446, 0.12800000607967377, 0.12800000607967377, 1.0240000486373901, 0.0, 0.0, 0.0, 0.0, 0.0, 1.65183674236004E9, 0.0, 2022-05-06 12:32:22.360
10.0, -255.1621542768553, -189.2557673077099, -183.5281105255708, -180.94570960616693, 0.12800000607967377, 0.12800000607967377, 1.0240000486373901, 0.0, 0.0, 0.0, 0.0, 0.0, 1.65183674236004E9, 0.0, 2022-05-06 12:32:22.360
11.0, -294.9846090050414, -239.9837703066878, -244.73157330043614, -214.60854910733178, 0.12800000607967377, 0.06400000303983688, 1.0240000486373901, 0.0, 0.0, 0.0, 0.0, 0.0, 1.6518367423760617E9, 0.0, 2022-05-06 12:32:22.376
11.0, -240.35589035227895, -100.89689095458016, -155.2170678609982, -172.03726791171357, 0.12800000607967377, 0.06400000303983688, 1.0240000486373901, 0.0, 0.0, 0.0, 0.0, 0.0, 1.6518367423760617E9, 0.0, 2022-05-06 12:32:22.376
12.0, -202.26500930357724, -62.23006531270221, -111.0525892842561, -140.43511328613386, 0.06400000303983688, 0.06400000303983688, 1.0240000486373901, 0.0, 0.0, 0.0, 0.0, 0.0, 1.651836742376996E9, 0.0, 2022-05-06 12:32:22.376
12.0, -268.1994455223903, -208.8229238758795, -202.30988810304552, -201.47776036290452, 0.06400000303983688, 0.06400000303983688, 1.0240000486373901, 0.0, 0.0, 0.0, 0.0, 0.0, 1.651836742376996E9, 0.0, 2022-05-06 12:32:22.376
13.0, -309.49168093316257, -255.82224661903456, -254.9041011799127, -235.1293801642023, 0.06400000303983688, 0.06400000303983688, 1.0240000486373901, 0.0, 0.0, 0.0, 0.0, 0.0, 1.651836742390036E9, 0.0, 2022-05-06 12:32:22.390
13.0, -222.63998426217586, -87.03682171879336, -150.24300091993064, -159.95365115487948, 0.06400000303983688, 0.06400000303983688, 1.0240000486373901, 0.0, 0.0, 0.0, 0.0, 0.0, 1.651836742390036E9, 0.0, 2022-05-06 12:32:22.390
14.0, -206.86882614903152, -77.58983443072066, -118.73060389328748, -138.32580971112475, 0.06400000303983688, 0.06400000303983688, 1.0240000486373901, 0.0, 0.0, 0.0, 0.0, 0.0, 1.6518367424060547E9, 0.0, 2022-05-06 12:32:22.406
14.0, -277.29862211458385, -232.0589223005809, -216.6598842330277, -191.97841447545215, 0.06400000303983688, 0.06400000303983688, 1.0240000486373901, 0.0, 0.0, 0.0, 0.0, 0.0, 1.6518367424060547E9, 0.0, 2022-05-06 12:32:22.406
15.0, -296.8171599833295, -230.1328738234006, -237.55096538551152, -218.07917626621202, 0.06400000303983688, 0.06400000303983688, 1.0240000486373901, 0.0, 0.0, 0.0, 0.0, 0.0, 1.6518367424070203E9, 0.0, 2022-05-06 12:32:22.407
15.0, -216.44297003559768, -64.99759127991274, -138.67549035698175, -149.70258537633345, 0.06400000303983688, 0.06400000303983688, 1.0240000486373901, 0.0, 0.0, 0.0, 0.0, 0.0, 1.6518367424070203E9, 0.0, 2022-05-06 12:32:22.407
16.0, -196.0156364776194, -72.73544428823516, -114.62419374193996, -140.46129258582368, 0.06400000303983688, 0.06400000303983688, 1.0240000486373901, 0.0, 0.0, 0.0, 0.0, 0.0, 1.6518367424200408E9, 0.0, 2022-05-06 12:32:22.420
16.0, -277.6913116099313, -223.33747560391203, -218.44755641184747, -225.39442057954147, 0.06400000303983688, 0.06400000303983688, 1.0240000486373901, 0.0, 0.0, 0.0, 0.0, 0.0, 1.6518367424200408E9, 0.0, 2022-05-06 12:32:22.420
17.0, -310.0788452262059, -232.80690229171887, -250.21426663547754, -231.72981110448018, 0.06400000303983688, 0.06400000303983688, 1.0240000486373901, 0.0, 0.0, 0.0, 0.0, 0.0, 1.6518367424360893E9, 0.0, 2022-05-06 12:32:22.436
17.0, -225.57206582743675, -72.82520188717172, -136.356752384454, -155.11422061221674, 0.06400000303983688, 0.06400000303983688, 1.0240000486373901, 0.0, 0.0, 0.0, 0.0, 0.0, 1.6518367424360893E9, 0.0, 2022-05-06 12:32:22.436
18.0, -192.0588223244995, -71.0898883077316, -112.93375896196812, -150.54406286636367, 0.06400000303983688, 0.06400000303983688, 1.0240000486373901, 0.0, 0.0, 0.0, 0.0, 0.0, 1.6518367424369972E9, 0.0, 2022-05-06 12:32:22.436
18.0, -272.48911077156663, -228.7939896392636, -208.42462453059852, -210.191727259662, 0.06400000303983688, 0.06400000303983688, 1.0240000486373901, 0.0, 0.0, 0.0, 0.0, 0.0, 1.6518367424369972E9, 0.0, 2022-05-06 12:32:22.436
19.0, -306.6306574670598, -234.0522889769636, -242.4128353279084, -223.33747560391203, 0.06400000303983688, 0.06400000303983688, 1.0240000486373901, 0.0, 0.0, 0.0, 0.0, 0.0, 1.6518367424501257E9, 0.0, 2022-05-06 12:32:22.450
19.0, -228.68740249052644, -74.69141196506098, -146.2600074671209, -155.8696804032661, 0.06400000303983688, 0.06400000303983688, 1.0240000486373901, 0.0, 0.0, 0.0, 0.0, 0.0, 1.6518367424501257E9, 0.0, 2022-05-06 12:32:22.450
20.0, -203.44681768957525, -71.13476710719988, -116.47918411996216, -147.32026910455897, 0.06400000303983688, 0.06400000303983688, 0.5120000243186951, 0.0, 0.0, 0.0, 0.0, 0.0, 1.6518367424660416E9, 0.0, 2022-05-06 12:32:22.466
20.0, -270.0506960004568, -222.31648291600868, -207.82624053768814, -200.7447399715893, 0.06400000303983688, 0.06400000303983688, 0.5120000243186951, 0.0, 0.0, 0.0, 0.0, 0.0, 1.6518367424660416E9, 0.0, 2022-05-06 12:32:22.466
21.0, -299.19199645519257, -227.7542974515818, -247.91048826277256, -227.8290954506956, 0.06400000303983688, 0.09600000455975533, 0.5120000243186951, 0.0, 0.0, 0.0, 0.0, 0.0, 1.6518367424669917E9, 0.0, 2022-05-06 12:32:22.466
21.0, -219.90985729452223, -69.40319342771545, -139.4010309483856, -159.18323176400736, 0.06400000303983688, 0.09600000455975533, 0.5120000243186951, 0.0, 0.0, 0.0, 0.0, 0.0, 1.6518367424669917E9, 0.0, 2022-05-06 12:32:22.466
22.0, -205.55612126458436, -68.06804914353415, -110.95909178536385, -137.5666100201197, 0.09600000455975533, 0.09600000455975533, 0.5120000243186951, 0.0, 0.0, 0.0, 0.0, 0.0, 1.6518367424800532E9, 0.0, 2022-05-06 12:32:22.480
22.0, -273.1248937640339, -226.5350900660269, -209.5428546173498, -191.08083848608658, 0.09600000455975533, 0.09600000455975533, 0.5120000243186951, 0.0, 0.0, 0.0, 0.0, 0.0, 1.6518367424800532E9, 0.0, 2022-05-06 12:32:22.480
23.0, -291.7047167439014, -224.36968799168244, -233.53805273305625, -215.58466299576685, 0.09600000455975533, 0.09600000455975533, 0.5120000243186951, 0.0, 0.0, 0.0, 0.0, 0.0, 1.651836742496038E9, 0.0, 2022-05-06 12:32:22.496
23.0, -220.07441289257258, -69.94547892129049, -145.0707192812115, -163.64119251118973, 0.09600000455975533, 0.09600000455975533, 0.5120000243186951, 0.0, 0.0, 0.0, 0.0, 0.0, 1.651836742496038E9, 0.0, 2022-05-06 12:32:22.496
24.0, -190.3870870443061, -67.96707184473053, -111.03388978447765, -150.6413002652116, 0.09600000455975533, 0.09600000455975533, 0.5120000243186951, 0.0, 0.0, 0.0, 0.0, 0.0, 1.6518367424970295E9, 0.0, 2022-05-06 12:32:22.497
24.0, -273.96263135410845, -232.41795269632712, -209.6887107156217, -201.95646755723283, 0.09600000455975533, 0.09600000455975533, 0.5120000243186951, 0.0, 0.0, 0.0, 0.0, 0.0, 1.6518367424970295E9, 0.0, 2022-05-06 12:32:22.497
25.0, -303.53028040379286, -233.10983418812975, -239.97816045675427, -222.61193501250818, 0.09600000455975533, 0.09600000455975533, 0.5120000243186951, 0.0, 0.0, 0.0, 0.0, 0.0, 1.651836742510043E9, 0.0, 2022-05-06 12:32:22.510
25.0, -222.96909545827657, -65.73809147113934, -131.01991514768451, -152.49255074327812, 0.09600000455975533, 0.09600000455975533, 0.5120000243186951, 0.0, 0.0, 0.0, 0.0, 0.0, 1.651836742510043E9, 0.0, 2022-05-06 12:32:22.510
26.0, -197.5377757595852, -65.11352817853913, -113.50222375523299, -142.8623083573766, 0.09600000455975533, 0.09600000455975533, 0.5120000243186951, 0.0, 0.0, 0.0, 0.0, 0.0, 1.651836742526074E9, 0.0, 2022-05-06 12:32:22.526
26.0, -273.2483104625717, -228.73789113992825, -207.63924553990364, -201.05515166791156, 0.09600000455975533, 0.09600000455975533, 0.5120000243186951, 0.0, 0.0, 0.0, 0.0, 0.0, 1.651836742526074E9, 0.0, 2022-05-06 12:32:22.526
27.0, -303.90053049940616, -236.56176184723154, -249.82905694004148, -234.30286227399483, 0.09600000455975533, 0.09600000455975533, 0.5120000243186951, 0.0, 0.0, 0.0, 0.0, 0.0, 1.6518367425269814E9, 0.0, 2022-05-06 12:32:22.526
27.0, -224.0349669456482, -77.58609453076497, -142.37051151320338, -157.77328948071226, 0.09600000455975533, 0.09600000455975533, 0.5120000243186951, 0.0, 0.0, 0.0, 0.0, 0.0, 1.6518367425269814E9, 0.0, 2022-05-06 12:32:22.526
28.0, -193.29672920983285, -71.62095410143957, -106.72926493547857, -122.58083089767024, 0.09600000455975533, 0.09600000455975533, 0.5120000243186951, 0.0, 0.0, 0.0, 0.0, 0.0, 1.6518367425400565E9, 0.0, 2022-05-06 12:32:22.540
28.0, -269.8038626033813, -227.1596533586271, -206.3938588546589, -193.47063455777243, 0.09600000455975533, 0.09600000455975533, 0.5120000243186951, 0.0, 0.0, 0.0, 0.0, 0.0, 1.6518367425400565E9, 0.0, 2022-05-06 12:32:22.540
29.0, -299.2443550545722, -231.8719273027964, -249.49994574394077, -233.54740248294547, 0.09600000455975533, 0.09600000455975533, 0.5120000243186951, 0.0, 0.0, 0.0, 0.0, 0.0, 1.651836742556083E9, 0.0, 2022-05-06 12:32:22.556
29.0, -213.9895956646651, -66.10834156675264, -135.7321890918538, -144.9790917322971, 0.09600000455975533, 0.09600000455975533, 0.5120000243186951, 0.0, 0.0, 0.0, 0.0, 0.0, 1.651836742556083E9, 0.0, 2022-05-06 12:32:22.556
30.0, -195.84360107965767, -65.06116957915947, -105.41656005103141, -146.55358961364254, 0.09600000455975533, 0.09600000455975533, 0.7680000364780426, 0.0, 0.0, 0.0, 0.0, 0.0, 1.6518367425569997E9, 0.0, 2022-05-06 12:32:22.556
30.0, -280.8440472725779, -233.1995917870663, -219.93603659421206, -217.34989577485248, 0.09600000455975533, 0.09600000455975533, 0.7680000364780426, 0.0, 0.0, 0.0, 0.0, 0.0, 1.6518367425569997E9, 0.0, 2022-05-06 12:32:22.556
31.0, -307.93588255159557, -229.54570953035727, -245.77126548811793, -225.10270838299766, 0.09600000455975533, 0.11200000531971455, 0.7680000364780426, 0.0, 0.0, 0.0, 0.0, 0.0, 1.651836742570145E9, 0.0, 2022-05-06 12:32:22.570
31.0, -225.19059603195637, -76.22851084684953, -151.87733720056713, -167.86353956116363, 0.09600000455975533, 0.11200000531971455, 0.7680000364780426, 0.0, 0.0, 0.0, 0.0, 0.0, 1.651836742570145E9, 0.0, 2022-05-06 12:32:22.570
32.0, -203.353320190683, -80.39849929744378, -122.67245844658464, -152.8665407388471, 0.11200000531971455, 0.11200000531971455, 0.7680000364780426, 0.0, 0.0, 0.0, 0.0, 0.0, 1.6518367425860338E9, 0.0, 2022-05-06 12:32:22.586
32.0, -277.0854478171095, -230.3834471204318, -206.08718705829233, -193.8483644532971, 0.11200000531971455, 0.11200000531971455, 0.7680000364780426, 0.0, 0.0, 0.0, 0.0, 0.0, 1.6518367425860338E9, 0.0, 2022-05-06 12:32:22.586
33.0, -303.1899495078251, -231.4941974072717, -246.50802577938884, -222.3838011152111, 0.11200000531971455, 0.11200000531971455, 0.7680000364780426, 0.0, 0.0, 0.0, 0.0, 0.0, 1.6518367425870101E9, 0.0, 2022-05-06 12:32:22.587
33.0, -227.33729860652238, -75.07288176054135, -144.90242378320545, -166.96596357179806, 0.11200000531971455, 0.11200000531971455, 0.7680000364780426, 0.0, 0.0, 0.0, 0.0, 0.0, 1.6518367425870101E9, 0.0, 2022-05-06 12:32:22.587
34.0, -209.11276612244546, -81.38583288574591, -126.74894939828664, -166.52839527698234, 0.11200000531971455, 0.11200000531971455, 0.7680000364780426, 0.0, 0.0, 0.0, 0.0, 0.0, 1.6518367426000857E9, 0.0, 2022-05-06 12:32:22.600
34.0, -285.15241202153265, -241.0945205935277, -219.22919550258666, -217.03574417857453, 0.11200000531971455, 0.11200000531971455, 0.7680000364780426, 0.0, 0.0, 0.0, 0.0, 0.0, 1.6518367426000857E9, 0.0, 2022-05-06 12:32:22.600
35.0, -297.78579407185316, -229.54196963040158, -236.72444749530405, -211.40719474526122, 0.11200000531971455, 0.11200000531971455, 0.7680000364780426, 0.0, 0.0, 0.0, 0.0, 0.0, 1.651836742616069E9, 0.0, 2022-05-06 12:32:22.616
35.0, -229.1474101850763, -72.00242389691994, -148.8143591368571, -167.33995356736705, 0.11200000531971455, 0.11200000531971455, 0.7680000364780426, 0.0, 0.0, 0.0, 0.0, 0.0, 1.651836742616069E9, 0.0, 2022-05-06 12:32:22.616
36.0, -205.78425516188145, -79.28400911064819, -112.94871856179088, -144.8631548336707, 0.11200000531971455, 0.11200000531971455, 0.7680000364780426, 0.0, 0.0, 0.0, 0.0, 0.0, 1.6518367426170044E9, 0.0, 2022-05-06 12:32:22.617
36.0, -295.6690106969327, -244.96905694762245, -223.19722935557365, -216.99086537910625, 0.11200000531971455, 0.11200000531971455, 0.7680000364780426, 0.0, 0.0, 0.0, 0.0, 0.0, 1.6518367426170044E9, 0.0, 2022-05-06 12:32:22.617
37.0, -308.9905343391001, -237.42193883704022, -249.84027663990855, -230.56670221826062, 0.11200000531971455, 0.11200000531971455, 0.7680000364780426, 0.0, 0.0, 0.0, 0.0, 0.0, 1.6518367426301048E9, 0.0, 2022-05-06 12:32:22.630
37.0, -230.41149637009948, -83.41659856168553, -145.1043783808127, -164.81552109727636, 0.11200000531971455, 0.11200000531971455, 0.7680000364780426, 0.0, 0.0, 0.0, 0.0, 0.0, 1.6518367426301048E9, 0.0, 2022-05-06 12:32:22.630
38.0, -211.7306960914284, -80.65281249443069, -112.81408216338605, -139.65347419539467, 0.11200000531971455, 0.11200000531971455, 0.7680000364780426, 0.0, 0.0, 0.0, 0.0, 0.0, 1.651836742646039E9, 0.0, 2022-05-06 12:32:22.646
38.0, -282.1791915567592, -234.23180417483672, -219.67424359731376, -210.5993763548322, 0.11200000531971455, 0.11200000531971455, 0.7680000364780426, 0.0, 0.0, 0.0, 0.0, 0.0, 1.651836742646039E9, 0.0, 2022-05-06 12:32:22.646
39.0, -302.79352011252195, -222.74283151095733, -242.4502343274653, -217.51071147294715, 0.11200000531971455, 0.11200000531971455, 0.7680000364780426, 0.0, 0.0, 0.0, 0.0, 0.0, 1.651836742647009E9, 0.0, 2022-05-06 12:32:22.647
39.0, -215.33969954866916, -62.18518651323393, -126.69285089895129, -149.79982277518138, 0.11200000531971455, 0.11200000531971455, 0.7680000364780426, 0.0, 0.0, 0.0, 0.0, 0.0, 1.651836742647009E9, 0.0, 2022-05-06 12:32:22.647
40.0, -216.73842213209718, -77.98626382602379, -128.18133108131588, -168.27492855628952, 0.11200000531971455, 0.11200000531971455, 0.8960000425577164, 0.0, 0.0, 0.0, 0.0, 0.0, 1.6518367426600442E9, 0.0, 2022-05-06 12:32:22.660
40.0, -289.5430545695126, -240.36150020221248, -216.0315810404718, -208.87154257530347, 0.11200000531971455, 0.11200000531971455, 0.8960000425577164, 0.0, 0.0, 0.0, 0.0, 0.0, 1.6518367426600442E9, 0.0, 2022-05-06 12:32:22.660
41.0, -303.986548198387, -232.49275069544092, -241.597537137568, -214.0812232135795, 0.11200000531971455, 0.12800000607967377, 0.8960000425577164, 0.0, 0.0, 0.0, 0.0, 0.0, 1.651836742676097E9, 0.0, 2022-05-06 12:32:22.676
41.0, -213.78390116710216, -63.625047996174544, -134.59151960536838, -160.00974965421483, 0.11200000531971455, 0.12800000607967377, 0.8960000425577164, 0.0, 0.0, 0.0, 0.0, 0.0, 1.651836742676097E9, 0.0, 2022-05-06 12:32:22.676
42.0, -208.22266993299127, -79.14937271224335, -119.85257387999445, -145.9365061209537, 0.11200000531971455, 0.12800000607967377, 0.8960000425577164, 0.0, 0.0, 0.0, 0.0, 0.0, 1.651836742676982E9, 0.0, 2022-05-06 12:32:22.676
42.0, -284.30345473159105, -240.44003810128197, -222.15005736798048, -217.40973417414352, 0.11200000531971455, 0.12800000607967377, 0.8960000425577164, 0.0, 0.0, 0.0, 0.0, 0.0, 1.651836742676982E9, 0.0, 2022-05-06 12:32:22.676
43.0, -301.8548052236438, -232.74332399247214, -246.02557868510485, -238.6523659224622, 0.11200000531971455, 0.12800000607967377, 0.8960000425577164, 0.0, 0.0, 0.0, 0.0, 0.0, 1.6518367426900735E9, 0.0, 2022-05-06 12:32:22.690
43.0, -238.53829897381365, -75.08410146040842, -141.4056173246354, -162.6463791229762, 0.11200000531971455, 0.12800000607967377, 0.8960000425577164, 0.0, 0.0, 0.0, 0.0, 0.0, 1.6518367426900735E9, 0.0, 2022-05-06 12:32:22.690
44.0, -215.9867022410035, -74.23140427051112, -116.88683321513236, -153.30784893361852, 0.11200000531971455, 0.12800000607967377, 0.8960000425577164, 0.0, 0.0, 0.0, 0.0, 0.0, 1.6518367427060492E9, 0.0, 2022-05-06 12:32:22.706
44.0, -281.97349705919623, -233.9774909778498, -216.86557873059064, -210.44604045664892, 0.11200000531971455, 0.12800000607967377, 0.8960000425577164, 0.0, 0.0, 0.0, 0.0, 0.0, 1.6518367427060492E9, 0.0, 2022-05-06 12:32:22.706
45.0, -305.90137697570026, -230.29368952149525, -241.7807922353968, -221.03369723120704, 0.11200000531971455, 0.12800000607967377, 0.8960000425577164, 0.0, 0.0, 0.0, 0.0, 0.0, 1.651836742706994E9, 0.0, 2022-05-06 12:32:22.706
45.0, -231.48858755733818, -71.2731434055604, -140.41080393642187, -155.29747571004555, 0.11200000531971455, 0.12800000607967377, 0.8960000425577164, 0.0, 0.0, 0.0, 0.0, 0.0, 1.651836742706994E9, 0.0, 2022-05-06 12:32:22.706
46.0, -203.9517041835934, -72.96731808548793, -117.93026530276984, -147.4549055029638, 0.11200000531971455, 0.12800000607967377, 0.8960000425577164, 0.0, 0.0, 0.0, 0.0, 0.0, 1.6518367427370384E9, 0.0, 2022-05-06 12:32:22.737
46.0, -278.6524658985436, -232.3169753975235, -219.74156179651618, -216.72159258229658, 0.11200000531971455, 0.12800000607967377, 0.8960000425577164, 0.0, 0.0, 0.0, 0.0, 0.0, 1.6518367427370384E9, 0.0, 2022-05-06 12:32:22.737
47.0, -310.01900682691485, -237.78470913274214, -244.5221389029175, -229.08196193585172, 0.11200000531971455, 0.12800000607967377, 0.8960000425577164, 0.0, 0.0, 0.0, 0.0, 0.0, 1.6518367427380073E9, 0.0, 2022-05-06 12:32:22.738
47.0, -223.50390115194023, -71.33672170480713, -136.71204288024455, -154.3849401208572, 0.11200000531971455, 0.12800000607967377, 0.8960000425577164, 0.0, 0.0, 0.0, 0.0, 0.0, 1.6518367427380073E9, 0.0, 2022-05-06 12:32:22.738
48.0, -215.14522475097328, -78.68936501769349, -117.99384360201657, -143.98427834408358, 0.11200000531971455, 0.12800000607967377, 0.8960000425577164, 0.0, 0.0, 0.0, 0.0, 0.0, 1.6518367427390015E9, 0.0, 2022-05-06 12:32:22.739
48.0, -280.55981487594545, -231.44557870784774, -212.56095388159156, -203.860076634679, 0.11200000531971455, 0.12800000607967377, 0.8960000425577164, 0.0, 0.0, 0.0, 0.0, 0.0, 1.6518367427390015E9, 0.0, 2022-05-06 12:32:22.739
49.0, -309.46550163347274, -226.8642012621276, -238.73651367146522, -217.14046137733385, 0.11200000531971455, 0.12800000607967377, 0.8960000425577164, 0.0, 0.0, 0.0, 0.0, 0.0, 1.6518367427500513E9, 0.0, 2022-05-06 12:32:22.750
49.0, -219.96969569381326, -62.20014611305669, -133.7350825155154, -142.50701786158606, 0.11200000531971455, 0.12800000607967377, 0.8960000425577164, 0.0, 0.0, 0.0, 0.0, 0.0, 1.6518367427500513E9, 0.0, 2022-05-06 12:32:22.750
50.0, -210.2122967094183, -79.62807990657166, -121.43081166129559, -159.4674641606398, 0.11200000531971455, 0.12800000607967377, 0.9600000455975533, 0.0, 0.0, 0.0, 0.0, 0.0, 1.6518367427660408E9, 0.0, 2022-05-06 12:32:22.766
50.0, -289.15410497412086, -235.81378185609356, -218.6981297088787, -220.0501035428606, 0.11200000531971455, 0.12800000607967377, 0.9600000455975533, 0.0, 0.0, 0.0, 0.0, 0.0, 1.6518367427660408E9, 0.0, 2022-05-06 12:32:22.766
51.0, -310.8530045170337, -237.56779493531212, -249.16709464788437, -232.75080379238352, 0.11200000531971455, 0.12800000607967377, 0.9600000455975533, 0.0, 0.0, 0.0, 0.0, 0.0, 1.651836742766976E9, 0.0, 2022-05-06 12:32:22.766
51.0, -228.35829129442573, -74.57547506643459, -138.2154826624319, -154.78884931607172, 0.11200000531971455, 0.12800000607967377, 0.9600000455975533, 0.0, 0.0, 0.0, 0.0, 0.0, 1.651836742766976E9, 0.0, 2022-05-06 12:32:22.766
52.0, -200.241723427549, -66.63192756054923, -99.01385132689029, -110.63185053924099, 0.12800000607967377, 0.12800000607967377, 0.9600000455975533, 0.0, 0.0, 0.0, 0.0, 0.0, 1.6518367427800567E9, 0.0, 2022-05-06 12:32:22.780
52.0, -268.8726275144145, -214.07374341366813, -203.11770649347454, -195.39294313499704, 0.12800000607967377, 0.12800000607967377, 0.9600000455975533, 0.0, 0.0, 0.0, 0.0, 0.0, 1.6518367427800567E9, 0.0, 2022-05-06 12:32:22.780
53.0, -286.4800765058026, -220.33807583944872, -238.4074024753645, -219.02911085495725, 0.12800000607967377, 0.12800000607967377, 0.9600000455975533, 0.0, 0.0, 0.0, 0.0, 0.0, 1.651836742796044E9, 0.0, 2022-05-06 12:32:22.796
53.0, -231.18939556088299, -75.39077325677499, -151.50334720499814, -175.00674847653136, 0.12800000607967377, 0.12800000607967377, 0.9600000455975533, 0.0, 0.0, 0.0, 0.0, 0.0, 1.651836742796044E9, 0.0, 2022-05-06 12:32:22.796
54.0, -206.64817205164582, -74.81856856355444, -113.59946115408093, -149.8260020748712, 0.12800000607967377, 0.12800000607967377, 0.9600000455975533, 0.0, 0.0, 0.0, 0.0, 0.0, 1.6518367427970011E9, 0.0, 2022-05-06 12:32:22.797
54.0, -277.29114231467247, -236.12045365246013, -211.88403198961169, -212.0429777377285, 0.12800000607967377, 0.12800000607967377, 0.9600000455975533, 0.0, 0.0, 0.0, 0.0, 0.0, 1.6518367427970011E9, 0.0, 2022-05-06 12:32:22.797
55.0, -305.4488490810618, -233.5399226830341, -247.94414736237377, -221.44508622633293, 0.12800000607967377, 0.12800000607967377, 0.9600000455975533, 0.0, 0.0, 0.0, 0.0, 0.0, 1.6518367428100483E9, 0.0, 2022-05-06 12:32:22.810
55.0, -233.661469431594, -80.15540580032393, -146.26374736707658, -166.2778219799511, 0.12800000607967377, 0.12800000607967377, 0.9600000455975533, 0.0, 0.0, 0.0, 0.0, 0.0, 1.6518367428100483E9, 0.0, 2022-05-06 12:32:22.810
56.0, -207.70282383915037, -75.3159752576612, -115.50307023152709, -141.4561059740372, 0.12800000607967377, 0.12800000607967377, 0.9600000455975533, 0.0, 0.0, 0.0, 0.0, 0.0, 1.651836742826043E9, 0.0, 2022-05-06 12:32:22.826
56.0, -277.537975711748, -230.21889152238145, -215.79970724321902, -212.013058538083, 0.12800000607967377, 0.12800000607967377, 0.9600000455975533, 0.0, 0.0, 0.0, 0.0, 0.0, 1.651836742826043E9, 0.0, 2022-05-06 12:32:22.826
57.0, -300.0259941453114, -228.86130783846602, -242.86162332259119, -225.65621357643977, 0.12800000607967377, 0.12800000607967377, 0.9600000455975533, 0.0, 0.0, 0.0, 0.0, 0.0, 1.651836742826988E9, 0.0, 2022-05-06 12:32:22.826
57.0, -236.57111159712076, -75.88817995088175, -144.15818369202316, -167.81118096178398, 0.12800000607967377, 0.12800000607967377, 0.9600000455975533, 0.0, 0.0, 0.0, 0.0, 0.0, 1.651836742826988E9, 0.0, 2022-05-06 12:32:22.826
58.0, -212.11216588690877, -82.56764127174392, -120.36868007387966, -154.242823922541, 0.12800000607967377, 0.12800000607967377, 0.9600000455975533, 0.0, 0.0, 0.0, 0.0, 0.0, 1.6518367428400626E9, 0.0, 2022-05-06 12:32:22.840
58.0, -268.7155517162755, -225.28970338078216, -203.54779498837888, -202.1098034554161, 0.12800000607967377, 0.12800000607967377, 0.9600000455975533, 0.0, 0.0, 0.0, 0.0, 0.0, 1.6518367428400626E9, 0.0, 2022-05-06 12:32:22.840
59.0, -277.9194455072284, -218.55040366062894, -226.2976064188406, -194.7085414431058, 0.12800000607967377, 0.12800000607967377, 0.9600000455975533, 0.0, 0.0, 0.0, 0.0, 0.0, 1.6518367428560684E9, 0.0, 2022-05-06 12:32:22.856
59.0, -247.43178106844425, -79.34384750993922, -148.00280084647238, -163.14378581708297, 0.12800000607967377, 0.12800000607967377, 0.9600000455975533, 0.0, 0.0, 0.0, 0.0, 0.0, 1.6518367428560684E9, 0.0, 2022-05-06 12:32:22.856
60.0, -222.00420126970857, -87.29861471569166, -125.62697941157967, -154.6055942182429, 0.12800000607967377, 0.12800000607967377, 0.9920000471174717, 0.0, 0.0, 0.0, 0.0, 0.0, 1.651836742857015E9, 0.0, 2022-05-06 12:32:22.857
60.0, -296.79098068363965, -245.07377414638177, -231.7765598539263, -228.270403645467, 0.12800000607967377, 0.12800000607967377, 0.9920000471174717, 0.0, 0.0, 0.0, 0.0, 0.0, 1.651836742857015E9, 0.0, 2022-05-06 12:32:22.857
61.0, -305.76300067733973, -229.66164642898366, -243.54228511452675, -230.24507082207128, 0.12800000607967377, 0.12800000607967377, 0.9920000471174717, 0.0, 0.0, 0.0, 0.0, 0.0, 1.6518367428700356E9, 0.0, 2022-05-06 12:32:22.870
61.0, -232.0009538512677, -73.16927268309519, -143.1409309040755, -160.06584815355018, 0.12800000607967377, 0.12800000607967377, 0.9920000471174717, 0.0, 0.0, 0.0, 0.0, 0.0, 1.6518367428700356E9, 0.0, 2022-05-06 12:32:22.870
62.0, -211.59231979306787, -76.66607914166525, -117.9452249025926, -153.6893187290989, 0.12800000607967377, 0.12800000607967377, 0.9920000471174717, 0.0, 0.0, 0.0, 0.0, 0.0, 1.6518367428860807E9, 0.0, 2022-05-06 12:32:22.886
62.0, -285.53014191705734, -236.40468604909256, -214.5505806580186, -208.02632518531755, 0.12800000607967377, 0.12800000607967377, 0.9920000471174717, 0.0, 0.0, 0.0, 0.0, 0.0, 1.6518367428860807E9, 0.0, 2022-05-06 12:32:22.886
63.0, -305.9312961753458, -229.4970908309333, -241.4442012393847, -221.4974448257126, 0.12800000607967377, 0.12800000607967377, 0.9920000471174717, 0.0, 0.0, 0.0, 0.0, 0.0, 1.6518367428872619E9, 0.0, 2022-05-06 12:32:22.887
63.0, -229.7757133776322, -72.82520188717172, -142.5088878115639, -159.40014596143737, 0.12800000607967377, 0.12800000607967377, 0.9920000471174717, 0.0, 0.0, 0.0, 0.0, 0.0, 1.6518367428872619E9, 0.0, 2022-05-06 12:32:22.887
64.0, -206.71549025084823, -74.65401296550408, -116.88309331517667, -139.15232760133222, 0.12800000607967377, 0.12800000607967377, 0.9920000471174717, 0.0, 0.0, 0.0, 0.0, 0.0, 1.6518367429000373E9, 0.0, 2022-05-06 12:32:22.900
64.0, -277.40333931334317, -233.14349328773096, -217.50136172305793, -209.36146946949884, 0.12800000607967377, 0.12800000607967377, 0.9920000471174717, 0.0, 0.0, 0.0, 0.0, 0.0, 1.6518367429000373E9, 0.0, 2022-05-06 12:32:22.900
65.0, -297.8157132714987, -223.2028392055072, -231.09963796194643, -211.71760644158348, 0.12800000607967377, 0.12800000607967377, 0.9920000471174717, 0.0, 0.0, 0.0, 0.0, 0.0, 1.6518367429160783E9, 0.0, 2022-05-06 12:32:22.916
65.0, -222.34453216567636, -66.99095795629546, -136.60358578152955, -150.63382046530023, 0.12800000607967377, 0.12800000607967377, 0.9920000471174717, 0.0, 0.0, 0.0, 0.0, 0.0, 1.6518367429160783E9, 0.0, 2022-05-06 12:32:22.916
66.0, -200.51473612431437, -71.36290100449696, -115.17395903542638, -137.29359732335433, 0.12800000607967377, 0.12800000607967377, 0.9920000471174717, 0.0, 0.0, 0.0, 0.0, 0.0, 1.6518367429170587E9, 0.0, 2022-05-06 12:32:22.917
66.0, -283.5704343402758, -235.58938785875216, -226.56687921565026, -224.8259557862766, 0.12800000607967377, 0.12800000607967377, 0.9920000471174717, 0.0, 0.0, 0.0, 0.0, 0.0, 1.6518367429170587E9, 0.0, 2022-05-06 12:32:22.917
67.0, -310.5986913200468, -234.69929166929796, -243.01495922077447, -225.59637517714873, 0.12800000607967377, 0.12800000607967377, 0.9920000471174717, 0.0, 0.0, 0.0, 0.0, 0.0, 1.6518367429300537E9, 0.0, 2022-05-06 12:32:22.930
67.0, -223.67219664994627, -69.4966909266077, -140.28364733792841, -161.84604053245857, 0.12800000607967377, 0.12800000607967377, 0.9920000471174717, 0.0, 0.0, 0.0, 0.0, 0.0, 1.6518367429300537E9, 0.0, 2022-05-06 12:32:22.930
68.0, -201.86110010836273, -77.84788752766326, -120.37989977374673, -154.96836451394483, 0.12800000607967377, 0.12800000607967377, 0.9920000471174717, 0.0, 0.0, 0.0, 0.0, 0.0, 1.651836742946064E9, 0.0, 2022-05-06 12:32:22.946
68.0, -285.2907883198932, -236.6851785457693, -218.3989377124235, -213.94284691521898, 0.12800000607967377, 0.12800000607967377, 0.9920000471174717, 0.0, 0.0, 0.0, 0.0, 0.0, 1.651836742946064E9, 0.0, 2022-05-06 12:32:22.946
69.0, -307.7301880540326, -239.41904541337863, -249.79913774039596, -229.5307499305345, 0.12800000607967377, 0.12800000607967377, 0.9920000471174717, 0.0, 0.0, 0.0, 0.0, 0.0, 1.651836742947007E9, 0.0, 2022-05-06 12:32:22.947
69.0, -221.4357364764437, -74.65027306554839, -143.60467849858105, -162.62767962319776, 0.12800000607967377, 0.12800000607967377, 0.9920000471174717, 0.0, 0.0, 0.0, 0.0, 0.0, 1.651836742947007E9, 0.0, 2022-05-06 12:32:22.947
70.0, -204.45659067761153, -76.55014224303886, -115.99673702567816, -142.61173506034538, 0.12800000607967377, 0.12800000607967377, 1.008000047877431, 0.0, 0.0, 0.0, 0.0, 0.0, 1.6518367429600852E9, 0.0, 2022-05-06 12:32:22.960
70.0, -285.11875292193145, -232.3880334966816, -220.28010739013553, -216.3401227868162, 0.12800000607967377, 0.12800000607967377, 1.008000047877431, 0.0, 0.0, 0.0, 0.0, 0.0, 1.6518367429600852E9, 0.0, 2022-05-06 12:32:22.960
71.0, -309.5851784320548, -237.44063833681867, -250.79769102856517, -231.55403580656275, 0.12800000607967377, 0.12800000607967377, 1.008000047877431, 0.0, 0.0, 0.0, 0.0, 0.0, 1.651836742976118E9, 0.0, 2022-05-06 12:32:22.976
71.0, -242.66340862493962, -93.98555583646521, -154.110057474114, -170.07382043497637, 0.12800000607967377, 0.12800000607967377, 1.008000047877431, 0.0, 0.0, 0.0, 0.0, 0.0, 1.651836742976118E9, 0.0, 2022-05-06 12:32:22.976
72.0, -210.0215618116781, -71.23200450604782, -113.66303945332766, -146.41147341532633, 0.12800000607967377, 0.12800000607967377, 1.008000047877431, 0.0, 0.0, 0.0, 0.0, 0.0, 1.651836742977003E9, 0.0, 2022-05-06 12:32:22.977
72.0, -275.4959903359413, -214.21585961198434, -212.56095388159156, -201.13368956698105, 0.12800000607967377, 0.12800000607967377, 1.008000047877431, 0.0, 0.0, 0.0, 0.0, 0.0, 1.651836742977003E9, 0.0, 2022-05-06 12:32:22.977
73.0, -309.27850663568825, -232.74332399247214, -248.47521315608174, -225.1662866822444, 0.12800000607967377, 0.12800000607967377, 1.008000047877431, 0.0, 0.0, 0.0, 0.0, 0.0, 1.6518367429901123E9, 0.0, 2022-05-06 12:32:22.990
73.0, -233.30991883575916, -87.93065780820325, -146.86213135998696, -160.0995072531514, 0.12800000607967377, 0.12800000607967377, 1.008000047877431, 0.0, 0.0, 0.0, 0.0, 0.0, 1.6518367429901123E9, 0.0, 2022-05-06 12:32:22.990
74.0, -203.1700650928542, -65.37158127548173, -103.13522107806057, -126.03275855677202, 0.12800000607967377, 0.12800000607967377, 1.008000047877431, 0.0, 0.0, 0.0, 0.0, 0.0, 1.6518367430061305E9, 0.0, 2022-05-06 12:32:23.006
74.0, -260.9328199084848, -199.87708318186924, -195.49205048382282, -194.82447834173217, 0.12800000607967377, 0.12800000607967377, 1.008000047877431, 0.0, 0.0, 0.0, 0.0, 0.0, 1.6518367430061305E9, 0.0, 2022-05-06 12:32:23.006
75.0, -296.89943778235465, -226.73330476367846, -231.888756852597, -205.77116551203653, 0.12800000607967377, 0.12800000607967377, 1.008000047877431, 0.0, 0.0, 0.0, 0.0, 0.0, 1.6518367430070188E9, 0.0, 2022-05-06 12:32:23.007
75.0, -236.94510159268975, -91.40876476699486, -152.93198898807168, -174.1054325872101, 0.12800000607967377, 0.12800000607967377, 1.008000047877431, 0.0, 0.0, 0.0, 0.0, 0.0, 1.6518367430070188E9, 0.0, 2022-05-06 12:32:23.007
76.0, -201.04206201806664, -69.56400912581012, -117.51513640768826, -148.3076026928611, 0.12800000607967377, 0.12800000607967377, 1.008000047877431, 0.0, 0.0, 0.0, 0.0, 0.0, 1.651836743020093E9, 0.0, 2022-05-06 12:32:23.020
76.0, -276.7600765209645, -221.14215432992205, -220.9532893821597, -216.81882998114452, 0.12800000607967377, 0.12800000607967377, 1.008000047877431, 0.0, 0.0, 0.0, 0.0, 0.0, 1.651836743020093E9, 0.0, 2022-05-06 12:32:23.020
77.0, -306.05845277383924, -238.71220432175323, -249.3391300458461, -226.5313501660712, 0.12800000607967377, 0.12800000607967377, 1.008000047877431, 0.0, 0.0, 0.0, 0.0, 0.0, 1.6518367430360963E9, 0.0, 2022-05-06 12:32:23.036
77.0, -232.40112314652652, -84.81158124515787, -144.46111558843404, -152.96003823773935, 0.12800000607967377, 0.12800000607967377, 1.008000047877431, 0.0, 0.0, 0.0, 0.0, 0.0, 1.6518367430360963E9, 0.0, 2022-05-06 12:32:23.036
78.0, -195.92961877863854, -62.66015380760655, -108.48327801469713, -136.47455923305824, 0.12800000607967377, 0.12800000607967377, 1.008000047877431, 0.0, 0.0, 0.0, 0.0, 0.0, 1.6518367430370216E9, 0.0, 2022-05-06 12:32:23.037
78.0, -268.77165021561086, -208.36665608128533, -201.92467840760946, -196.58597122086212, 0.12800000607967377, 0.12800000607967377, 1.008000047877431, 0.0, 0.0, 0.0, 0.0, 0.0, 1.6518367430370216E9, 0.0, 2022-05-06 12:32:23.037
79.0, -301.99692142196, -227.91511314967647, -242.2221004301682, -228.25918394559994, 0.12800000607967377, 0.12800000607967377, 1.008000047877431, 0.0, 0.0, 0.0, 0.0, 0.0, 1.6518367430500307E9, 0.0, 2022-05-06 12:32:23.050
79.0, -229.5550592802465, -93.52554814191535, -153.49297398142517, -171.71189661556855, 0.12800000607967377, 0.12800000607967377, 1.008000047877431, 0.0, 0.0, 0.0, 0.0, 0.0, 1.6518367430500307E9, 0.0, 2022-05-06 12:32:23.050
80.0, -201.99573650676757, -74.31742196949199, -117.46651770826429, -158.04256227752194, 0.12800000607967377, 0.12800000607967377, 1.008000047877431, 0.0, 0.0, 0.0, 0.0, 0.0, 1.6518367430660672E9, 0.0, 2022-05-06 12:32:23.066
80.0, -282.8486336488277, -225.50287767825648, -217.52754102274776, -212.6787607301958, 0.12800000607967377, 0.12800000607967377, 1.008000047877431, 0.0, 0.0, 0.0, 0.0, 0.0, 1.6518367430660672E9, 0.0, 2022-05-06 12:32:23.066
81.0, -308.328572046943, -239.96507080690935, -252.00193881429732, -235.96711775427684, 0.12800000607967377, 0.12800000607967377, 1.008000047877431, 0.0, 0.0, 0.0, 0.0, 0.0, 1.65183674306699E9, 0.0, 2022-05-06 12:32:23.066
81.0, -240.95053444523364, -93.85091943806037, -152.44954189378768, -169.07152724685147, 0.12800000607967377, 0.12800000607967377, 1.008000047877431, 0.0, 0.0, 0.0, 0.0, 0.0, 1.65183674306699E9, 0.0, 2022-05-06 12:32:23.066
82.0, -203.3607999905944, -73.96961127361283, -110.22607139404863, -141.32146957563236, 0.12800000607967377, 0.12800000607967377, 1.008000047877431, 0.0, 0.0, 0.0, 0.0, 0.0, 1.65183674308009E9, 0.0, 2022-05-06 12:32:23.080
82.0, -269.59816810581833, -216.08954948978499, -207.3961520427838, -207.21476689493284, 0.12800000607967377, 0.12800000607967377, 1.008000047877431, 0.0, 0.0, 0.0, 0.0, 0.0, 1.65183674308009E9, 0.0, 2022-05-06 12:32:23.080
83.0, -302.4718887163326, -230.1627930230461, -245.70020738895983, -217.13672147737816, 0.12800000607967377, 0.12800000607967377, 1.008000047877431, 0.0, 0.0, 0.0, 0.0, 0.0, 1.6518367430960371E9, 0.0, 2022-05-06 12:32:23.096
83.0, -228.72480149008334, -90.19703718135133, -148.33939184248447, -157.2422236870043, 0.12800000607967377, 0.12800000607967377, 1.008000047877431, 0.0, 0.0, 0.0, 0.0, 0.0, 1.6518367430960371E9, 0.0, 2022-05-06 12:32:23.096
84.0, -208.2114502331242, -68.46821843879297, -114.08190824836493, -145.0127508318983, 0.12800000607967377, 0.12800000607967377, 1.008000047877431, 0.0, 0.0, 0.0, 0.0, 0.0, 1.6518367430969937E9, 0.0, 2022-05-06 12:32:23.096
84.0, -256.91242745611817, -208.85284307552502, -203.01298929471523, -193.62023055600002, 0.12800000607967377, 0.12800000607967377, 1.008000047877431, 0.0, 0.0, 0.0, 0.0, 0.0, 1.6518367430969937E9, 0.0, 2022-05-06 12:32:23.096
85.0, -311.7131815068424, -230.77987651573494, -243.28423201758415, -213.96528631495312, 0.12800000607967377, 0.12800000607967377, 1.008000047877431, 0.0, 0.0, 0.0, 0.0, 0.0, 1.6518367431100383E9, 0.0, 2022-05-06 12:32:23.110
85.0, -225.3701112298295, -80.64533269451931, -135.16372429858893, -147.42872620327398, 0.12800000607967377, 0.12800000607967377, 1.008000047877431, 0.0, 0.0, 0.0, 0.0, 0.0, 1.6518367431100383E9, 0.0, 2022-05-06 12:32:23.110
86.0, -196.58410127088428, -58.61732195550576, -106.3814542395994, -127.31180434161797, 0.12800000607967377, 0.12800000607967377, 1.008000047877431, 0.0, 0.0, 0.0, 0.0, 0.0, 1.6518367431260564E9, 0.0, 2022-05-06 12:32:23.126
86.0, -257.95585954375565, -206.73231980064884, -201.51702931243926, -199.6639088843949, 0.12800000607967377, 0.12800000607967377, 1.008000047877431, 0.0, 0.0, 0.0, 0.0, 0.0, 1.6518367431260564E9, 0.0, 2022-05-06 12:32:23.126
87.0, -293.82524001877755, -227.32420895667747, -234.61140402033925, -215.4874255969189, 0.12800000607967377, 0.12800000607967377, 1.008000047877431, 0.0, 0.0, 0.0, 0.0, 0.0, 1.6518367431269977E9, 0.0, 2022-05-06 12:32:23.126
87.0, -228.57894539181143, -84.86393984453753, -143.86273159552366, -155.9407385024242, 0.12800000607967377, 0.12800000607967377, 1.008000047877431, 0.0, 0.0, 0.0, 0.0, 0.0, 1.6518367431269977E9, 0.0, 2022-05-06 12:32:23.126
88.0, -196.97305086627603, -69.09652163134888, -116.71105791721493, -148.84988818643615, 0.12800000607967377, 0.12800000607967377, 1.008000047877431, 0.0, 0.0, 0.0, 0.0, 0.0, 1.6518367431400597E9, 0.0, 2022-05-06 12:32:23.140
88.0, -275.017283141613, -221.87143482128158, -216.67484383285046, -217.22273917635903, 0.12800000607967377, 0.12800000607967377, 1.008000047877431, 0.0, 0.0, 0.0, 0.0, 0.0, 1.6518367431400597E9, 0.0, 2022-05-06 12:32:23.140
89.0, -304.79062668886036, -235.21913776313886, -243.28049211762846, -218.77479765797034, 0.12800000607967377, 0.12800000607967377, 1.008000047877431, 0.0, 0.0, 0.0, 0.0, 0.0, 1.651836743156077E9, 0.0, 2022-05-06 12:32:23.156
89.0, -227.90576339978725, -87.45195061387494, -147.04912635777146, -156.39700629701838, 0.12800000607967377, 0.12800000607967377, 1.008000047877431, 0.0, 0.0, 0.0, 0.0, 0.0, 1.651836743156077E9, 0.0, 2022-05-06 12:32:23.156
90.0, -203.82454758509994, -74.54929576674476, -121.16527876444161, -150.46926486724988, 0.12800000607967377, 0.12800000607967377, 1.0240000486373901, 0.0, 0.0, 0.0, 0.0, 0.0, 1.651836743157262E9, 0.0, 2022-05-06 12:32:23.157
90.0, -262.4848783900961, -213.29584422288463, -204.17983808089048, -200.97287386888638, 0.12800000607967377, 0.12800000607967377, 1.0240000486373901, 0.0, 0.0, 0.0, 0.0, 0.0, 1.651836743157262E9, 0.0, 2022-05-06 12:32:23.157
91.0, -289.2438625730574, -229.23155793407932, -241.06647134386003, -218.43072686204687, 0.12800000607967377, 0.12800000607967377, 1.0240000486373901, 0.0, 0.0, 0.0, 0.0, 0.0, 1.6518367431701026E9, 0.0, 2022-05-06 12:32:23.170
91.0, -250.12450903654099, -97.75911489175633, -160.94285469315946, -179.4721890236251, 0.12800000607967377, 0.12800000607967377, 1.0240000486373901, 0.0, 0.0, 0.0, 0.0, 0.0, 1.6518367431701026E9, 0.0, 2022-05-06 12:32:23.170
92.0, -205.0624544704333, -73.62180057773367, -116.12015372421592, -145.05762963136658, 0.12800000607967377, 0.12800000607967377, 1.0240000486373901, 0.0, 0.0, 0.0, 0.0, 0.0, 1.6518367431860936E9, 0.0, 2022-05-06 12:32:23.186
92.0, -266.9017002377659, -218.01933786692098, -206.2442628564313, -203.24299314199015, 0.12800000607967377, 0.12800000607967377, 1.0240000486373901, 0.0, 0.0, 0.0, 0.0, 0.0, 1.6518367431860936E9, 0.0, 2022-05-06 12:32:23.186
93.0, -295.64657129719853, -223.99943789606914, -236.8927429933101, -213.47909932071343, 0.12800000607967377, 0.12800000607967377, 1.0240000486373901, 0.0, 0.0, 0.0, 0.0, 0.0, 1.651836743186999E9, 0.0, 2022-05-06 12:32:23.186
93.0, -225.39629052951932, -86.872266120743, -150.80024601332843, -168.40956495469436, 0.12800000607967377, 0.12800000607967377, 1.0240000486373901, 0.0, 0.0, 0.0, 0.0, 0.0, 1.651836743186999E9, 0.0, 2022-05-06 12:32:23.186
94.0, -194.99838368967175, -68.5317967380397, -111.47893787920475, -139.68339339504018, 0.12800000607967377, 0.12800000607967377, 1.0240000486373901, 0.0, 0.0, 0.0, 0.0, 0.0, 1.6518367432000496E9, 0.0, 2022-05-06 12:32:23.200
94.0, -264.1715732701123, -212.03549793781713, -199.02999584190547, -195.91278922883794, 0.12800000607967377, 0.12800000607967377, 1.0240000486373901, 0.0, 0.0, 0.0, 0.0, 0.0, 1.6518367432000496E9, 0.0, 2022-05-06 12:32:23.200
95.0, -297.26594797801226, -229.717744928319, -243.92375491000712, -225.9441858730279, 0.12800000607967377, 0.12800000607967377, 1.0240000486373901, 0.0, 0.0, 0.0, 0.0, 0.0, 1.6518367432160494E9, 0.0, 2022-05-06 12:32:23.216
95.0, -237.25177338905632, -89.71832998702303, -145.64666387438774, -154.48217751970515, 0.12800000607967377, 0.12800000607967377, 1.0240000486373901, 0.0, 0.0, 0.0, 0.0, 0.0, 1.6518367432160494E9, 0.0, 2022-05-06 12:32:23.216
96.0, -205.02879537083209, -82.81821456877515, -125.57088091224432, -146.67326641222462, 0.12800000607967377, 0.12800000607967377, 1.0240000486373901, 0.0, 0.0, 0.0, 0.0, 0.0, 1.6518367432169833E9, 0.0, 2022-05-06 12:32:23.216
96.0, -278.59636739920825, -220.22587884077802, -210.806940802373, -199.69008818408474, 0.12800000607967377, 0.12800000607967377, 1.0240000486373901, 0.0, 0.0, 0.0, 0.0, 0.0, 1.6518367432169833E9, 0.0, 2022-05-06 12:32:23.216
97.0, -297.7708344720304, -223.69276609970257, -243.8564367108047, -232.04022280080244, 0.12800000607967377, 0.12800000607967377, 1.0240000486373901, 0.0, 0.0, 0.0, 0.0, 0.0, 1.6518367432300763E9, 0.0, 2022-05-06 12:32:23.230
97.0, -227.46445520501584, -91.07591367093846, -149.42396282963455, -168.92193124862388, 0.12800000607967377, 0.12800000607967377, 1.0240000486373901, 0.0, 0.0, 0.0, 0.0, 0.0, 1.6518367432300763E9, 0.0, 2022-05-06 12:32:23.230
98.0, -208.62657912820578, -74.8709271629341, -114.15670624747872, -144.13761424226686, 0.12800000607967377, 0.12800000607967377, 1.0240000486373901, 0.0, 0.0, 0.0, 0.0, 0.0, 1.6518367432460356E9, 0.0, 2022-05-06 12:32:23.246
98.0, -273.9514116542414, -213.58007661951706, -195.74262378085405, -180.61659841006622, 0.12800000607967377, 0.12800000607967377, 1.0240000486373901, 0.0, 0.0, 0.0, 0.0, 0.0, 1.6518367432460356E9, 0.0, 2022-05-06 12:32:23.246
99.0, -293.5746667217463, -216.92354717990384, -238.93846826907247, -221.57598272478208, 0.12800000607967377, 0.12800000607967377, 1.0240000486373901, 0.0, 0.0, 0.0, 0.0, 0.0, 1.6518367432469845E9, 0.0, 2022-05-06 12:32:23.246
99.0, -232.49836054537445, -88.17749120527878, -151.87733720056713, -167.38857226679102, 0.12800000607967377, 0.12800000607967377, 1.0240000486373901, 0.0, 0.0, 0.0, 0.0, 0.0, 1.6518367432469845E9, 0.0, 2022-05-06 12:32:23.246
100.0, -201.9433779073879, -77.89276632713154, -122.64627914689481, -150.65625986503437, 0.12800000607967377, 0.12800000607967377, 1.0240000486373901, 0.0, 0.0, 0.0, 0.0, 0.0, 1.6518367432610657E9, 0.0, 2022-05-06 12:32:23.261
100.0, -277.66887221019715, -225.58889537723735, -217.80055371951312, -211.4932124442421, 0.12800000607967377, 0.12800000607967377, 1.0240000486373901, 0.0, 0.0, 0.0, 0.0, 0.0, 1.6518367432610657E9, 0.0, 2022-05-06 12:32:23.261
0.0, -303.7490645512007, -232.99015738954768, -238.40179262543097, -210.34693310782313, 0.12800000607967377, 0.12800000607967377, 1.0240000486373901, 0.0, 0.0, 0.0, 0.0, 0.0, 1.6518367432619984E9, 0.0, 2022-05-06 12:32:23.261
1.0, -230.36100772069767, -88.75343579845503, -147.17441300628707, -158.82981121819466, 0.12800000607967377, 0.12800000607967377, 1.0240000486373901, 0.0, 0.0, 0.0, 0.0, 0.0, 1.6518367432920628E9, 0.0, 2022-05-06 12:32:23.292
1.0, -213.50527862040326, -90.37281247926876, -124.84721027081832, -158.7101344196126, 0.12800000607967377, 0.12800000607967377, 1.0240000486373901, 0.0, 0.0, 0.0, 0.0, 0.0, 1.6518367432920628E9, 0.0, 2022-05-06 12:32:23.292
2.0, -274.01685990346596, -221.33662912761793, -216.32890308694914, -210.11505931057036, 0.12800000607967377, 0.12800000607967377, 1.0240000486373901, 0.0, 0.0, 0.0, 0.0, 0.0, 1.651836743293E9, 0.0, 2022-05-06 12:32:23.293
2.0, -306.15008032275364, -238.51024972414598, -253.67928394442424, -241.4068022398278, 0.12800000607967377, 0.12800000607967377, 1.0240000486373901, 0.0, 0.0, 0.0, 0.0, 0.0, 1.651836743293E9, 0.0, 2022-05-06 12:32:23.293
3.0, -236.73753714514896, -97.78903409140185, -156.21749109914526, -175.9361136155203, 0.12800000607967377, 0.12800000607967377, 1.0240000486373901, 0.0, 0.0, 0.0, 0.0, 0.0, 1.6518367432940257E9, 0.0, 2022-05-06 12:32:23.294
3.0, -197.35639061173424, -83.86538655636832, -118.08547115093097, -150.29909941926599, 0.12800000607967377, 0.12800000607967377, 1.0240000486373901, 0.0, 0.0, 0.0, 0.0, 0.0, 1.6518367432940257E9, 0.0, 2022-05-06 12:32:23.294
4.0, -262.5166675397195, -210.32636365806684, -198.30632520047948, -193.22567111067474, 0.12800000607967377, 0.12800000607967377, 1.0240000486373901, 0.0, 0.0, 0.0, 0.0, 0.0, 1.6518367433050597E9, 0.0, 2022-05-06 12:32:23.305
4.0, -289.0736971250735, -214.20463991211727, -223.18039980577305, -196.60280077066272, 0.12800000607967377, 0.12800000607967377, 1.0240000486373901, 0.0, 0.0, 0.0, 0.0, 0.0, 1.6518367433050597E9, 0.0, 2022-05-06 12:32:23.305
5.0, -223.67032669996843, -74.08180827228352, -135.8948747399263, -141.6561906216666, 0.12800000607967377, 0.12800000607967377, 1.0240000486373901, 0.0, 0.0, 0.0, 0.0, 0.0, 1.651836743321059E9, 0.0, 2022-05-06 12:32:23.321
5.0, -197.2554133129306, -71.85656779864803, -112.40830301819369, -136.031381088309, 0.12800000607967377, 0.12800000607967377, 1.0240000486373901, 0.0, 0.0, 0.0, 0.0, 0.0, 1.651836743321059E9, 0.0, 2022-05-06 12:32:23.321
6.0, -273.65408960776404, -217.2302189762704, -208.74064607685432, -213.45105007104576, 0.12800000607967377, 0.12800000607967377, 1.0240000486373901, 0.0, 0.0, 0.0, 0.0, 0.0, 1.6518367433220007E9, 0.0, 2022-05-06 12:32:23.322
6.0, -292.7126197819598, -223.73764489917085, -236.37102694949135, -223.47024205233902, 0.12800000607967377, 0.12800000607967377, 1.0240000486373901, 0.0, 0.0, 0.0, 0.0, 0.0, 1.6518367433220007E9, 0.0, 2022-05-06 12:32:23.322
7.0, -232.9789376896806, -86.38607912650332, -152.70946494070813, -162.77166577149183, 0.12800000607967377, 0.12800000607967377, 1.0240000486373901, 0.0, 0.0, 0.0, 0.0, 0.0, 1.6518367433350563E9, 0.0, 2022-05-06 12:32:23.335
7.0, -207.96274688607082, -76.9428317383863, -108.2532741674222, -135.02160810027272, 0.12800000607967377, 0.12800000607967377, 1.0240000486373901, 0.0, 0.0, 0.0, 0.0, 0.0, 1.6518367433350563E9, 0.0, 2022-05-06 12:32:23.335
8.0, -268.50050746882334, -204.13308933144435, -198.08567110309377, -184.2723506167531, 0.12800000607967377, 0.12800000607967377, 1.0240000486373901, 0.0, 0.0, 0.0, 0.0, 0.0, 1.6518367433510468E9, 0.0, 2022-05-06 12:32:23.351
8.0, -290.69307380588725, -223.012104307767, -231.29224280966446, -214.135451762937, 0.12800000607967377, 0.12800000607967377, 1.0240000486373901, 0.0, 0.0, 0.0, 0.0, 0.0, 1.6518367433510468E9, 0.0, 2022-05-06 12:32:23.351
9.0, -227.5373832541518, -83.67465165862814, -140.21445918874815, -165.28487854171544, 0.12800000607967377, 0.12800000607967377, 1.0240000486373901, 0.0, 0.0, 0.0, 0.0, 0.0, 1.6518367433519907E9, 0.0, 2022-05-06 12:32:23.351
9.0, -195.28822593623772, -65.6034550727345, -114.83175818948075, -146.67887626215816, 0.12800000607967377, 0.12800000607967377, 1.0240000486373901, 0.0, 0.0, 0.0, 0.0, 0.0, 1.6518367433519907E9, 0.0, 2022-05-06 12:32:23.351
10.0, -274.20385490125045, -215.8950746920891, -208.62096927827224, -203.51413588877767, 0.12800000607967377, 0.12800000607967377, 1.0240000486373901, 0.0, 0.0, 0.0, 0.0, 0.0, 1.6518367433650684E9, 0.0, 2022-05-06 12:32:23.365
10.0, -294.1898802644573, -231.3184221093543, -246.1396456337534, -227.21388190798461, 0.12800000607967377, 0.12800000607967377, 1.0240000486373901, 0.0, 0.0, 0.0, 0.0, 0.0, 1.6518367433650684E9, 0.0, 2022-05-06 12:32:23.365
11.0, -233.30056908586994, -87.78106180997565, -148.4945976906456, -164.23396665416658, 0.12800000607967377, 0.12800000607967377, 1.0240000486373901, 0.0, 0.0, 0.0, 0.0, 0.0, 1.651836743381039E9, 0.0, 2022-05-06 12:32:23.381
11.0, -198.58681769715622, -72.05852239625528, -117.46838765824214, -142.96889550611377, 0.12800000607967377, 0.12800000607967377, 1.0240000486373901, 0.0, 0.0, 0.0, 0.0, 0.0, 1.651836743381039E9, 0.0, 2022-05-06 12:32:23.381
12.0, -272.038452826906, -214.9713194030337, -208.73690617689863, -213.44731017109007, 0.12800000607967377, 0.12800000607967377, 1.0240000486373901, 0.0, 0.0, 0.0, 0.0, 0.0, 1.6518367433820105E9, 0.0, 2022-05-06 12:32:23.382
12.0, -305.81722922669724, -231.4642782076262, -242.56056137615815, -226.28264681901783, 0.12800000607967377, 0.12800000607967377, 1.0240000486373901, 0.0, 0.0, 0.0, 0.0, 0.0, 1.6518367433820105E9, 0.0, 2022-05-06 12:32:23.382
13.0, -230.25629052193835, -85.21923034032807, -146.32919561630115, -156.7429470429197, 0.12800000607967377, 0.12800000607967377, 1.0240000486373901, 0.0, 0.0, 0.0, 0.0, 0.0, 1.65183674339507E9, 0.0, 2022-05-06 12:32:23.395
13.0, -195.24708703672513, -72.15201989514753, -109.85395134845749, -124.86029992066324, 0.12800000607967377, 0.12800000607967377, 1.0240000486373901, 0.0, 0.0, 0.0, 0.0, 0.0, 1.65183674339507E9, 0.0, 2022-05-06 12:32:23.395
14.0, -259.42377027636394, -204.21162723051384, -200.86815667012706, -186.89776038564742, 0.12800000607967377, 0.12800000607967377, 1.0240000486373901, 0.0, 0.0, 0.0, 0.0, 0.0, 1.6518367434112008E9, 0.0, 2022-05-06 12:32:23.411
14.0, -286.32487065764144, -217.72014587046579, -229.38115393230692, -217.22086922638118, 0.12800000607967377, 0.12800000607967377, 1.0240000486373901, 0.0, 0.0, 0.0, 0.0, 0.0, 1.6518367434112008E9, 0.0, 2022-05-06 12:32:23.411
15.0, -216.68793348269537, -74.54929576674476, -141.16813367744908, -161.36172348819673, 0.12800000607967377, 0.12800000607967377, 1.0240000486373901, 0.0, 0.0, 0.0, 0.0, 0.0, 1.651836743411986E9, 0.0, 2022-05-06 12:32:23.411
15.0, -203.32527094101533, -73.87985367467627, -115.7779528782703, -144.0646861931309, 0.12800000607967377, 0.12800000607967377, 1.0240000486373901, 0.0, 0.0, 0.0, 0.0, 0.0, 1.651836743411986E9, 0.0, 2022-05-06 12:32:23.411
16.0, -262.0603997451253, -222.55583651317284, -209.09219667268917, -195.06944178882986, 0.12800000607967377, 0.12800000607967377, 1.0240000486373901, 0.0, 0.0, 0.0, 0.0, 0.0, 1.6518367434250388E9, 0.0, 2022-05-06 12:32:23.425
16.0, -287.2635855465196, -225.20742558175698, -227.3129892568104, -198.97389734257013, 0.12800000607967377, 0.12800000607967377, 1.0240000486373901, 0.0, 0.0, 0.0, 0.0, 0.0, 1.6518367434250388E9, 0.0, 2022-05-06 12:32:23.425
17.0, -209.5671639670618, -78.60708721866831, -139.79559039371088, -154.20729487296194, 0.12800000607967377, 0.12800000607967377, 1.0240000486373901, 0.0, 0.0, 0.0, 0.0, 0.0, 1.6518367434410627E9, 0.0, 2022-05-06 12:32:23.441
17.0, -205.524332114961, -73.94717187387869, -112.44570201775059, -152.56173889245838, 0.12800000607967377, 0.12800000607967377, 1.0240000486373901, 0.0, 0.0, 0.0, 0.0, 0.0, 1.6518367434410627E9, 0.0, 2022-05-06 12:32:23.441
18.0, -265.4487491049804, -212.63014203077182, -200.90181576972827, -206.5845937523991, 0.12800000607967377, 0.12800000607967377, 1.0240000486373901, 0.0, 0.0, 0.0, 0.0, 0.0, 1.6518367434422052E9, 0.0, 2022-05-06 12:32:23.442
18.0, -297.8699418208562, -226.96517856093124, -242.52316237660125, -233.87464372906834, 0.12800000607967377, 0.12800000607967377, 1.0240000486373901, 0.0, 0.0, 0.0, 0.0, 0.0, 1.6518367434422052E9, 0.0, 2022-05-06 12:32:23.442
19.0, -230.4208461199887, -88.60383980022743, -149.14908018289134, -163.08955726772547, 0.12800000607967377, 0.12800000607967377, 1.0240000486373901, 0.0, 0.0, 0.0, 0.0, 0.0, 1.6518367434550836E9, 0.0, 2022-05-06 12:32:23.455
19.0, -213.10136942518875, -81.72990368166938, -124.3385838768445, -152.98434758745134, 0.12800000607967377, 0.12800000607967377, 1.0240000486373901, 0.0, 0.0, 0.0, 0.0, 0.0, 1.6518367434550836E9, 0.0, 2022-05-06 12:32:23.455
20.0, -276.79934547049925, -222.07338941888884, -220.04262374294922, -213.08827977534384, 0.12800000607967377, 0.12800000607967377, 1.0240000486373901, 0.0, 0.0, 0.0, 0.0, 0.0, 1.6518367434710672E9, 0.0, 2022-05-06 12:32:23.471
20.0, -296.44130003778264, -223.48707160213962, -238.29333552671596, -217.60233902186155, 0.12800000607967377, 0.12800000607967377, 1.0240000486373901, 0.0, 0.0, 0.0, 0.0, 0.0, 1.6518367434710672E9, 0.0, 2022-05-06 12:32:23.471
21.0, -232.28705619787797, -82.11137347714975, -143.19141955347732, -157.64426293224096, 0.12800000607967377, 0.12800000607967377, 1.0240000486373901, 0.0, 0.0, 0.0, 0.0, 0.0, 1.6518367434720068E9, 0.0, 2022-05-06 12:32:23.472
21.0, -205.53555181482807, -82.94163126731291, -117.21033456129953, -137.4749824712053, 0.12800000607967377, 0.12800000607967377, 1.0240000486373901, 0.0, 0.0, 0.0, 0.0, 0.0, 1.6518367434720068E9, 0.0, 2022-05-06 12:32:23.472
22.0, -275.91298918100074, -227.34290845645592, -210.5956364548765, -200.40627902559936, 0.12800000607967377, 0.12800000607967377, 1.0240000486373901, 0.0, 0.0, 0.0, 0.0, 0.0, 1.651836743485098E9, 0.0, 2022-05-06 12:32:23.485
22.0, -295.3829083503224, -225.91052677342668, -239.93515160726383, -219.05342020466924, 0.12800000607967377, 0.12800000607967377, 1.0240000486373901, 0.0, 0.0, 0.0, 0.0, 0.0, 1.651836743485098E9, 0.0, 2022-05-06 12:32:23.485
23.0, -217.53689077263698, -62.51803760929033, -130.5991764026694, -146.69009596202523, 0.12800000607967377, 0.12800000607967377, 1.0240000486373901, 0.0, 0.0, 0.0, 0.0, 0.0, 1.6518367435011148E9, 0.0, 2022-05-06 12:32:23.501
23.0, -204.13682923140004, -77.21584443515167, -113.83694480126724, -138.81386665534228, 0.12800000607967377, 0.12800000607967377, 1.0240000486373901, 0.0, 0.0, 0.0, 0.0, 0.0, 1.6518367435011148E9, 0.0, 2022-05-06 12:32:23.501
24.0, -276.94894146872684, -232.346894597169, -214.0064252144657, -188.95470536127687, 0.12800000607967377, 0.12800000607967377, 1.0240000486373901, 0.0, 0.0, 0.0, 0.0, 0.0, 1.6518367435020936E9, 0.0, 2022-05-06 12:32:23.502
24.0, -308.6520733931102, -233.99619047762826, -251.05761407548562, -234.60766412038356, 0.12800000607967377, 0.12800000607967377, 1.0240000486373901, 0.0, 0.0, 0.0, 0.0, 0.0, 1.6518367435020936E9, 0.0, 2022-05-06 12:32:23.502
25.0, -221.39646752690896, -67.54446314973757, -132.57758347922936, -152.64401669148356, 0.12800000607967377, 0.12800000607967377, 1.0240000486373901, 0.0, 0.0, 0.0, 0.0, 0.0, 1.6518367435150747E9, 0.0, 2022-05-06 12:32:23.515
25.0, -204.2602459299378, -84.84898024471477, -121.12600981490687, -140.5529201347381, 0.12800000607967377, 0.12800000607967377, 1.0240000486373901, 0.0, 0.0, 0.0, 0.0, 0.0, 1.6518367435150747E9, 0.0, 2022-05-06 12:32:23.515
26.0, -284.484839879442, -242.93081147177145, -229.8336818269454, -231.45118855778128, 0.12800000607967377, 0.12800000607967377, 1.0240000486373901, 0.0, 0.0, 0.0, 0.0, 0.0, 1.6518367435310414E9, 0.0, 2022-05-06 12:32:23.531
26.0, -318.76102297334, -236.96567104244605, -251.2894878727384, -239.79864525888115, 0.12800000607967377, 0.12800000607967377, 1.0240000486373901, 0.0, 0.0, 0.0, 0.0, 0.0, 1.6518367435310414E9, 0.0, 2022-05-06 12:32:23.531
27.0, -236.96567104244605, -73.89855317445472, -144.85193513380364, -167.05011132080108, 0.12800000607967377, 0.12800000607967377, 1.0240000486373901, 0.0, 0.0, 0.0, 0.0, 0.0, 1.6518367435319984E9, 0.0, 2022-05-06 12:32:23.531
27.0, -210.83872995199636, -83.19968436425552, -125.31843766523525, -153.1825622851029, 0.12800000607967377, 0.12800000607967377, 1.0240000486373901, 0.0, 0.0, 0.0, 0.0, 0.0, 1.6518367435319984E9, 0.0, 2022-05-06 12:32:23.531
28.0, -285.65542856557295, -242.90089227212593, -227.32420895667747, -211.6558980923146, 0.12800000607967377, 0.12800000607967377, 1.0240000486373901, 0.0, 0.0, 0.0, 0.0, 0.0, 1.6518367435451283E9, 0.0, 2022-05-06 12:32:23.545
28.0, -288.3780757333152, -213.99520551459864, -232.14120009960607, -207.8785991370678, 0.12800000607967377, 0.12800000607967377, 1.0240000486373901, 0.0, 0.0, 0.0, 0.0, 0.0, 1.6518367435451283E9, 0.0, 2022-05-06 12:32:23.545
29.0, -233.10609428817406, -80.06564820138738, -142.81742955790833, -160.83439759444445, 0.12800000607967377, 0.12800000607967377, 1.0240000486373901, 0.0, 0.0, 0.0, 0.0, 0.0, 1.6518367435610616E9, 0.0, 2022-05-06 12:32:23.561
29.0, -199.0730046913959, -70.76451701158658, -113.77336650202051, -137.66571736894548, 0.12800000607967377, 0.12800000607967377, 1.0240000486373901, 0.0, 0.0, 0.0, 0.0, 0.0, 1.6518367435610616E9, 0.0, 2022-05-06 12:32:23.561
30.0, -279.4172754394822, -215.8651554924436, -208.97625977406278, -212.4001381834969, 0.12800000607967377, 0.12800000607967377, 1.0240000486373901, 0.0, 0.0, 0.0, 0.0, 0.0, 1.6518367435619948E9, 0.0, 2022-05-06 12:32:23.561
30.0, -307.93027270166203, -225.63751407666132, -237.26860293885693, -222.75592116080225, 0.12800000607967377, 0.12800000607967377, 1.0240000486373901, 0.0, 0.0, 0.0, 0.0, 0.0, 1.6518367435619948E9, 0.0, 2022-05-06 12:32:23.561
31.0, -235.61930705839768, -85.94103103177622, -150.77967656357214, -159.042985515669, 0.12800000607967377, 0.12800000607967377, 1.0240000486373901, 0.0, 0.0, 0.0, 0.0, 0.0, 1.6518367435750377E9, 0.0, 2022-05-06 12:32:23.575
31.0, -211.01450524991378, -75.67500565340742, -114.17727569723502, -148.60118483938277, 0.12800000607967377, 0.12800000607967377, 1.0240000486373901, 0.0, 0.0, 0.0, 0.0, 0.0, 1.6518367435750377E9, 0.0, 2022-05-06 12:32:23.575
32.0, -273.23522081272677, -217.1928199767135, -205.70010741287842, -197.42183886095881, 0.12800000607967377, 0.12800000607967377, 1.0240000486373901, 0.0, 0.0, 0.0, 0.0, 0.0, 1.651836743591055E9, 0.0, 2022-05-06 12:32:23.591
32.0, -297.0770830302499, -224.04057679558173, -236.9806306422688, -214.67025745660067, 0.12800000607967377, 0.12800000607967377, 1.0240000486373901, 0.0, 0.0, 0.0, 0.0, 0.0, 1.651836743591055E9, 0.0, 2022-05-06 12:32:23.591
33.0, -232.13746019965038, -81.28485558694229, -143.3484953516163, -152.5505191925913, 0.12800000607967377, 0.12800000607967377, 1.0240000486373901, 0.0, 0.0, 0.0, 0.0, 0.0, 1.651836743592058E9, 0.0, 2022-05-06 12:32:23.592
33.0, -213.303324022796, -83.94392445543781, -124.11044997954741, -146.24130796734244, 0.12800000607967377, 0.12800000607967377, 1.0240000486373901, 0.0, 0.0, 0.0, 0.0, 0.0, 1.651836743592058E9, 0.0, 2022-05-06 12:32:23.592
34.0, -276.8442242699675, -221.1982528292574, -212.6338819307275, -207.99827593564987, 0.12800000607967377, 0.12800000607967377, 1.0240000486373901, 0.0, 0.0, 0.0, 0.0, 0.0, 1.6518367436050737E9, 0.0, 2022-05-06 12:32:23.605
34.0, -288.1836009356193, -211.8185837403871, -217.24891847604886, -193.97365110181272, 0.12800000607967377, 0.12800000607967377, 1.0240000486373901, 0.0, 0.0, 0.0, 0.0, 0.0, 1.6518367436050737E9, 0.0, 2022-05-06 12:32:23.605
35.0, -217.1255017775111, -59.3802615464665, -118.44824144663289, -117.18976511154324, 0.12800000607967377, 0.12800000607967377, 1.0240000486373901, 0.0, 0.0, 0.0, 0.0, 0.0, 1.6518367436210883E9, 0.0, 2022-05-06 12:32:23.621
35.0, -211.87468223972246, -79.37750660954043, -124.72753347223625, -153.67622907925397, 0.12800000607967377, 0.12800000607967377, 1.0240000486373901, 0.0, 0.0, 0.0, 0.0, 0.0, 1.6518367436210883E9, 0.0, 2022-05-06 12:32:23.621
36.0, -283.893935686443, -226.9427391611971, -225.87686767382547, -234.99287381581962, 0.12800000607967377, 0.12800000607967377, 1.0240000486373901, 0.0, 0.0, 0.0, 0.0, 0.0, 1.6518367436219869E9, 0.0, 2022-05-06 12:32:23.621
36.0, -301.2769906804897, -224.0517964954488, -246.9848630237393, -231.01736016292125, 0.12800000607967377, 0.12800000607967377, 1.0240000486373901, 0.0, 0.0, 0.0, 0.0, 0.0, 1.6518367436219869E9, 0.0, 2022-05-06 12:32:23.621
37.0, -253.07716005155817, -99.37849157257006, -166.96222367184237, -184.8333356101066, 0.12800000607967377, 0.12800000607967377, 1.0240000486373901, 0.0, 0.0, 0.0, 0.0, 0.0, 1.6518367436350584E9, 0.0, 2022-05-06 12:32:23.635
37.0, -225.30092308064923, -93.12163894670084, -126.72837994853035, -156.90750264097005, 0.12800000607967377, 0.12800000607967377, 1.0240000486373901, 0.0, 0.0, 0.0, 0.0, 0.0, 1.6518367436350584E9, 0.0, 2022-05-06 12:32:23.635
38.0, -284.84387027518824, -231.46801810758188, -221.40768722677603, -213.40991117153317, 0.12800000607967377, 0.12800000607967377, 1.0240000486373901, 0.0, 0.0, 0.0, 0.0, 0.0, 1.65183674365109E9, 0.0, 2022-05-06 12:32:23.651
38.0, -305.675113028381, -220.8242628336884, -241.78266218537465, -221.8845244711265, 0.12800000607967377, 0.12800000607967377, 1.0240000486373901, 0.0, 0.0, 0.0, 0.0, 0.0, 1.65183674365109E9, 0.0, 2022-05-06 12:32:23.651
39.0, -231.93176570208743, -76.50900334352627, -141.89367426885292, -155.34796435944736, 0.12800000607967377, 0.12800000607967377, 1.0240000486373901, 0.0, 0.0, 0.0, 0.0, 0.0, 1.651836743651992E9, 0.0, 2022-05-06 12:32:23.651
39.0, -212.0093186381273, -84.10100025357679, -122.38261620001867, -148.63484393898398, 0.12800000607967377, 0.12800000607967377, 1.0240000486373901, 0.0, 0.0, 0.0, 0.0, 0.0, 1.651836743651992E9, 0.0, 2022-05-06 12:32:23.651
40.0, -274.6227236962877, -215.03863760223612, -203.24673304194584, -188.55453606601804, 0.12800000607967377, 0.12800000607967377, 1.0240000486373901, 0.0, 0.0, 0.0, 0.0, 0.0, 1.651836743665044E9, 0.0, 2022-05-06 12:32:23.665
40.0, -281.27600571746007, -199.10292389104143, -211.58297004317865, -178.53534408472478, 0.12800000607967377, 0.12800000607967377, 1.0240000486373901, 0.0, 0.0, 0.0, 0.0, 0.0, 1.651836743665044E9, 0.0, 2022-05-06 12:32:23.665
41.0, -225.17750638211146, -74.36978056887165, -141.4523660740815, -155.90520945284516, 0.12800000607967377, 0.12800000607967377, 1.0240000486373901, 0.0, 0.0, 0.0, 0.0, 0.0, 1.6518367436810417E9, 0.0, 2022-05-06 12:32:23.681
41.0, -216.77395118167624, -83.85416685650125, -122.72668699594215, -148.1860559443012, 0.12800000607967377, 0.12800000607967377, 1.0240000486373901, 0.0, 0.0, 0.0, 0.0, 0.0, 1.6518367436810417E9, 0.0, 2022-05-06 12:32:23.681
42.0, -282.2334201061167, -225.8282489744015, -213.58755641942844, -207.77762183826417, 0.12800000607967377, 0.12800000607967377, 1.0240000486373901, 0.0, 0.0, 0.0, 0.0, 0.0, 1.65183674368201E9, 0.0, 2022-05-06 12:32:23.682
42.0, -276.0775447790511, -214.4178142095916, -229.8673409265466, -214.05691386386752, 0.12800000607967377, 0.12800000607967377, 1.0240000486373901, 0.0, 0.0, 0.0, 0.0, 0.0, 1.65183674368201E9, 0.0, 2022-05-06 12:32:23.682
43.0, -250.63126548053697, -99.46076937159523, -162.48556342488155, -176.36620211042464, 0.12800000607967377, 0.12800000607967377, 1.0240000486373901, 0.0, 0.0, 0.0, 0.0, 0.0, 1.651836743695047E9, 0.0, 2022-05-06 12:32:23.695
43.0, -233.5324428831227, -105.02574050566182, -142.24896476464346, -172.35702935792506, 0.12800000607967377, 0.12800000607967377, 1.0240000486373901, 0.0, 0.0, 0.0, 0.0, 0.0, 1.651836743695047E9, 0.0, 2022-05-06 12:32:23.695
44.0, -286.0443781609647, -236.7637164448388, -222.15566721791402, -222.8456787597388, 0.12800000607967377, 0.12800000607967377, 1.0240000486373901, 0.0, 0.0, 0.0, 0.0, 0.0, 1.6518367437110791E9, 0.0, 2022-05-06 12:32:23.711
44.0, -307.496444306802, -230.7948361155577, -242.17909158067778, -227.2550208074972, 0.12800000607967377, 0.12800000607967377, 1.0240000486373901, 0.0, 0.0, 0.0, 0.0, 0.0, 1.6518367437110791E9, 0.0, 2022-05-06 12:32:23.711
45.0, -230.93695231387392, -85.29776823939756, -144.14509404217824, -165.38959574047476, 0.12800000607967377, 0.12800000607967377, 1.0240000486373901, 0.0, 0.0, 0.0, 0.0, 0.0, 1.651836743711982E9, 0.0, 2022-05-06 12:32:23.711
45.0, -214.35797581030056, -89.12368589406833, -122.67432839656249, -150.6656096149236, 0.12800000607967377, 0.12800000607967377, 1.0240000486373901, 0.0, 0.0, 0.0, 0.0, 0.0, 1.651836743711982E9, 0.0, 2022-05-06 12:32:23.711
46.0, -275.12387029035017, -224.88579418556765, -212.62640213081613, -208.25258913263679, 0.12800000607967377, 0.12800000607967377, 1.0240000486373901, 0.0, 0.0, 0.0, 0.0, 0.0, 1.6518367437420423E9, 0.0, 2022-05-06 12:32:23.742
46.0, -297.3463558270596, -219.38814125070348, -236.15785265201703, -216.62996503338218, 0.12800000607967377, 0.12800000607967377, 1.0240000486373901, 0.0, 0.0, 0.0, 0.0, 0.0, 1.6518367437420423E9, 0.0, 2022-05-06 12:32:23.742
47.0, -233.8652939791791, -85.27158893970773, -149.58290857775137, -165.94684083387256, 0.12800000607967377, 0.12800000607967377, 1.0240000486373901, 0.0, 0.0, 0.0, 0.0, 0.0, 1.6518367437430007E9, 0.0, 2022-05-06 12:32:23.743
47.0, -215.72677919408306, -85.88119263248518, -118.01815295172855, -149.65583662688732, 0.12800000607967377, 0.12800000607967377, 1.0240000486373901, 0.0, 0.0, 0.0, 0.0, 0.0, 1.6518367437430007E9, 0.0, 2022-05-06 12:32:23.743
48.0, -267.5917117795907, -216.33264298690483, -200.12765647890046, -178.77843758184463, 0.12800000607967377, 0.12800000607967377, 1.0240000486373901, 0.0, 0.0, 0.0, 0.0, 0.0, 1.651836743756062E9, 0.0, 2022-05-06 12:32:23.756
48.0, -283.46758709149435, -202.9699804452248, -214.14854141278192, -174.50373193249106, 0.12800000607967377, 0.12800000607967377, 1.0240000486373901, 0.0, 0.0, 0.0, 0.0, 0.0, 1.651836743756062E9, 0.0, 2022-05-06 12:32:23.756
49.0, -223.74886459903792, -73.51708337897435, -147.46612520283088, -174.9375603273511, 0.12800000607967377, 0.12800000607967377, 1.0240000486373901, 0.0, 0.0, 0.0, 0.0, 0.0, 1.651836743756986E9, 0.0, 2022-05-06 12:32:23.756
49.0, -214.9713194030337, -85.2416697400622, -120.03395902784541, -162.56597127392888, 0.12800000607967377, 0.12800000607967377, 1.0240000486373901, 0.0, 0.0, 0.0, 0.0, 0.0, 1.651836743756986E9, 0.0, 2022-05-06 12:32:23.756
50.0, -281.68739471258596, -230.51060371892527, -222.18558641755953, -218.60837210994214, 0.12800000607967377, 0.12800000607967377, 1.0240000486373901, 0.0, 0.0, 0.0, 0.0, 0.0, 1.6518367437710524E9, 0.0, 2022-05-06 12:32:23.771
50.0, -305.7873100270517, -231.54281610669568, -247.93105771252885, -242.9663405213505, 0.12800000607967377, 0.12800000607967377, 1.0240000486373901, 0.0, 0.0, 0.0, 0.0, 0.0, 1.6518367437710524E9, 0.0, 2022-05-06 12:32:23.771
51.0, -241.48721008887514, -92.81122725037858, -162.92687161965296, -171.5305114677176, 0.12800000607967377, 0.12800000607967377, 1.0240000486373901, 0.0, 0.0, 0.0, 0.0, 0.0, 1.651836743772042E9, 0.0, 2022-05-06 12:32:23.772
51.0, -222.4623390142806, -88.25228920439258, -124.72005367232487, -142.87539800722152, 0.12800000607967377, 0.12800000607967377, 1.0240000486373901, 0.0, 0.0, 0.0, 0.0, 0.0, 1.651836743772042E9, 0.0, 2022-05-06 12:32:23.772
52.0, -283.36286989273503, -224.17521319398656, -218.27739096386358, -210.14497851021588, 0.12800000607967377, 0.12800000607967377, 1.0240000486373901, 0.0, 0.0, 0.0, 0.0, 0.0, 1.65183674378504E9, 0.0, 2022-05-06 12:32:23.785
52.0, -299.018091107253, -216.17556718876585, -237.37332013761625, -219.2142359027639, 0.12800000607967377, 0.12800000607967377, 1.0240000486373901, 0.0, 0.0, 0.0, 0.0, 0.0, 1.65183674378504E9, 0.0, 2022-05-06 12:32:23.785
53.0, -226.7594840633683, -79.01099641388282, -137.0467639262788, -155.72569425497204, 0.12800000607967377, 0.12800000607967377, 1.0240000486373901, 0.0, 0.0, 0.0, 0.0, 0.0, 1.6518367438010645E9, 0.0, 2022-05-06 12:32:23.801
53.0, -204.62675612559542, -82.1712118764408, -125.64380896138027, -152.6327969916165, 0.12800000607967377, 0.12800000607967377, 1.0240000486373901, 0.0, 0.0, 0.0, 0.0, 0.0, 1.6518367438010645E9, 0.0, 2022-05-06 12:32:23.801
54.0, -293.7223927699961, -232.612427494023, -219.1226083538495, -216.27467453759164, 0.12800000607967377, 0.12800000607967377, 1.0240000486373901, 0.0, 0.0, 0.0, 0.0, 0.0, 1.651836743802014E9, 0.0, 2022-05-06 12:32:23.802
54.0, -301.3031699801795, -224.9082335853018, -241.6891646864824, -223.61235825065523, 0.12800000607967377, 0.12800000607967377, 1.0240000486373901, 0.0, 0.0, 0.0, 0.0, 0.0, 1.651836743802014E9, 0.0, 2022-05-06 12:32:23.802
55.0, -236.7599765448831, -89.16482479358092, -154.10444762418047, -166.4853864274919, 0.12800000607967377, 0.12800000607967377, 1.0240000486373901, 0.0, 0.0, 0.0, 0.0, 0.0, 1.651836743815031E9, 0.0, 2022-05-06 12:32:23.815
55.0, -216.21296618832275, -92.31756045622751, -131.43691399274394, -148.4740282408893, 0.12800000607967377, 0.12800000607967377, 1.0240000486373901, 0.0, 0.0, 0.0, 0.0, 0.0, 1.651836743815031E9, 0.0, 2022-05-06 12:32:23.815
56.0, -279.5257325381972, -231.45305850775912, -215.61832209536806, -207.59810664039105, 0.12800000607967377, 0.12800000607967377, 1.0240000486373901, 0.0, 0.0, 0.0, 0.0, 0.0, 1.6518367438470373E9, 0.0, 2022-05-06 12:32:23.847
56.0, -297.66050742333755, -219.6387145477347, -233.10983418812975, -211.12857219856232, 0.12800000607967377, 0.12800000607967377, 1.0240000486373901, 0.0, 0.0, 0.0, 0.0, 0.0, 1.6518367438470373E9, 0.0, 2022-05-06 12:32:23.847
57.0, -233.18837208719924, -83.76814915752038, -148.0532894958742, -169.2304729949683, 0.12800000607967377, 0.12800000607967377, 1.0240000486373901, 0.0, 0.0, 0.0, 0.0, 0.0, 1.6518367438479905E9, 0.0, 2022-05-06 12:32:23.847
57.0, -206.9305344983004, -85.690457734745, -122.42749499948695, -152.58417829219252, 0.12800000607967377, 0.12800000607967377, 1.0240000486373901, 0.0, 0.0, 0.0, 0.0, 0.0, 1.6518367438479905E9, 0.0, 2022-05-06 12:32:23.847
58.0, -271.87015732889995, -214.46643290901557, -207.65233518974856, -199.21325093973428, 0.12800000607967377, 0.12800000607967377, 1.0240000486373901, 0.0, 0.0, 0.0, 0.0, 0.0, 1.651836743849048E9, 0.0, 2022-05-06 12:32:23.849
58.0, -302.09976867074147, -215.84271609270945, -232.7246244926937, -219.8799380948767, 0.12800000607967377, 0.12800000607967377, 1.0240000486373901, 0.0, 0.0, 0.0, 0.0, 0.0, 1.651836743849048E9, 0.0, 2022-05-06 12:32:23.849
59.0, -240.84768719645217, -87.56788751250133, -150.25983046973124, -167.3380836173892, 0.12800000607967377, 0.12800000607967377, 1.0240000486373901, 0.0, 0.0, 0.0, 0.0, 0.0, 1.6518367438499956E9, 0.0, 2022-05-06 12:32:23.849
59.0, -208.5237318794243, -87.79228150984272, -120.68096172017977, -144.9211232829839, 0.12800000607967377, 0.12800000607967377, 1.0240000486373901, 0.0, 0.0, 0.0, 0.0, 0.0, 1.6518367438499956E9, 0.0, 2022-05-06 12:32:23.849
60.0, -276.91154246916994, -216.99834517901763, -205.9282413101755, -186.40409359149635, 0.12800000607967377, 0.12800000607967377, 1.0240000486373901, 0.0, 0.0, 0.0, 0.0, 0.0, 1.6518367438600652E9, 0.0, 2022-05-06 12:32:23.860
60.0, -299.1639472055249, -216.37004198646173, -234.81148866796866, -221.46565567608923, 0.12800000607967377, 0.12800000607967377, 1.0240000486373901, 0.0, 0.0, 0.0, 0.0, 0.0, 1.6518367438600652E9, 0.0, 2022-05-06 12:32:23.860
61.0, -231.81208890350536, -81.03802218986675, -146.17959961807355, -172.24109245929867, 0.12800000607967377, 0.12800000607967377, 1.0240000486373901, 0.0, 0.0, 0.0, 0.0, 0.0, 1.6518367438750405E9, 0.0, 2022-05-06 12:32:23.875
61.0, -203.32527094101533, -81.26615608716384, -113.88182360073552, -136.7681413795799, 0.12800000607967377, 0.12800000607967377, 1.0240000486373901, 0.0, 0.0, 0.0, 0.0, 0.0, 1.6518367438750405E9, 0.0, 2022-05-06 12:32:23.875
62.0, -284.7167136766948, -235.2789761624299, -224.95685228472576, -224.34911854192615, 0.12800000607967377, 0.12800000607967377, 1.0240000486373901, 0.0, 0.0, 0.0, 0.0, 0.0, 1.6518367438910449E9, 0.0, 2022-05-06 12:32:23.891
62.0, -302.8215693621896, -225.39442057954147, -246.9474640241824, -230.9201227640733, 0.12800000607967377, 0.12800000607967377, 1.0240000486373901, 0.0, 0.0, 0.0, 0.0, 0.0, 1.6518367438910449E9, 0.0, 2022-05-06 12:32:23.891
63.0, -241.03094229428098, -87.10413991799578, -152.71320484066382, -173.21346644777805, 0.12800000607967377, 0.12800000607967377, 1.0240000486373901, 0.0, 0.0, 0.0, 0.0, 0.0, 1.651836743891997E9, 0.0, 2022-05-06 12:32:23.891
63.0, -200.4118888755329, -88.1737513053231, -125.5203922628425, -157.0720582390204, 0.12800000607967377, 0.12800000607967377, 1.0240000486373901, 0.0, 0.0, 0.0, 0.0, 0.0, 1.651836743891997E9, 0.0, 2022-05-06 12:32:23.891
64.0, -283.6994608887471, -223.0495033073239, -212.13273533666506, -212.67689078021795, 0.12800000607967377, 0.12800000607967377, 1.0240000486373901, 0.0, 0.0, 0.0, 0.0, 0.0, 1.6518367439050589E9, 0.0, 2022-05-06 12:32:23.905
64.0, -290.05729081341997, -211.05190424947068, -226.30321626877412, -207.79632133804262, 0.12800000607967377, 0.12800000607967377, 1.0240000486373901, 0.0, 0.0, 0.0, 0.0, 0.0, 1.6518367439050589E9, 0.0, 2022-05-06 12:32:23.905
65.0, -228.5321966423653, -79.25035001104698, -143.28865695232525, -153.23866078443825, 0.12800000607967377, 0.12800000607967377, 1.0240000486373901, 0.0, 0.0, 0.0, 0.0, 0.0, 1.6518367439210627E9, 0.0, 2022-05-06 12:32:23.921
65.0, -210.32262375811115, -81.69250468211249, -124.69013447267935, -150.01860692258924, 0.12800000607967377, 0.12800000607967377, 1.0240000486373901, 0.0, 0.0, 0.0, 0.0, 0.0, 1.6518367439210627E9, 0.0, 2022-05-06 12:32:23.921
66.0, -283.35165019286796, -233.71195808099583, -217.3835548744537, -214.85351255442947, 0.12800000607967377, 0.12800000607967377, 1.0240000486373901, 0.0, 0.0, 0.0, 0.0, 0.0, 1.6518367439220135E9, 0.0, 2022-05-06 12:32:23.922
66.0, -306.2847167211585, -226.76696386327967, -245.8404536372982, -223.7021158495918, 0.12800000607967377, 0.12800000607967377, 1.0240000486373901, 0.0, 0.0, 0.0, 0.0, 0.0, 1.6518367439220135E9, 0.0, 2022-05-06 12:32:23.922
67.0, -238.00162333017215, -89.2807616922073, -153.37516713282093, -173.87168883997947, 0.12800000607967377, 0.12800000607967377, 1.0240000486373901, 0.0, 0.0, 0.0, 0.0, 0.0, 1.6518367439350345E9, 0.0, 2022-05-06 12:32:23.935
67.0, -209.51854526763782, -86.6890110229142, -122.54717179806903, -154.67478236742318, 0.12800000607967377, 0.12800000607967377, 1.0240000486373901, 0.0, 0.0, 0.0, 0.0, 0.0, 1.6518367439350345E9, 0.0, 2022-05-06 12:32:23.935
68.0, -270.4452554457821, -218.69625975890085, -209.17447447171435, -203.727310186252, 0.12800000607967377, 0.12800000607967377, 1.0240000486373901, 0.0, 0.0, 0.0, 0.0, 0.0, 1.651836743951064E9, 0.0, 2022-05-06 12:32:23.951
68.0, -295.5736432480626, -214.967579503078, -234.84514776756987, -214.56554025784135, 0.12800000607967377, 0.12800000607967377, 1.0240000486373901, 0.0, 0.0, 0.0, 0.0, 0.0, 1.651836743951064E9, 0.0, 2022-05-06 12:32:23.951
69.0, -227.78421665122733, -76.04899564897642, -136.8597689284943, -153.99038067553192, 0.12800000607967377, 0.12800000607967377, 1.0240000486373901, 0.0, 0.0, 0.0, 0.0, 0.0, 1.651836743952024E9, 0.0, 2022-05-06 12:32:23.952
69.0, -205.94694080995396, -82.4292649733834, -120.44908792292699, -143.70565579738468, 0.12800000607967377, 0.12800000607967377, 1.0240000486373901, 0.0, 0.0, 0.0, 0.0, 0.0, 1.651836743952024E9, 0.0, 2022-05-06 12:32:23.952
70.0, -274.06173870293424, -220.7494648345746, -209.80277766427025, -204.0265021827072, 0.12800000607967377, 0.12800000607967377, 1.0240000486373901, 0.0, 0.0, 0.0, 0.0, 0.0, 1.6518367439650443E9, 0.0, 2022-05-06 12:32:23.965
70.0, -295.5287644485943, -225.06156948348507, -232.9041396905668, -213.0284413760528, 0.12800000607967377, 0.12800000607967377, 1.0240000486373901, 0.0, 0.0, 0.0, 0.0, 0.0, 1.6518367439650443E9, 0.0, 2022-05-06 12:32:23.965
71.0, -229.87482072645798, -81.9094188795425, -142.9333664565347, -157.10571733862162, 0.12800000607967377, 0.12800000607967377, 1.0240000486373901, 0.0, 0.0, 0.0, 0.0, 0.0, 1.6518367439810977E9, 0.0, 2022-05-06 12:32:23.981
71.0, -203.2654325417243, -68.93570593325421, -106.44690248882398, -133.70142341591418, 0.12800000607967377, 0.12800000607967377, 1.0240000486373901, 0.0, 0.0, 0.0, 0.0, 0.0, 1.6518367439810977E9, 0.0, 2022-05-06 12:32:23.981
72.0, -269.0053939628415, -216.07832978991792, -209.82895696396008, -204.44537097774446, 0.12800000607967377, 0.12800000607967377, 1.0240000486373901, 0.0, 0.0, 0.0, 0.0, 0.0, 1.6518367439819927E9, 0.0, 2022-05-06 12:32:23.981
72.0, -305.4170599314384, -228.92114623775706, -237.85576723190024, -215.51921474654227, 0.12800000607967377, 0.12800000607967377, 1.0240000486373901, 0.0, 0.0, 0.0, 0.0, 0.0, 1.6518367439819927E9, 0.0, 2022-05-06 12:32:23.981
73.0, -228.04600964812562, -78.26675632270053, -142.03953036712483, -154.09135797433555, 0.12800000607967377, 0.12800000607967377, 1.0240000486373901, 0.0, 0.0, 0.0, 0.0, 0.0, 1.6518367439950993E9, 0.0, 2022-05-06 12:32:23.995
73.0, -201.7058942602016, -76.77079634042457, -116.45113487029448, -149.87275082431734, 0.12800000607967377, 0.12800000607967377, 1.0240000486373901, 0.0, 0.0, 0.0, 0.0, 0.0, 1.6518367439950993E9, 0.0, 2022-05-06 12:32:23.995
74.0, -262.5540665392764, -225.99654447240755, -207.1960673951544, -206.51353565324098, 0.12800000607967377, 0.12800000607967377, 1.0240000486373901, 0.0, 0.0, 0.0, 0.0, 0.0, 1.651836744011076E9, 0.0, 2022-05-06 12:32:24.011
74.0, -293.10156937735155, -231.29598270962015, -244.23229665635154, -230.93508236389607, 0.12800000607967377, 0.12800000607967377, 1.0240000486373901, 0.0, 0.0, 0.0, 0.0, 0.0, 1.651836744011076E9, 0.0, 2022-05-06 12:32:24.011
75.0, -242.45584417739883, -85.79891483346, -136.43716023350134, -150.35893781855702, 0.12800000607967377, 0.12800000607967377, 1.0240000486373901, 0.0, 0.0, 0.0, 0.0, 0.0, 1.6518367440119977E9, 0.0, 2022-05-06 12:32:24.011
75.0, -207.68973418930545, -78.38643312128261, -126.57130415039137, -146.83221216034144, 0.12800000607967377, 0.12800000607967377, 1.0240000486373901, 0.0, 0.0, 0.0, 0.0, 0.0, 1.6518367440119977E9, 0.0, 2022-05-06 12:32:24.011
76.0, -272.1057710261084, -219.6087953480892, -214.376675310079, -217.5499804224819, 0.12800000607967377, 0.12800000607967377, 1.0240000486373901, 0.0, 0.0, 0.0, 0.0, 0.0, 1.651836744025064E9, 0.0, 2022-05-06 12:32:24.025
76.0, -303.2441780571826, -231.36704080877826, -248.1367522100918, -236.8553439937532, 0.12800000607967377, 0.12800000607967377, 1.0240000486373901, 0.0, 0.0, 0.0, 0.0, 0.0, 1.651836744025064E9, 0.0, 2022-05-06 12:32:24.025
77.0, -229.03334323642775, -86.15046542929485, -147.52222370216623, -166.0777373323217, 0.12800000607967377, 0.12800000607967377, 1.0240000486373901, 0.0, 0.0, 0.0, 0.0, 0.0, 1.6518367440410671E9, 0.0, 2022-05-06 12:32:24.041
77.0, -205.4906730153598, -82.51902257231995, -113.45173510583118, -133.83231991436332, 0.12800000607967377, 0.12800000607967377, 1.0240000486373901, 0.0, 0.0, 0.0, 0.0, 0.0, 1.6518367440410671E9, 0.0, 2022-05-06 12:32:24.041
78.0, -264.6671100142412, -215.33408969873562, -205.0792840202339, -194.2055248990655, 0.12800000607967377, 0.12800000607967377, 1.0240000486373901, 0.0, 0.0, 0.0, 0.0, 0.0, 1.6518367440420284E9, 0.0, 2022-05-06 12:32:24.042
78.0, -300.7870637862943, -227.55982265388593, -242.27258907957003, -232.8162520416081, 0.12800000607967377, 0.12800000607967377, 1.0240000486373901, 0.0, 0.0, 0.0, 0.0, 0.0, 1.6518367440420284E9, 0.0, 2022-05-06 12:32:24.042
79.0, -223.43845290271565, -76.31078864587471, -143.91696014488116, -158.8485107179731, 0.12800000607967377, 0.12800000607967377, 1.0240000486373901, 0.0, 0.0, 0.0, 0.0, 0.0, 1.65183674405505E9, 0.0, 2022-05-06 12:32:24.055
79.0, -193.68754875520244, -76.59128114255145, -108.01018067030236, -135.6910501923412, 0.12800000607967377, 0.12800000607967377, 1.0240000486373901, 0.0, 0.0, 0.0, 0.0, 0.0, 1.65183674405505E9, 0.0, 2022-05-06 12:32:24.055
80.0, -269.1063712616451, -216.64679458318278, -207.73087308881804, -193.26307011023164, 0.12800000607967377, 0.12800000607967377, 1.0240000486373901, 0.0, 0.0, 0.0, 0.0, 0.0, 1.6518367440710793E9, 0.0, 2022-05-06 12:32:24.071
80.0, -297.8736817208119, -226.93151946133003, -237.52665603579953, -225.45986882876605, 0.12800000607967377, 0.12800000607967377, 1.0240000486373901, 0.0, 0.0, 0.0, 0.0, 0.0, 1.6518367440710793E9, 0.0, 2022-05-06 12:32:24.071
81.0, -220.77190423430875, -74.39969976851717, -136.64659463101998, -151.0395996104926, 0.12800000607967377, 0.12800000607967377, 1.0240000486373901, 0.0, 0.0, 0.0, 0.0, 0.0, 1.65183674407205E9, 0.0, 2022-05-06 12:32:24.072
81.0, -202.2294802539982, -79.66547890612856, -122.12456310307607, -149.79421292524785, 0.12800000607967377, 0.12800000607967377, 1.0240000486373901, 0.0, 0.0, 0.0, 0.0, 0.0, 1.65183674407205E9, 0.0, 2022-05-06 12:32:24.072
82.0, -275.1575293899514, -227.6084413533099, -217.67152717104182, -204.66976497508585, 0.12800000607967377, 0.12800000607967377, 1.0240000486373901, 0.0, 0.0, 0.0, 0.0, 0.0, 1.651836744085083E9, 0.0, 2022-05-06 12:32:24.085
82.0, -296.65447433525696, -221.76671762252226, -236.45704464847222, -212.953643376939, 0.12800000607967377, 0.12800000607967377, 1.0240000486373901, 0.0, 0.0, 0.0, 0.0, 0.0, 1.651836744085083E9, 0.0, 2022-05-06 12:32:24.085
83.0, -224.0143974958919, -77.36170053342357, -138.21735261240974, -161.78807208314538, 0.12800000607967377, 0.12800000607967377, 1.0240000486373901, 0.0, 0.0, 0.0, 0.0, 0.0, 1.6518367441010644E9, 0.0, 2022-05-06 12:32:24.101
83.0, -204.51081922696903, -79.48970360821113, -116.80268546612933, -147.8457250483334, 0.12800000607967377, 0.12800000607967377, 1.0240000486373901, 0.0, 0.0, 0.0, 0.0, 0.0, 1.6518367441010644E9, 0.0, 2022-05-06 12:32:24.101
84.0, -269.9216694519855, -221.2356518288143, -201.67971496051177, -187.3091493807733, 0.12800000607967377, 0.12800000607967377, 1.0240000486373901, 0.0, 0.0, 0.0, 0.0, 0.0, 1.6518367441020484E9, 0.0, 2022-05-06 12:32:24.102
84.0, -281.87812961032614, -217.9744590674527, -236.13915315223858, -210.5825468050316, 0.12800000607967377, 0.12800000607967377, 1.0240000486373901, 0.0, 0.0, 0.0, 0.0, 0.0, 1.6518367441020484E9, 0.0, 2022-05-06 12:32:24.102
85.0, -217.0806229780428, -78.41261242097244, -135.29275084706023, -158.50070002209395, 0.12800000607967377, 0.12800000607967377, 1.0240000486373901, 0.0, 0.0, 0.0, 0.0, 0.0, 1.6518367441150377E9, 0.0, 2022-05-06 12:32:24.115
85.0, -202.14346255501732, -77.86658702744171, -103.63449772214517, -127.50814908929169, 0.12800000607967377, 0.12800000607967377, 1.0240000486373901, 0.0, 0.0, 0.0, 0.0, 0.0, 1.6518367441150377E9, 0.0, 2022-05-06 12:32:24.115
86.0, -263.1748899319209, -213.6399150188081, -198.4858403983526, -181.40010745078325, 0.12800000607967377, 0.12800000607967377, 1.0240000486373901, 0.0, 0.0, 0.0, 0.0, 0.0, 1.6518367441311293E9, 0.0, 2022-05-06 12:32:24.131
86.0, -309.0485027884133, -228.96976493718103, -246.37525933096185, -249.73555944114923, 0.12800000607967377, 0.12800000607967377, 1.0240000486373901, 0.0, 0.0, 0.0, 0.0, 0.0, 1.6518367441311293E9, 0.0, 2022-05-06 12:32:24.131
87.0, -229.96831822535023, -78.5734281190671, -143.48313175002113, -165.4868331393227, 0.12800000607967377, 0.12800000607967377, 1.0240000486373901, 0.0, 0.0, 0.0, 0.0, 0.0, 1.6518367441320505E9, 0.0, 2022-05-06 12:32:24.132
87.0, -207.28208509413525, -82.3918659738265, -122.25171970156953, -155.27690626028925, 0.12800000607967377, 0.12800000607967377, 1.0240000486373901, 0.0, 0.0, 0.0, 0.0, 0.0, 1.6518367441320505E9, 0.0, 2022-05-06 12:32:24.132
88.0, -277.3378910641186, -221.44508622633293, -215.17701390059665, -207.68038443941623, 0.12800000607967377, 0.12800000607967377, 1.0240000486373901, 0.0, 0.0, 0.0, 0.0, 0.0, 1.6518367441450431E9, 0.0, 2022-05-06 12:32:24.145
88.0, -296.1608075411059, -223.95455909660086, -239.28814891492948, -223.47024205233902, 0.12800000607967377, 0.12800000607967377, 1.0240000486373901, 0.0, 0.0, 0.0, 0.0, 0.0, 1.6518367441450431E9, 0.0, 2022-05-06 12:32:24.145
89.0, -231.43061910802498, -87.93439770815894, -146.26561731705442, -159.6301498087123, 0.12800000607967377, 0.12800000607967377, 1.0240000486373901, 0.0, 0.0, 0.0, 0.0, 0.0, 1.651836744161034E9, 0.0, 2022-05-06 12:32:24.161
89.0, -197.19931481359527, -76.18737194733694, -115.16086938558146, -138.50345495902002, 0.12800000607967377, 0.12800000607967377, 1.0240000486373901, 0.0, 0.0, 0.0, 0.0, 0.0, 1.651836744161034E9, 0.0, 2022-05-06 12:32:24.161
90.0, -270.69208884285763, -218.70373955881223, -206.38824900472537, -198.80934174451977, 0.12800000607967377, 0.12800000607967377, 1.0240000486373901, 0.0, 0.0, 0.0, 0.0, 0.0, 1.6518367441619792E9, 0.0, 2022-05-06 12:32:24.161
90.0, -293.76353166950867, -217.8248630692251, -236.82729474408552, -213.653004668653, 0.12800000607967377, 0.12800000607967377, 1.0240000486373901, 0.0, 0.0, 0.0, 0.0, 0.0, 1.6518367441619792E9, 0.0, 2022-05-06 12:32:24.161
91.0, -225.2036856818013, -81.12777978880331, -144.6798997358419, -159.84332410618663, 0.12800000607967377, 0.12800000607967377, 1.0240000486373901, 0.0, 0.0, 0.0, 0.0, 0.0, 1.6518367441750495E9, 0.0, 2022-05-06 12:32:24.175
91.0, -202.6707884487696, -81.1689186883159, -118.61653694463894, -144.1058250926435, 0.12800000607967377, 0.12800000607967377, 1.0240000486373901, 0.0, 0.0, 0.0, 0.0, 0.0, 1.6518367441750495E9, 0.0, 2022-05-06 12:32:24.175
92.0, -263.077652533073, -212.97795272665098, -205.27749871788546, -195.91465917881578, 0.12800000607967377, 0.12800000607967377, 1.0240000486373901, 0.0, 0.0, 0.0, 0.0, 0.0, 1.6518367441910477E9, 0.0, 2022-05-06 12:32:24.191
92.0, -297.95221961988136, -219.83318934543058, -238.71594422170892, -213.97463606484234, 0.12800000607967377, 0.12800000607967377, 1.0240000486373901, 0.0, 0.0, 0.0, 0.0, 0.0, 1.6518367441910477E9, 0.0, 2022-05-06 12:32:24.191
93.0, -220.1959596411325, -70.03149662027135, -130.9320274987258, -139.37859154865146, 0.12800000607967377, 0.12800000607967377, 1.0240000486373901, 0.0, 0.0, 0.0, 0.0, 0.0, 1.651836744191995E9, 0.0, 2022-05-06 12:32:24.191
93.0, -207.79819128802046, -80.73135039350018, -118.44076164672151, -149.87649072427303, 0.12800000607967377, 0.12800000607967377, 1.0240000486373901, 0.0, 0.0, 0.0, 0.0, 0.0, 1.651836744191995E9, 0.0, 2022-05-06 12:32:24.191
94.0, -284.05849128449336, -236.3186683501117, -226.61736786505207, -225.97597502265126, 0.12800000607967377, 0.12800000607967377, 1.0240000486373901, 0.0, 0.0, 0.0, 0.0, 0.0, 1.651836744205094E9, 0.0, 2022-05-06 12:32:24.205
94.0, -308.6109344935976, -243.38707926636562, -251.9888491644524, -238.97212736867368, 0.12800000607967377, 0.12800000607967377, 1.0240000486373901, 0.0, 0.0, 0.0, 0.0, 0.0, 1.651836744205094E9, 0.0, 2022-05-06 12:32:24.205
95.0, -228.39382034400478, -90.95623687235638, -150.96667156135663, -169.83633678779006, 0.12800000607967377, 0.12800000607967377, 1.0240000486373901, 0.0, 0.0, 0.0, 0.0, 0.0, 1.6518367442210808E9, 0.0, 2022-05-06 12:32:24.221
95.0, -194.51032674545422, -80.28256239881739, -111.53690632851794, -133.18905712198466, 0.12800000607967377, 0.12800000607967377, 1.0240000486373901, 0.0, 0.0, 0.0, 0.0, 0.0, 1.6518367442210808E9, 0.0, 2022-05-06 12:32:24.221
96.0, -255.8820850183256, -213.4529200210236, -193.83340485347435, -177.94817979168147, 0.12800000607967377, 0.12800000607967377, 1.0240000486373901, 0.0, 0.0, 0.0, 0.0, 0.0, 1.6518367442220159E9, 0.0, 2022-05-06 12:32:24.222
96.0, -276.76568637089804, -205.2251401185058, -211.14914164831862, -190.74237754009664, 0.12800000607967377, 0.12800000607967377, 1.0240000486373901, 0.0, 0.0, 0.0, 0.0, 0.0, 1.6518367442220159E9, 0.0, 2022-05-06 12:32:24.222
97.0, -216.37004198646173, -68.16528654238209, -135.23665234772488, -139.9582760417834, 0.12800000607967377, 0.12800000607967377, 1.0240000486373901, 0.0, 0.0, 0.0, 0.0, 0.0, 1.6518367442350438E9, 0.0, 2022-05-06 12:32:24.235
97.0, -201.67597506055608, -78.4612311203964, -125.93926105787978, -162.9661405691877, 0.12800000607967377, 0.12800000607967377, 1.0240000486373901, 0.0, 0.0, 0.0, 0.0, 0.0, 1.6518367442350438E9, 0.0, 2022-05-06 12:32:24.235
98.0, -269.7683335538022, -220.50637133745477, -204.05081153241917, -216.22605583816767, 0.12800000607967377, 0.12800000607967377, 1.0240000486373901, 0.0, 0.0, 0.0, 0.0, 0.0, 1.6518367442510607E9, 0.0, 2022-05-06 12:32:24.251
98.0, -292.6490414827131, -222.7203921112232, -237.29478223854676, -225.37385112978518, 0.12800000607967377, 0.12800000607967377, 1.0240000486373901, 0.0, 0.0, 0.0, 0.0, 0.0, 1.6518367442510607E9, 0.0, 2022-05-06 12:32:24.251
99.0, -237.3508807378821, -92.62423225259408, -149.07428218377754, -172.29345105867833, 0.12800000607967377, 0.12800000607967377, 1.0240000486373901, 0.0, 0.0, 0.0, 0.0, 0.0, 1.6518367442519798E9, 0.0, 2022-05-06 12:32:24.251
99.0, -208.98373957397416, -83.21090406412259, -112.93936881190166, -147.67368965037167, 0.12800000607967377, 0.12800000607967377, 1.0240000486373901, 0.0, 0.0, 0.0, 0.0, 0.0, 1.6518367442519798E9, 0.0, 2022-05-06 12:32:24.251
100.0, -270.7107883426361, -218.13527476554736, -203.13827594323084, -191.123847335577, 0.12800000607967377, 0.12800000607967377, 1.0240000486373901, 0.0, 0.0, 0.0, 0.0, 0.0, 1.6518367442660475E9, 0.0, 2022-05-06 12:32:24.266
100.0, -292.28627118701115, -215.2368522998877, -231.10150791192427, -206.00490925926715, 0.12800000607967377, 0.12800000607967377, 1.0240000486373901, 0.0, 0.0, 0.0, 0.0, 0.0, 1.6518367442660475E9, 0.0, 2022-05-06 12:32:24.266
0.0, -230.1253940234892, -81.41388213541359, -141.35138877527788, -165.99545953329653, 0.12800000607967377, 0.12800000607967377, 1.0240000486373901, 0.0, 0.0, 0.0, 0.0, 0.0, 1.6518367442670248E9, 0.0, 2022-05-06 12:32:24.267
1.0, -194.76090004248545, -69.58083867561072, -116.08836457459256, -131.2891879444942, 0.12800000607967377, 0.12800000607967377, 1.0240000486373901, 0.0, 0.0, 0.0, 0.0, 0.0, 1.6518367442800505E9, 0.0, 2022-05-06 12:32:24.280
1.0, -270.8416848410852, -219.78644059598446, -211.21271994756535, -207.71778343897313, 0.12800000607967377, 0.12800000607967377, 1.0240000486373901, 0.0, 0.0, 0.0, 0.0, 0.0, 1.6518367442800505E9, 0.0, 2022-05-06 12:32:24.280
2.0, -291.0371446018107, -219.8425390953198, -233.63716008188203, -217.35176572483033, 0.12800000607967377, 0.12800000607967377, 1.0240000486373901, 0.0, 0.0, 0.0, 0.0, 0.0, 1.6518367442960477E9, 0.0, 2022-05-06 12:32:24.296
2.0, -212.74233902944252, -73.39553663041443, -130.7113734013401, -149.08737183362246, 0.12800000607967377, 0.12800000607967377, 1.0240000486373901, 0.0, 0.0, 0.0, 0.0, 0.0, 1.6518367442960477E9, 0.0, 2022-05-06 12:32:24.296
3.0, -201.44036136334762, -80.32183134835213, -113.37693710671738, -134.35216600820422, 0.12800000607967377, 0.12800000607967377, 1.0240000486373901, 0.0, 0.0, 0.0, 0.0, 0.0, 1.6518367442969851E9, 0.0, 2022-05-06 12:32:24.296
3.0, -275.7521734829061, -227.28120010718703, -230.6489800172858, -216.25971493776888, 0.12800000607967377, 0.12800000607967377, 1.0240000486373901, 0.0, 0.0, 0.0, 0.0, 0.0, 1.6518367442969851E9, 0.0, 2022-05-06 12:32:24.296
4.0, -290.80527080455795, -221.85460527148098, -246.43883763020858, -214.30748716089875, 0.12800000607967377, 0.12800000607967377, 1.0240000486373901, 0.0, 0.0, 0.0, 0.0, 0.0, 1.6518367443101108E9, 0.0, 2022-05-06 12:32:24.310
4.0, -222.2304652170278, -79.87304335366935, -140.3116965875961, -154.24469387251884, 0.12800000607967377, 0.12800000607967377, 1.0240000486373901, 0.0, 0.0, 0.0, 0.0, 0.0, 1.6518367443101108E9, 0.0, 2022-05-06 12:32:24.310
5.0, -186.06189274555072, -70.74020766187459, -111.77999982563779, -131.06853384710848, 0.12800000607967377, 0.12800000607967377, 1.0240000486373901, 0.0, 0.0, 0.0, 0.0, 0.0, 1.651836744326055E9, 0.0, 2022-05-06 12:32:24.326
5.0, -272.6368368198164, -223.64227745030075, -217.1180219775997, -213.9895956646651, 0.12800000607967377, 0.12800000607967377, 1.0240000486373901, 0.0, 0.0, 0.0, 0.0, 0.0, 1.651836744326055E9, 0.0, 2022-05-06 12:32:24.326
6.0, -302.03619037149474, -222.72226206120104, -236.15411275206134, -219.7004228970036, 0.12800000607967377, 0.12800000607967377, 1.0240000486373901, 0.0, 0.0, 0.0, 0.0, 0.0, 1.651836744326988E9, 0.0, 2022-05-06 12:32:24.326
6.0, -216.63183498336002, -74.184655521065, -138.419307210017, -151.06577891018242, 0.12800000607967377, 0.12800000607967377, 1.0240000486373901, 0.0, 0.0, 0.0, 0.0, 0.0, 1.651836744326988E9, 0.0, 2022-05-06 12:32:24.326
7.0, -203.70300083654, -77.78243927843869, -111.13299713330343, -139.13175815157592, 0.12800000607967377, 0.12800000607967377, 1.0240000486373901, 0.0, 0.0, 0.0, 0.0, 0.0, 1.6518367443400772E9, 0.0, 2022-05-06 12:32:24.340
7.0, -271.9599149278365, -220.67653678543866, -211.80362414056435, -198.21095775160939, 0.12800000607967377, 0.12800000607967377, 1.0240000486373901, 0.0, 0.0, 0.0, 0.0, 0.0, 1.6518367443400772E9, 0.0, 2022-05-06 12:32:24.340
8.0, -300.4990914897062, -222.86063835956156, -238.82066142046824, -220.79247368406504, 0.12800000607967377, 0.12800000607967377, 1.0240000486373901, 0.0, 0.0, 0.0, 0.0, 0.0, 1.6518367443560624E9, 0.0, 2022-05-06 12:32:24.356
8.0, -213.38560182182118, -69.9959675706923, -130.1952672074549, -156.76912634260952, 0.12800000607967377, 0.12800000607967377, 1.0240000486373901, 0.0, 0.0, 0.0, 0.0, 0.0, 1.6518367443560624E9, 0.0, 2022-05-06 12:32:24.356
9.0, -208.25445908261463, -86.24209297820926, -127.44270084006712, -150.06348572205752, 0.12800000607967377, 0.12800000607967377, 1.0240000486373901, 0.0, 0.0, 0.0, 0.0, 0.0, 1.6518367443570273E9, 0.0, 2022-05-06 12:32:24.357
9.0, -279.75760633544996, -224.16960334405303, -218.43820666195825, -208.0955133344978, 0.12800000607967377, 0.12800000607967377, 1.0240000486373901, 0.0, 0.0, 0.0, 0.0, 0.0, 1.6518367443570273E9, 0.0, 2022-05-06 12:32:24.357
10.0, -292.2413923875429, -220.38856448885053, -242.26884917961434, -219.50220819935203, 0.12800000607967377, 0.12800000607967377, 1.0240000486373901, 0.0, 0.0, 0.0, 0.0, 0.0, 1.651836744370076E9, 0.0, 2022-05-06 12:32:24.370
10.0, -226.63606736483052, -77.21397448517382, -149.41087317978963, -155.9276488525793, 0.12800000607967377, 0.12800000607967377, 1.0240000486373901, 0.0, 0.0, 0.0, 0.0, 0.0, 1.651836744370076E9, 0.0, 2022-05-06 12:32:24.370
11.0, -202.5548515501432, -81.81031153071672, -111.85479782475159, -140.04055384080857, 0.12800000607967377, 0.12800000607967377, 1.0240000486373901, 0.0, 0.0, 0.0, 0.0, 0.0, 1.6518367443860352E9, 0.0, 2022-05-06 12:32:24.386
11.0, -270.0413462505676, -218.3951978124678, -197.93981500482187, -191.13506703544408, 0.12800000607967377, 0.12800000607967377, 1.0240000486373901, 0.0, 0.0, 0.0, 0.0, 0.0, 1.6518367443860352E9, 0.0, 2022-05-06 12:32:24.386
12.0, -289.6758210179396, -219.00106160528958, -235.07702156482264, -201.21783731598407, 0.12800000607967377, 0.12800000607967377, 1.0240000486373901, 0.0, 0.0, 0.0, 0.0, 0.0, 1.6518367443869865E9, 0.0, 2022-05-06 12:32:24.386
12.0, -236.48322394816205, -81.15956893842667, -150.20747187035158, -172.91053455136716, 0.12800000607967377, 0.12800000607967377, 1.0240000486373901, 0.0, 0.0, 0.0, 0.0, 0.0, 1.6518367443869865E9, 0.0, 2022-05-06 12:32:24.386
13.0, -212.25615203520283, -88.17562125530094, -132.33075008215383, -161.46270078700036, 0.12800000607967377, 0.12800000607967377, 1.0240000486373901, 0.0, 0.0, 0.0, 0.0, 0.0, 1.6518367444000487E9, 0.0, 2022-05-06 12:32:24.400
13.0, -274.1440165019594, -224.00878764595836, -220.7532047345303, -212.27298158500344, 0.12800000607967377, 0.12800000607967377, 1.0240000486373901, 0.0, 0.0, 0.0, 0.0, 0.0, 1.6518367444000487E9, 0.0, 2022-05-06 12:32:24.400
14.0, -303.2292184573598, -230.79296616557986, -245.66467833938077, -234.1102574262768, 0.12800000607967377, 0.12800000607967377, 1.0240000486373901, 0.0, 0.0, 0.0, 0.0, 0.0, 1.6518367444320903E9, 0.0, 2022-05-06 12:32:24.432
14.0, -238.29707542667165, -87.75301256030798, -146.0187839199789, -153.8557442771271, 0.12800000607967377, 0.12800000607967377, 1.0240000486373901, 0.0, 0.0, 0.0, 0.0, 0.0, 1.6518367444320903E9, 0.0, 2022-05-06 12:32:24.432
15.0, -207.4167214925401, -82.47227382287383, -110.24290094384924, -126.70781049877405, 0.12800000607967377, 0.12800000607967377, 1.0240000486373901, 0.0, 0.0, 0.0, 0.0, 0.0, 1.6518367444329915E9, 0.0, 2022-05-06 12:32:24.432
15.0, -284.2941049817018, -236.27939940057695, -229.9010000261478, -223.144870756194, 0.12800000607967377, 0.12800000607967377, 1.0240000486373901, 0.0, 0.0, 0.0, 0.0, 0.0, 1.6518367444329915E9, 0.0, 2022-05-06 12:32:24.432
16.0, -305.11412803502753, -229.39424358215183, -248.42472450667992, -237.0797379910946, 0.12800000607967377, 0.12800000607967377, 1.0240000486373901, 0.0, 0.0, 0.0, 0.0, 0.0, 1.6518367444340124E9, 0.0, 2022-05-06 12:32:24.434
16.0, -223.47211200231686, -81.29046543687582, -147.29782970482484, -153.01800668705255, 0.12800000607967377, 0.12800000607967377, 1.0240000486373901, 0.0, 0.0, 0.0, 0.0, 0.0, 1.6518367444340124E9, 0.0, 2022-05-06 12:32:24.434
17.0, -206.9267945983447, -85.69980748463422, -124.58167737396434, -150.17568272072822, 0.12800000607967377, 0.12800000607967377, 1.0240000486373901, 0.0, 0.0, 0.0, 0.0, 0.0, 1.6518367444349973E9, 0.0, 2022-05-06 12:32:24.434
17.0, -261.6564905499108, -222.71104236133397, -211.77744484087452, -202.19395120441914, 0.12800000607967377, 0.12800000607967377, 1.0240000486373901, 0.0, 0.0, 0.0, 0.0, 0.0, 1.6518367444349973E9, 0.0, 2022-05-06 12:32:24.434
18.0, -307.6385605051182, -224.89888383541256, -232.9415386901237, -215.79970724321902, 0.12800000607967377, 0.12800000607967377, 1.0240000486373901, 0.0, 0.0, 0.0, 0.0, 0.0, 1.6518367444450378E9, 0.0, 2022-05-06 12:32:24.445
18.0, -247.3925121189095, -87.5996766621247, -157.11506708851084, -171.8558827638626, 0.12800000607967377, 0.12800000607967377, 1.0240000486373901, 0.0, 0.0, 0.0, 0.0, 0.0, 1.6518367444450378E9, 0.0, 2022-05-06 12:32:24.445
19.0, -219.72473224671558, -92.67846080195159, -129.66046151379123, -156.33903784770519, 0.12800000607967377, 0.12800000607967377, 1.0240000486373901, 0.0, 0.0, 0.0, 0.0, 0.0, 1.6518367444600453E9, 0.0, 2022-05-06 12:32:24.460
19.0, -285.57315076654777, -229.87669067643583, -220.43905313825235, -209.86074611358345, 0.12800000607967377, 0.12800000607967377, 1.0240000486373901, 0.0, 0.0, 0.0, 0.0, 0.0, 1.6518367444600453E9, 0.0, 2022-05-06 12:32:24.460
20.0, -303.5059710540809, -224.35285844188184, -241.60688688745722, -232.67787574324757, 0.12800000607967377, 0.12800000607967377, 1.0240000486373901, 0.0, 0.0, 0.0, 0.0, 0.0, 1.6518367444760537E9, 0.0, 2022-05-06 12:32:24.476
20.0, -222.96348560834303, -72.97666783537716, -131.90440148720518, -147.6288108509034, 0.12800000607967377, 0.12800000607967377, 1.0240000486373901, 0.0, 0.0, 0.0, 0.0, 0.0, 1.6518367444760537E9, 0.0, 2022-05-06 12:32:24.476
21.0, -205.9319812101312, -81.1483492385596, -125.92056155810133, -139.31501324940473, 0.12800000607967377, 0.12800000607967377, 1.0240000486373901, 0.0, 0.0, 0.0, 0.0, 0.0, 1.6518367444770029E9, 0.0, 2022-05-06 12:32:24.477
21.0, -275.75591338286176, -216.68980343267322, -205.82726401137188, -194.9422851903364, 0.12800000607967377, 0.12800000607967377, 1.0240000486373901, 0.0, 0.0, 0.0, 0.0, 0.0, 1.6518367444770029E9, 0.0, 2022-05-06 12:32:24.477
22.0, -303.1581603582017, -227.3335587065667, -243.5778141641058, -229.41668298188597, 0.11200000531971455, 0.12800000607967377, 1.0240000486373901, 0.0, 0.0, 0.0, 0.0, 0.0, 1.651836744490052E9, 0.0, 2022-05-06 12:32:24.490
22.0, -228.33398194471374, -79.816944854334, -147.0098574082367, -170.8573294756934, 0.11200000531971455, 0.12800000607967377, 1.0240000486373901, 0.0, 0.0, 0.0, 0.0, 0.0, 1.651836744490052E9, 0.0, 2022-05-06 12:32:24.490
23.0, -209.60830286657438, -85.0378451924771, -122.78652539523318, -153.08158498629928, 0.11200000531971455, 0.12800000607967377, 1.0240000486373901, 0.0, 0.0, 0.0, 0.0, 0.0, 1.6518367445060585E9, 0.0, 2022-05-06 12:32:24.506
23.0, -279.1480026426725, -228.11893769726157, -219.59383574826643, -206.6930508511141, 0.11200000531971455, 0.12800000607967377, 1.0240000486373901, 0.0, 0.0, 0.0, 0.0, 0.0, 1.6518367445060585E9, 0.0, 2022-05-06 12:32:24.506
24.0, -294.24971866374835, -222.41185036487877, -235.73898385697976, -216.62996503338218, 0.11200000531971455, 0.12800000607967377, 1.0240000486373901, 0.0, 0.0, 0.0, 0.0, 0.0, 1.651836744506978E9, 0.0, 2022-05-06 12:32:24.506
24.0, -227.81787575082853, -74.28189291991293, -136.06691013788804, -153.4480951819569, 0.11200000531971455, 0.12800000607967377, 1.0240000486373901, 0.0, 0.0, 0.0, 0.0, 0.0, 1.651836744506978E9, 0.0, 2022-05-06 12:32:24.506
25.0, -193.24624056043103, -73.02154663484544, -108.69084246223792, -128.25238918047398, 0.11200000531971455, 0.12800000607967377, 1.0240000486373901, 0.0, 0.0, 0.0, 0.0, 0.0, 1.6518367445200293E9, 0.0, 2022-05-06 12:32:24.520
25.0, -282.1511423070915, -222.31087306607515, -210.95092695066705, -204.93903777189553, 0.11200000531971455, 0.12800000607967377, 1.0240000486373901, 0.0, 0.0, 0.0, 0.0, 0.0, 1.6518367445200293E9, 0.0, 2022-05-06 12:32:24.520
26.0, -303.045963359531, -223.17105005588382, -238.22975722746924, -218.36901851277798, 0.11200000531971455, 0.12800000607967377, 1.0240000486373901, 0.0, 0.0, 0.0, 0.0, 0.0, 1.6518367445360787E9, 0.0, 2022-05-06 12:32:24.536
26.0, -230.1328738234006, -79.33823766000569, -138.99151190323755, -152.01197359897196, 0.11200000531971455, 0.12800000607967377, 1.0240000486373901, 0.0, 0.0, 0.0, 0.0, 0.0, 1.6518367445360787E9, 0.0, 2022-05-06 12:32:24.536
27.0, -189.8878104002215, -65.25003452692181, -100.37330496078357, -112.86270086281002, 0.11200000531971455, 0.12800000607967377, 1.0240000486373901, 0.0, 0.0, 0.0, 0.0, 0.0, 1.6518367445370162E9, 0.0, 2022-05-06 12:32:24.537
27.0, -279.91468213358894, -228.4368291934952, -219.50407814932987, -211.1697110980749, 0.11200000531971455, 0.12800000607967377, 1.0240000486373901, 0.0, 0.0, 0.0, 0.0, 0.0, 1.6518367445370162E9, 0.0, 2022-05-06 12:32:24.537
28.0, -268.4743281691335, -196.63271997030824, -204.24154643015936, -184.88195430953056, 0.11200000531971455, 0.12800000607967377, 1.0240000486373901, 0.0, 0.0, 0.0, 0.0, 0.0, 1.651836744550045E9, 0.0, 2022-05-06 12:32:24.550
28.0, -233.85033437935635, -77.97317417617887, -143.92817984474823, -157.487187134102, 0.11200000531971455, 0.12800000607967377, 1.0240000486373901, 0.0, 0.0, 0.0, 0.0, 0.0, 1.651836744550045E9, 0.0, 2022-05-06 12:32:24.550
29.0, -209.0061789737083, -79.56263165734708, -124.05435148021206, -158.39598282333463, 0.11200000531971455, 0.12800000607967377, 1.0240000486373901, 0.0, 0.0, 0.0, 0.0, 0.0, 1.6518367445661125E9, 0.0, 2022-05-06 12:32:24.566
29.0, -288.9016617271118, -234.68620201945305, -228.21804504608735, -227.8534048004076, 0.11200000531971455, 0.12800000607967377, 1.0240000486373901, 0.0, 0.0, 0.0, 0.0, 0.0, 1.6518367445661125E9, 0.0, 2022-05-06 12:32:24.566
30.0, -307.10375481145456, -224.9923813343048, -239.37790651386604, -224.09480534493923, 0.11200000531971455, 0.12800000607967377, 1.0240000486373901, 0.0, 0.0, 0.0, 0.0, 0.0, 1.6518367445669813E9, 0.0, 2022-05-06 12:32:24.566
30.0, -242.65779877500609, -86.0027393810451, -146.22821831749752, -171.99799896217883, 0.11200000531971455, 0.12800000607967377, 1.0240000486373901, 0.0, 0.0, 0.0, 0.0, 0.0, 1.6518367445669813E9, 0.0, 2022-05-06 12:32:24.566
31.0, -205.36725631682202, -82.3002384249121, -119.74972663121298, -145.89349727146327, 0.11200000531971455, 0.12800000607967377, 1.0240000486373901, 0.0, 0.0, 0.0, 0.0, 0.0, 1.6518367445800884E9, 0.0, 2022-05-06 12:32:24.580
31.0, -281.2199072181247, -226.364924618043, -212.47680613258854, -205.11107316985726, 0.11200000531971455, 0.12800000607967377, 1.0240000486373901, 0.0, 0.0, 0.0, 0.0, 0.0, 1.6518367445800884E9, 0.0, 2022-05-06 12:32:24.580
32.0, -304.7251784396358, -224.8128661364317, -240.6532123987563, -222.5502266632393, 0.12800000607967377, 0.12800000607967377, 1.0240000486373901, 0.0, 0.0, 0.0, 0.0, 0.0, 1.6518367445960674E9, 0.0, 2022-05-06 12:32:24.596
32.0, -232.81438209163025, -82.55455162189901, -145.68967272387818, -161.1186299910769, 0.12800000607967377, 0.12800000607967377, 1.0240000486373901, 0.0, 0.0, 0.0, 0.0, 0.0, 1.6518367445960674E9, 0.0, 2022-05-06 12:32:24.596
33.0, -210.6031162547879, -81.4101422354579, -124.70135417254642, -151.65668310318142, 0.12800000607967377, 0.12800000607967377, 1.0240000486373901, 0.0, 0.0, 0.0, 0.0, 0.0, 1.6518367445969815E9, 0.0, 2022-05-06 12:32:24.596
33.0, -277.28553246473894, -219.55456679873168, -210.9322274508886, -207.6579450396821, 0.12800000607967377, 0.12800000607967377, 1.0240000486373901, 0.0, 0.0, 0.0, 0.0, 0.0, 1.6518367445969815E9, 0.0, 2022-05-06 12:32:24.596
34.0, -305.24876443343237, -228.45926859322935, -240.99354329472408, -230.9650015635416, 0.12800000607967377, 0.12800000607967377, 1.0240000486373901, 0.0, 0.0, 0.0, 0.0, 0.0, 1.6518367446100807E9, 0.0, 2022-05-06 12:32:24.610
34.0, -224.22757179336622, -72.0342130465433, -131.72488628933206, -154.56258536875248, 0.12800000607967377, 0.12800000607967377, 1.0240000486373901, 0.0, 0.0, 0.0, 0.0, 0.0, 1.6518367446100807E9, 0.0, 2022-05-06 12:32:24.610
35.0, -215.73425899399444, -85.40809528809041, -122.40505559975281, -147.06408595759422, 0.12800000607967377, 0.12800000607967377, 1.0240000486373901, 0.0, 0.0, 0.0, 0.0, 0.0, 1.6518367446260412E9, 0.0, 2022-05-06 12:32:24.626
35.0, -279.17418194236234, -229.12871068529785, -219.54147714888677, -215.36961874831468, 0.12800000607967377, 0.12800000607967377, 1.0240000486373901, 0.0, 0.0, 0.0, 0.0, 0.0, 1.6518367446260412E9, 0.0, 2022-05-06 12:32:24.626
36.0, -298.10555551806465, -219.176836903207, -233.6483797817491, -210.92287770099938, 0.12800000607967377, 0.12800000607967377, 1.0240000486373901, 0.0, 0.0, 0.0, 0.0, 0.0, 1.6518367446269977E9, 0.0, 2022-05-06 12:32:24.626
36.0, -220.6821466353722, -66.9554289067164, -128.80776432389393, -135.81072699092329, 0.12800000607967377, 0.12800000607967377, 1.0240000486373901, 0.0, 0.0, 0.0, 0.0, 0.0, 1.6518367446269977E9, 0.0, 2022-05-06 12:32:24.626
37.0, -203.23177344212309, -82.59943042136729, -120.52388592204079, -136.07999978773296, 0.12800000607967377, 0.12800000607967377, 1.0240000486373901, 0.0, 0.0, 0.0, 0.0, 0.0, 1.6518367446400588E9, 0.0, 2022-05-06 12:32:24.640
37.0, -279.14052284276113, -234.9255556166172, -233.14723318768665, -237.4799072863534, 0.12800000607967377, 0.12800000607967377, 1.0240000486373901, 0.0, 0.0, 0.0, 0.0, 0.0, 1.6518367446400588E9, 0.0, 2022-05-06 12:32:24.640
38.0, -295.1884335526265, -201.8685799082741, -218.61024205991998, -201.64418591093272, 0.12800000607967377, 0.12800000607967377, 1.0240000486373901, 0.0, 0.0, 0.0, 0.0, 0.0, 1.6518367446560712E9, 0.0, 2022-05-06 12:32:24.656
38.0, -209.65692156599835, -54.71847625169903, -119.20370123768225, -128.56654077675194, 0.12800000607967377, 0.12800000607967377, 1.0240000486373901, 0.0, 0.0, 0.0, 0.0, 0.0, 1.6518367446560712E9, 0.0, 2022-05-06 12:32:24.656
39.0, -212.31973033444956, -75.37768360693008, -110.07460544584319, -149.7007154263556, 0.12800000607967377, 0.12800000607967377, 1.0240000486373901, 0.0, 0.0, 0.0, 0.0, 0.0, 1.6518367446570237E9, 0.0, 2022-05-06 12:32:24.657
39.0, -277.9587144567631, -221.1103651802987, -206.4144283044152, -195.60424748249352, 0.12800000607967377, 0.12800000607967377, 1.0240000486373901, 0.0, 0.0, 0.0, 0.0, 0.0, 1.6518367446570237E9, 0.0, 2022-05-06 12:32:24.657
40.0, -303.18807955784723, -223.19348945561796, -242.3960057781078, -225.1793763320893, 0.12800000607967377, 0.12800000607967377, 1.0240000486373901, 0.0, 0.0, 0.0, 0.0, 0.0, 1.6518367446700919E9, 0.0, 2022-05-06 12:32:24.670
40.0, -225.88808737369254, -77.99561357591301, -144.4966446380131, -172.44678695686162, 0.12800000607967377, 0.12800000607967377, 1.0240000486373901, 0.0, 0.0, 0.0, 0.0, 0.0, 1.6518367446700919E9, 0.0, 2022-05-06 12:32:24.670
41.0, -221.98363181995228, -93.37408219370991, -131.31723719416186, -163.67672156076878, 0.12800000607967377, 0.12800000607967377, 1.0240000486373901, 0.0, 0.0, 0.0, 0.0, 0.0, 1.6518367446860535E9, 0.0, 2022-05-06 12:32:24.686
41.0, -287.02423194935545, -231.406309758313, -218.11283536581323, -212.6955902799964, 0.12800000607967377, 0.12800000607967377, 1.0240000486373901, 0.0, 0.0, 0.0, 0.0, 0.0, 1.6518367446860535E9, 0.0, 2022-05-06 12:32:24.686
42.0, -303.22173865744844, -221.26370107848197, -242.3137279790826, -221.94062297046185, 0.12800000607967377, 0.12800000607967377, 1.0240000486373901, 0.0, 0.0, 0.0, 0.0, 0.0, 1.6518367446870048E9, 0.0, 2022-05-06 12:32:24.687
42.0, -232.84056139132008, -79.67482865601778, -144.24981124093756, -161.91148878168315, 0.12800000607967377, 0.12800000607967377, 1.0240000486373901, 0.0, 0.0, 0.0, 0.0, 0.0, 1.6518367446870048E9, 0.0, 2022-05-06 12:32:24.687
43.0, -198.45218129875138, -72.29974594339728, -112.03057312266901, -138.07336646411568, 0.12800000607967377, 0.12800000607967377, 1.0240000486373901, 0.0, 0.0, 0.0, 0.0, 0.0, 1.6518367447000449E9, 0.0, 2022-05-06 12:32:24.700
43.0, -272.79391261795536, -221.12158488016576, -208.97999967401847, -198.8317811442539, 0.12800000607967377, 0.12800000607967377, 1.0240000486373901, 0.0, 0.0, 0.0, 0.0, 0.0, 1.6518367447000449E9, 0.0, 2022-05-06 12:32:24.700
44.0, -294.6386682591401, -216.9141974300146, -232.11502079991624, -208.04689463507384, 0.12800000607967377, 0.12800000607967377, 1.0240000486373901, 0.0, 0.0, 0.0, 0.0, 0.0, 1.65183674471611E9, 0.0, 2022-05-06 12:32:24.716
44.0, -215.71929939417168, -71.21517495624721, -133.32930337032303, -145.16421678010374, 0.12800000607967377, 0.12800000607967377, 1.0240000486373901, 0.0, 0.0, 0.0, 0.0, 0.0, 1.65183674471611E9, 0.0, 2022-05-06 12:32:24.716
45.0, -195.5574987330474, -72.25112724397331, -107.99896097043529, -137.26928797364235, 0.12800000607967377, 0.12800000607967377, 1.0240000486373901, 0.0, 0.0, 0.0, 0.0, 0.0, 1.651836744717069E9, 0.0, 2022-05-06 12:32:24.717
45.0, -254.393604835961, -204.38553257845342, -190.34407819481567, -171.43327406886965, 0.12800000607967377, 0.12800000607967377, 1.0240000486373901, 0.0, 0.0, 0.0, 0.0, 0.0, 1.651836744717069E9, 0.0, 2022-05-06 12:32:24.717
46.0, -281.4779603150673, -209.92432441283017, -232.02526320097968, -210.56384730525315, 0.12800000607967377, 0.12800000607967377, 1.0240000486373901, 0.0, 0.0, 0.0, 0.0, 0.0, 1.65183674473005E9, 0.0, 2022-05-06 12:32:24.730
46.0, -235.85866065556183, -79.30831846036017, -143.6028085486032, -164.54063845053315, 0.12800000607967377, 0.12800000607967377, 1.0240000486373901, 0.0, 0.0, 0.0, 0.0, 0.0, 1.65183674473005E9, 0.0, 2022-05-06 12:32:24.730
47.0, -195.83051142981276, -72.1090110456571, -101.26340115023777, -113.51344345510006, 0.12800000607967377, 0.12800000607967377, 1.0240000486373901, 0.0, 0.0, 0.0, 0.0, 0.0, 1.651836744746062E9, 0.0, 2022-05-06 12:32:24.746
47.0, -259.34149247733876, -211.6184990927577, -202.62590964930132, -195.32749488577247, 0.12800000607967377, 0.12800000607967377, 1.0240000486373901, 0.0, 0.0, 0.0, 0.0, 0.0, 1.651836744746062E9, 0.0, 2022-05-06 12:32:24.746
48.0, -293.5989760714583, -210.71344330348074, -228.40877994382754, -227.49811430461705, 0.12800000607967377, 0.12800000607967377, 1.0240000486373901, 0.0, 0.0, 0.0, 0.0, 0.0, 1.6518367447470028E9, 0.0, 2022-05-06 12:32:24.747
48.0, -234.91620586672798, -86.42908797599375, -138.40434761019424, -168.77794510032982, 0.12800000607967377, 0.12800000607967377, 1.0240000486373901, 0.0, 0.0, 0.0, 0.0, 0.0, 1.6518367447470028E9, 0.0, 2022-05-06 12:32:24.747
49.0, -202.01630595652387, -80.7070410437882, -116.72788746701553, -128.67125797551125, 0.12800000607967377, 0.12800000607967377, 1.0240000486373901, 0.0, 0.0, 0.0, 0.0, 0.0, 1.6518367447600367E9, 0.0, 2022-05-06 12:32:24.760
49.0, -265.53476680396125, -227.70754870213568, -207.3381835934706, -189.7176449522376, 0.12800000607967377, 0.12800000607967377, 1.0240000486373901, 0.0, 0.0, 0.0, 0.0, 0.0, 1.6518367447600367E9, 0.0, 2022-05-06 12:32:24.760
50.0, -292.480745984707, -209.1726045217365, -229.08196193585172, -218.12592501565814, 0.12800000607967377, 0.12800000607967377, 1.0240000486373901, 0.0, 0.0, 0.0, 0.0, 0.0, 1.6518367447760563E9, 0.0, 2022-05-06 12:32:24.776
50.0, -214.59358950750902, -57.44486331939697, -122.3377374005504, -154.65234296768904, 0.12800000607967377, 0.12800000607967377, 1.0240000486373901, 0.0, 0.0, 0.0, 0.0, 0.0, 1.6518367447760563E9, 0.0, 2022-05-06 12:32:24.776
51.0, -202.05370495608076, -85.83444388303906, -111.06193903414533, -135.56015369389206, 0.12800000607967377, 0.12800000607967377, 1.0240000486373901, 0.0, 0.0, 0.0, 0.0, 0.0, 1.6518367447769885E9, 0.0, 2022-05-06 12:32:24.776
51.0, -280.3073716289364, -241.55265833809972, -215.14709470095113, -205.9114117603749, 0.12800000607967377, 0.12800000607967377, 1.0240000486373901, 0.0, 0.0, 0.0, 0.0, 0.0, 1.6518367447769885E9, 0.0, 2022-05-06 12:32:24.776
52.0, -274.8583373934962, -193.6108808061108, -213.74089231761172, -191.9428854258731, 0.12800000607967377, 0.12800000607967377, 1.0240000486373901, 0.0, 0.0, 0.0, 0.0, 0.0, 1.6518367447900393E9, 0.0, 2022-05-06 12:32:24.790
52.0, -202.1546822548844, -43.659592082723975, -105.4408694007434, -127.19399749301374, 0.12800000607967377, 0.12800000607967377, 1.0240000486373901, 0.0, 0.0, 0.0, 0.0, 0.0, 1.6518367447900393E9, 0.0, 2022-05-06 12:32:24.790
53.0, -174.86837217817083, -72.42316264193505, -106.93682938301936, -132.1344053344801, 0.12800000607967377, 0.12800000607967377, 1.0240000486373901, 0.0, 0.0, 0.0, 0.0, 0.0, 1.6518367448060691E9, 0.0, 2022-05-06 12:32:24.806
53.0, -280.4494878272526, -238.04837207961828, -221.03369723120704, -201.81248140893877, 0.12800000607967377, 0.12800000607967377, 1.0240000486373901, 0.0, 0.0, 0.0, 0.0, 0.0, 1.6518367448060691E9, 0.0, 2022-05-06 12:32:24.806
54.0, -299.2686644042842, -205.283108567819, -220.599868836347, -209.67375111579895, 0.12800000607967377, 0.12800000607967377, 1.0240000486373901, 0.0, 0.0, 0.0, 0.0, 0.0, 1.6518367448070045E9, 0.0, 2022-05-06 12:32:24.807
54.0, -214.750665305648, -49.23578291665763, -120.57250462146476, -137.56847997009754, 0.12800000607967377, 0.12800000607967377, 1.0240000486373901, 0.0, 0.0, 0.0, 0.0, 0.0, 1.6518367448070045E9, 0.0, 2022-05-06 12:32:24.807
55.0, -205.18026131903753, -81.43258163519204, -122.2965985010378, -141.5888724224642, 0.12800000607967377, 0.12800000607967377, 1.0240000486373901, 0.0, 0.0, 0.0, 0.0, 0.0, 1.6518367448200948E9, 0.0, 2022-05-06 12:32:24.820
55.0, -271.5522658326663, -224.01252754591405, -217.2002997766249, -200.989703418687, 0.12800000607967377, 0.12800000607967377, 1.0240000486373901, 0.0, 0.0, 0.0, 0.0, 0.0, 1.6518367448200948E9, 0.0, 2022-05-06 12:32:24.820
56.0, -296.280484339688, -230.65832976717502, -251.27826817287132, -232.2178680486977, 0.12800000607967377, 0.12800000607967377, 1.0240000486373901, 0.0, 0.0, 0.0, 0.0, 0.0, 1.651836744836101E9, 0.0, 2022-05-06 12:32:24.836
56.0, -236.08679455285892, -85.86810298264027, -149.2051786822267, -171.59782966692, 0.12800000607967377, 0.12800000607967377, 1.0240000486373901, 0.0, 0.0, 0.0, 0.0, 0.0, 1.651836744836101E9, 0.0, 2022-05-06 12:32:24.836
57.0, -203.9273948338814, -77.8497574776411, -109.12093095714226, -139.49452844727784, 0.12800000607967377, 0.12800000607967377, 1.0240000486373901, 0.0, 0.0, 0.0, 0.0, 0.0, 1.651836744836981E9, 0.0, 2022-05-06 12:32:24.836
57.0, -278.0783912553452, -231.48858755733818, -212.57778343139216, -207.30265454389155, 0.12800000607967377, 0.12800000607967377, 1.0240000486373901, 0.0, 0.0, 0.0, 0.0, 0.0, 1.651836744836981E9, 0.0, 2022-05-06 12:32:24.836
58.0, -298.3860480147414, -227.0306268101558, -236.7188376453705, -223.1785298557952, 0.12800000607967377, 0.12800000607967377, 1.0240000486373901, 0.0, 0.0, 0.0, 0.0, 0.0, 1.6518367448500836E9, 0.0, 2022-05-06 12:32:24.850
58.0, -227.09607505938038, -79.38685635942966, -140.91008058050647, -153.72110787872225, 0.12800000607967377, 0.12800000607967377, 1.0240000486373901, 0.0, 0.0, 0.0, 0.0, 0.0, 1.6518367448500836E9, 0.0, 2022-05-06 12:32:24.850
59.0, -204.66415512515232, -94.66434767842293, -139.7843706938438, -165.27739874180406, 0.12800000607967377, 0.12800000607967377, 1.0240000486373901, 0.0, 0.0, 0.0, 0.0, 0.0, 1.6518367448660595E9, 0.0, 2022-05-06 12:32:24.866
59.0, -285.3824158688076, -229.79815277736634, -214.4514733091928, -208.23388963285834, 0.12800000607967377, 0.12800000607967377, 1.0240000486373901, 0.0, 0.0, 0.0, 0.0, 0.0, 1.6518367448660595E9, 0.0, 2022-05-06 12:32:24.866
60.0, -291.0895032011904, -204.16113858111203, -224.5342435897328, -200.48481692466885, 0.12800000607967377, 0.12800000607967377, 1.0240000486373901, 0.0, 0.0, 0.0, 0.0, 0.0, 1.6518367448669882E9, 0.0, 2022-05-06 12:32:24.866
60.0, -221.54606352513656, -71.7761599496007, -132.05025758547708, -147.995321046561, 0.12800000607967377, 0.12800000607967377, 1.0240000486373901, 0.0, 0.0, 0.0, 0.0, 0.0, 1.6518367448669882E9, 0.0, 2022-05-06 12:32:24.866
61.0, -215.0423775021918, -100.12834151368588, -133.6771140662022, -150.68430911470205, 0.12800000607967377, 0.12800000607967377, 1.0240000486373901, 0.0, 0.0, 0.0, 0.0, 0.0, 1.651836744880086E9, 0.0, 2022-05-06 12:32:24.880
61.0, -269.31580565916374, -222.17249676771462, -204.51081922696903, -197.04784886538982, 0.12800000607967377, 0.12800000607967377, 1.0240000486373901, 0.0, 0.0, 0.0, 0.0, 0.0, 1.651836744880086E9, 0.0, 2022-05-06 12:32:24.880
62.0, -300.2260787929408, -219.24415510240942, -243.9817233593203, -226.80249291285872, 0.12800000607967377, 0.12800000607967377, 1.0240000486373901, 0.0, 0.0, 0.0, 0.0, 0.0, 1.6518367448960962E9, 0.0, 2022-05-06 12:32:24.896
62.0, -232.25339709827676, -69.76409377343953, -139.79559039371088, -158.60167732089758, 0.12800000607967377, 0.12800000607967377, 1.0240000486373901, 0.0, 0.0, 0.0, 0.0, 0.0, 1.6518367448960962E9, 0.0, 2022-05-06 12:32:24.896
63.0, -216.52337788464502, -88.87498254701495, -121.60845690919086, -153.61265078000724, 0.12800000607967377, 0.12800000607967377, 1.0240000486373901, 0.0, 0.0, 0.0, 0.0, 0.0, 1.6518367448970177E9, 0.0, 2022-05-06 12:32:24.897
63.0, -303.51345085399225, -261.8191761979833, -246.83152712555602, -241.3394840406254, 0.12800000607967377, 0.12800000607967377, 1.0240000486373901, 0.0, 0.0, 0.0, 0.0, 0.0, 1.6518367448970177E9, 0.0, 2022-05-06 12:32:24.897
64.0, -285.3076178696938, -202.22761030402035, -223.52447060169652, -216.89549793023616, 0.12800000607967377, 0.12800000607967377, 1.0240000486373901, 0.0, 0.0, 0.0, 0.0, 0.0, 1.6518367449100573E9, 0.0, 2022-05-06 12:32:24.910
