%OpenBCI Raw EEG Data
%Number of channels = 4
%Sample Rate = 200 Hz
%Board = OpenBCI_GUI$BoardGanglionBLE
Sample Index, EXG Channel 0, EXG Channel 1, EXG Channel 2, EXG Channel 3, Accel Channel 0, Accel Channel 1, Accel Channel 2, Other, Other, Other, Other, Other, Timestamp, Other, Timestamp (Formatted)
22.0, 47.48924963735044, 67.13868400454521, 63.86627154331654, 28.96178525686264, 0.12800000607967377, 0.0, 0.0, 0.0, 0.0, 0.0, 0.0, 0.0, 1.651836766847971E9, 0.0, 2022-05-06 12:32:46.847
22.0, 256.1644474649802, 123.11376664135605, 174.4551132330671, 176.10440911352634, 0.12800000607967377, 0.0, 0.0, 0.0, 0.0, 0.0, 0.0, 0.0, 1.651836766847971E9, 0.0, 2022-05-06 12:32:46.847
0.0, -215.59027284570038, -55.87223538802937, -119.24110023723915, -156.84579429170117, 0.12800000607967377, 0.0, 0.0, 0.0, 0.0, 0.0, 0.0, 0.0, 1.651836766872949E9, 0.0, 2022-05-06 12:32:46.872
1.0, -235.74833360686898, -137.25993822375312, -157.6910116816871, -177.31800664914772, 0.12800000607967377, 0.12800000607967377, 0.0, 0.0, 0.0, 0.0, 0.0, 0.0, 1.6518367669030528E9, 0.0, 2022-05-06 12:32:46.903
1.0, -304.5811922913417, -259.9249168704264, -249.47937629418448, -239.00391651829705, 0.12800000607967377, 0.12800000607967377, 0.0, 0.0, 0.0, 0.0, 0.0, 0.0, 1.6518367669030528E9, 0.0, 2022-05-06 12:32:46.903
2.0, -279.15735239256173, -177.5461405464448, -213.50901852035895, -207.17362799542025, 0.06400000303983688, 0.12800000607967377, 0.0, 0.0, 0.0, 0.0, 0.0, 0.0, 1.6518367669049356E9, 0.0, 2022-05-06 12:32:46.904
2.0, -204.29203507956117, -51.5975297386758, -114.05759889865294, -137.98547881515697, 0.06400000303983688, 0.12800000607967377, 0.0, 0.0, 0.0, 0.0, 0.0, 0.0, 1.6518367669049356E9, 0.0, 2022-05-06 12:32:46.904
3.0, -234.34961102344096, -134.98607905069366, -149.19021908240393, -168.0954133584164, 0.06400000303983688, 0.12800000607967377, 0.0, 0.0, 0.0, 0.0, 0.0, 0.0, 1.6518367669059336E9, 0.0, 2022-05-06 12:32:46.905
3.0, -301.6154516264796, -254.23652903782204, -244.81198114948347, -228.08340864768252, 0.06400000303983688, 0.12800000607967377, 0.0, 0.0, 0.0, 0.0, 0.0, 0.0, 1.6518367669059336E9, 0.0, 2022-05-06 12:32:46.905
4.0, -277.4257787130773, -166.28904167981818, -194.4056095466949, -190.97986118728295, 0.06400000303983688, 0.12800000607967377, 0.0, 0.0, 0.0, 0.0, 0.0, 0.0, 1.6518367669160624E9, 0.0, 2022-05-06 12:32:46.916
4.0, -211.06873379927129, -54.02098490996286, -123.54572508623824, -150.84699476277456, 0.06400000303983688, 0.12800000607967377, 0.0, 0.0, 0.0, 0.0, 0.0, 0.0, 1.6518367669160624E9, 0.0, 2022-05-06 12:32:46.916
5.0, -228.08153869770467, -136.59423603164032, -157.088887788821, -171.40522481920198, 0.06400000303983688, 0.12800000607967377, 0.0, 0.0, 0.0, 0.0, 0.0, 0.0, 1.6518367669309864E9, 0.0, 2022-05-06 12:32:46.930
5.0, -307.83490525279194, -264.8167060124688, -255.83346631890163, -241.2403766917996, 0.06400000303983688, 0.12800000607967377, 0.0, 0.0, 0.0, 0.0, 0.0, 0.0, 1.6518367669309864E9, 0.0, 2022-05-06 12:32:46.930
6.0, -281.3227544669062, -172.23922250932083, -208.69950717734173, -205.5280720149167, 0.06400000303983688, 0.12800000607967377, 0.0, 0.0, 0.0, 0.0, 0.0, 0.0, 1.6518367669319289E9, 0.0, 2022-05-06 12:32:46.931
6.0, -211.73817589133978, -53.123408920597285, -119.69736803183332, -150.85447456268594, 0.06400000303983688, 0.12800000607967377, 0.0, 0.0, 0.0, 0.0, 0.0, 0.0, 1.6518367669319289E9, 0.0, 2022-05-06 12:32:46.931
7.0, -236.71322779543698, -143.95435914443806, -148.4609385910444, -165.49244298925623, 0.06400000303983688, 0.12800000607967377, 0.0, 0.0, 0.0, 0.0, 0.0, 0.0, 1.651836766945982E9, 0.0, 2022-05-06 12:32:46.945
7.0, -290.7024235557765, -245.52630204102024, -223.976998496335, -188.42176961759105, 0.06400000303983688, 0.12800000607967377, 0.0, 0.0, 0.0, 0.0, 0.0, 0.0, 1.651836766945982E9, 0.0, 2022-05-06 12:32:46.945
8.0, -264.7849168628454, -162.9119120198302, -204.43976112781093, -194.71976114297286, 0.06400000303983688, 0.12800000607967377, 0.0, 0.0, 0.0, 0.0, 0.0, 0.0, 1.651836766960982E9, 0.0, 2022-05-06 12:32:46.960
8.0, -204.08260068204254, -46.08491720398888, -115.17208908544853, -157.15246608806774, 0.06400000303983688, 0.12800000607967377, 0.0, 0.0, 0.0, 0.0, 0.0, 0.0, 1.651836766960982E9, 0.0, 2022-05-06 12:32:46.960
9.0, -224.78668683674186, -136.78123102942482, -151.13496705936268, -167.1005999702029, 0.06400000303983688, 0.12800000607967377, 0.0, 0.0, 0.0, 0.0, 0.0, 0.0, 1.65183676696194E9, 0.0, 2022-05-06 12:32:46.961
9.0, -297.3931045765057, -253.97847594087943, -242.34738707868382, -225.76841057511047, 0.06400000303983688, 0.12800000607967377, 0.0, 0.0, 0.0, 0.0, 0.0, 0.0, 1.65183676696194E9, 0.0, 2022-05-06 12:32:46.961
10.0, -288.3949052831158, -175.50415517063811, -218.63268145965412, -215.4874255969189, 0.06400000303983688, 0.12800000607967377, 0.5120000243186951, 0.0, 0.0, 0.0, 0.0, 0.0, 1.6518367669759889E9, 0.0, 2022-05-06 12:32:46.975
10.0, -207.44103084225208, -58.27699105953798, -118.66141574410722, -151.4191994559951, 0.06400000303983688, 0.12800000607967377, 0.5120000243186951, 0.0, 0.0, 0.0, 0.0, 0.0, 1.6518367669759889E9, 0.0, 2022-05-06 12:32:46.975
11.0, -239.05066526774317, -143.4569524503313, -162.62019982328638, -171.67823751596734, 0.06400000303983688, 0.06400000303983688, 0.5120000243186951, 0.0, 0.0, 0.0, 0.0, 0.0, 1.6518367670080135E9, 0.0, 2022-05-06 12:32:47.008
11.0, -313.4036162868142, -259.3340126774274, -257.5500803985633, -247.9908961118199, 0.06400000303983688, 0.06400000303983688, 0.5120000243186951, 0.0, 0.0, 0.0, 0.0, 0.0, 1.6518367670080135E9, 0.0, 2022-05-06 12:32:47.008
12.0, -270.4994839951396, -158.5773679711856, -198.32502470025793, -200.03041908005252, 0.09600000455975533, 0.06400000303983688, 0.5120000243186951, 0.0, 0.0, 0.0, 0.0, 0.0, 1.651836767008927E9, 0.0, 2022-05-06 12:32:47.008
12.0, -209.21748332120478, -55.41222769347951, -118.50433994596824, -147.2342514055781, 0.09600000455975533, 0.06400000303983688, 0.5120000243186951, 0.0, 0.0, 0.0, 0.0, 0.0, 1.651836767008927E9, 0.0, 2022-05-06 12:32:47.008
13.0, -244.2229469064623, -176.83555955486372, -178.61575193377212, -191.2977526835166, 0.09600000455975533, 0.06400000303983688, 0.5120000243186951, 0.0, 0.0, 0.0, 0.0, 0.0, 1.6518367670099258E9, 0.0, 2022-05-06 12:32:47.009
13.0, -310.8417848171666, -267.2476409836672, -252.8826852538623, -231.00801041303203, 0.09600000455975533, 0.06400000303983688, 0.5120000243186951, 0.0, 0.0, 0.0, 0.0, 0.0, 1.6518367670099258E9, 0.0, 2022-05-06 12:32:47.009
14.0, -255.80167716927826, -127.1135896439664, -176.48774885898456, -174.28120788512751, 0.09600000455975533, 0.06400000303983688, 0.5120000243186951, 0.0, 0.0, 0.0, 0.0, 0.0, 1.651836767010924E9, 0.0, 2022-05-06 12:32:47.010
14.0, -190.99669073708355, -31.510527076665312, -103.15205062786117, -147.51474390225485, 0.09600000455975533, 0.06400000303983688, 0.5120000243186951, 0.0, 0.0, 0.0, 0.0, 0.0, 1.651836767010924E9, 0.0, 2022-05-06 12:32:47.010
15.0, -252.3834086097777, -183.24200817896053, -179.775120920036, -191.27905318373814, 0.09600000455975533, 0.06400000303983688, 0.5120000243186951, 0.0, 0.0, 0.0, 0.0, 0.0, 1.6518367670209804E9, 0.0, 2022-05-06 12:32:47.020
15.0, -313.6280102841556, -274.7386605949141, -257.67723699705675, -236.64403964625672, 0.09600000455975533, 0.06400000303983688, 0.5120000243186951, 0.0, 0.0, 0.0, 0.0, 0.0, 1.6518367670209804E9, 0.0, 2022-05-06 12:32:47.020
16.0, -253.72229279391468, -127.83539033541456, -178.26046143798158, -177.34792584879324, 0.09600000455975533, 0.06400000303983688, 0.5120000243186951, 0.0, 0.0, 0.0, 0.0, 0.0, 1.6518367670360372E9, 0.0, 2022-05-06 12:32:47.036
16.0, -182.51085773762316, -23.054613276850432, -80.58923419518396, -93.37221224373206, 0.09600000455975533, 0.06400000303983688, 0.5120000243186951, 0.0, 0.0, 0.0, 0.0, 0.0, 1.6518367670360372E9, 0.0, 2022-05-06 12:32:47.036
17.0, -238.17178877815604, -174.89081157790497, -173.35371269611642, -177.60971884569153, 0.09600000455975533, 0.06400000303983688, 0.5120000243186951, 0.0, 0.0, 0.0, 0.0, 0.0, 1.6518367670510175E9, 0.0, 2022-05-06 12:32:47.051
17.0, -307.01960706245154, -264.4015771173872, -265.19443590799347, -259.05352018075064, 0.09600000455975533, 0.06400000303983688, 0.5120000243186951, 0.0, 0.0, 0.0, 0.0, 0.0, 1.6518367670510175E9, 0.0, 2022-05-06 12:32:47.051
18.0, -269.58694840595126, -127.88400903483853, -190.04114629840478, -203.77031903574243, 0.09600000455975533, 0.06400000303983688, 0.5120000243186951, 0.0, 0.0, 0.0, 0.0, 0.0, 1.65183676705193E9, 0.0, 2022-05-06 12:32:47.051
18.0, -199.36658683791757, -38.11893029836938, -98.30514028528705, -135.76023834152147, 0.09600000455975533, 0.06400000303983688, 0.5120000243186951, 0.0, 0.0, 0.0, 0.0, 0.0, 1.65183676705193E9, 0.0, 2022-05-06 12:32:47.051
19.0, -242.03136553242803, -176.64482465712354, -166.60319327609614, -173.4359904951416, 0.09600000455975533, 0.06400000303983688, 0.5120000243186951, 0.0, 0.0, 0.0, 0.0, 0.0, 1.6518367670660453E9, 0.0, 2022-05-06 12:32:47.066
19.0, -295.2613616017625, -254.75263523170725, -245.81427433760837, -220.22213894082233, 0.09600000455975533, 0.06400000303983688, 0.5120000243186951, 0.0, 0.0, 0.0, 0.0, 0.0, 1.6518367670660453E9, 0.0, 2022-05-06 12:32:47.066
20.0, -254.96019967924803, -121.79919180693105, -186.6640166384168, -195.98010742804036, 0.09600000455975533, 0.06400000303983688, 0.7680000364780426, 0.0, 0.0, 0.0, 0.0, 0.0, 1.6518367670979793E9, 0.0, 2022-05-06 12:32:47.097
20.0, -193.83901470340788, -40.08985757501796, -111.35365123068914, -153.69305862905458, 0.09600000455975533, 0.06400000303983688, 0.7680000364780426, 0.0, 0.0, 0.0, 0.0, 0.0, 1.6518367670979793E9, 0.0, 2022-05-06 12:32:47.097
21.0, -259.3358826274052, -190.36277769459412, -186.55929943965748, -195.35554413544014, 0.09600000455975533, 0.09600000455975533, 0.7680000364780426, 0.0, 0.0, 0.0, 0.0, 0.0, 1.6518367670989535E9, 0.0, 2022-05-06 12:32:47.098
21.0, -316.7096878476441, -275.1762288897298, -254.31132703693584, -231.84200810315087, 0.09600000455975533, 0.09600000455975533, 0.7680000364780426, 0.0, 0.0, 0.0, 0.0, 0.0, 1.6518367670989535E9, 0.0, 2022-05-06 12:32:47.098
22.0, -247.1176294721663, -113.65742960339412, -176.33067306084558, -171.38278541946784, 0.11200000531971455, 0.09600000455975533, 0.7680000364780426, 0.0, 0.0, 0.0, 0.0, 0.0, 1.6518367670999303E9, 0.0, 2022-05-06 12:32:47.099
22.0, -192.06256222445518, -32.44550206558779, -99.90955736627802, -138.98403210332617, 0.11200000531971455, 0.09600000455975533, 0.7680000364780426, 0.0, 0.0, 0.0, 0.0, 0.0, 1.6518367670999303E9, 0.0, 2022-05-06 12:32:47.099
23.0, -252.55918390769511, -183.212088979315, -170.77692162664607, -179.9882952175103, 0.11200000531971455, 0.09600000455975533, 0.7680000364780426, 0.0, 0.0, 0.0, 0.0, 0.0, 1.6518367671009412E9, 0.0, 2022-05-06 12:32:47.100
23.0, -312.1844089012593, -266.7277948898263, -257.26958790188655, -229.61676762951538, 0.11200000531971455, 0.09600000455975533, 0.7680000364780426, 0.0, 0.0, 0.0, 0.0, 0.0, 1.6518367671009412E9, 0.0, 2022-05-06 12:32:47.100
24.0, -259.3433624273166, -131.55285089137033, -192.5132201691158, -193.99048065161332, 0.11200000531971455, 0.09600000455975533, 0.7680000364780426, 0.0, 0.0, 0.0, 0.0, 0.0, 1.6518367671109705E9, 0.0, 2022-05-06 12:32:47.110
24.0, -201.47589041292667, -48.61308957403526, -113.16750270919874, -146.2394380173646, 0.11200000531971455, 0.09600000455975533, 0.7680000364780426, 0.0, 0.0, 0.0, 0.0, 0.0, 1.6518367671109705E9, 0.0, 2022-05-06 12:32:47.110
25.0, -257.73520544636995, -195.93522862857208, -189.42406280571595, -191.01352028688416, 0.11200000531971455, 0.09600000455975533, 0.7680000364780426, 0.0, 0.0, 0.0, 0.0, 0.0, 1.6518367671260004E9, 0.0, 2022-05-06 12:32:47.126
25.0, -310.2321811243892, -269.0689722620882, -259.3302727774717, -232.17485919920728, 0.11200000531971455, 0.09600000455975533, 0.7680000364780426, 0.0, 0.0, 0.0, 0.0, 0.0, 1.6518367671260004E9, 0.0, 2022-05-06 12:32:47.126
26.0, -241.64241593703628, -118.28368584858254, -168.49558265367523, -169.63251224020496, 0.11200000531971455, 0.09600000455975533, 0.7680000364780426, 0.0, 0.0, 0.0, 0.0, 0.0, 1.6518367671730144E9, 0.0, 2022-05-06 12:32:47.173
26.0, -186.81922248657793, -32.999007259029895, -96.89519800199196, -122.57709099771455, 0.11200000531971455, 0.09600000455975533, 0.7680000364780426, 0.0, 0.0, 0.0, 0.0, 0.0, 1.6518367671730144E9, 0.0, 2022-05-06 12:32:47.173
27.0, -252.10665601305664, -188.41054991772398, -183.59729867475107, -195.7407538308762, 0.11200000531971455, 0.09600000455975533, 0.7680000364780426, 0.0, 0.0, 0.0, 0.0, 0.0, 1.6518367671739492E9, 0.0, 2022-05-06 12:32:47.173
27.0, -302.4494493165985, -259.64816427370533, -244.48660985333845, -215.50612509669736, 0.11200000531971455, 0.09600000455975533, 0.7680000364780426, 0.0, 0.0, 0.0, 0.0, 0.0, 1.6518367671739492E9, 0.0, 2022-05-06 12:32:47.173
28.0, -251.50453212019056, -120.47526722261682, -182.4790685879998, -191.65678307926282, 0.11200000531971455, 0.09600000455975533, 0.7680000364780426, 0.0, 0.0, 0.0, 0.0, 0.0, 1.651836767174955E9, 0.0, 2022-05-06 12:32:47.174
28.0, -192.17475922312587, -32.46420156536624, -96.30803370894864, -128.9648401220329, 0.11200000531971455, 0.09600000455975533, 0.7680000364780426, 0.0, 0.0, 0.0, 0.0, 0.0, 1.651836767174955E9, 0.0, 2022-05-06 12:32:47.174
29.0, -248.20968025922775, -188.47038831701502, -184.24056146712974, -195.64725633198395, 0.11200000531971455, 0.09600000455975533, 0.7680000364780426, 0.0, 0.0, 0.0, 0.0, 0.0, 1.651836767175934E9, 0.0, 2022-05-06 12:32:47.175
29.0, -308.9606151394546, -271.5522658326663, -252.19080376205966, -236.6515194461681, 0.11200000531971455, 0.09600000455975533, 0.7680000364780426, 0.0, 0.0, 0.0, 0.0, 0.0, 1.651836767175934E9, 0.0, 2022-05-06 12:32:47.175
30.0, -249.9749130383134, -116.95228146435693, -171.20327022159472, -178.45867613563314, 0.11200000531971455, 0.09600000455975533, 0.8960000425577164, 0.0, 0.0, 0.0, 0.0, 0.0, 1.6518367671859908E9, 0.0, 2022-05-06 12:32:47.185
30.0, -171.64644836634398, -29.412443201523274, -86.15420532925054, -119.5215927339159, 0.11200000531971455, 0.09600000455975533, 0.8960000425577164, 0.0, 0.0, 0.0, 0.0, 0.0, 1.6518367671859908E9, 0.0, 2022-05-06 12:32:47.185
31.0, -235.7819927064702, -174.46072308300063, -169.71852993918583, -169.38941874308512, 0.11200000531971455, 0.12800000607967377, 0.8960000425577164, 0.0, 0.0, 0.0, 0.0, 0.0, 1.6518367671869872E9, 0.0, 2022-05-06 12:32:47.186
31.0, -306.1145512731746, -256.67494380893186, -253.48106924677268, -233.22951098671183, 0.11200000531971455, 0.12800000607967377, 0.8960000425577164, 0.0, 0.0, 0.0, 0.0, 0.0, 1.6518367671869872E9, 0.0, 2022-05-06 12:32:47.186
32.0, -257.6491877473891, -116.32397827180102, -177.20580965047702, -179.56942642247304, 0.11200000531971455, 0.12800000607967377, 0.8960000425577164, 0.0, 0.0, 0.0, 0.0, 0.0, 1.6518367672009847E9, 0.0, 2022-05-06 12:32:47.200
32.0, -188.82006896287203, -30.534413188230246, -98.82124647917226, -136.51195823261514, 0.11200000531971455, 0.12800000607967377, 0.8960000425577164, 0.0, 0.0, 0.0, 0.0, 0.0, 1.6518367672009847E9, 0.0, 2022-05-06 12:32:47.200
33.0, -247.8581296633929, -175.915544165764, -166.24042298039421, -177.85281234281138, 0.11200000531971455, 0.12800000607967377, 0.8960000425577164, 0.0, 0.0, 0.0, 0.0, 0.0, 1.6518367672019444E9, 0.0, 2022-05-06 12:32:47.201
33.0, -302.370911417529, -255.75118851987645, -241.6480257869698, -220.85044213337824, 0.11200000531971455, 0.12800000607967377, 0.8960000425577164, 0.0, 0.0, 0.0, 0.0, 0.0, 1.6518367672019444E9, 0.0, 2022-05-06 12:32:47.201
34.0, -237.24055368918926, -103.39514412498102, -161.47579043684527, -160.63431294681504, 0.11200000531971455, 0.12800000607967377, 0.8960000425577164, 0.0, 0.0, 0.0, 0.0, 0.0, 1.651836767216022E9, 0.0, 2022-05-06 12:32:47.216
34.0, -180.50627136137336, -21.54369369475171, -86.85730652092025, -111.52568662865087, 0.11200000531971455, 0.12800000607967377, 0.8960000425577164, 0.0, 0.0, 0.0, 0.0, 0.0, 1.651836767216022E9, 0.0, 2022-05-06 12:32:47.216
35.0, -234.3309115236625, -176.12497856328264, -171.5810001171194, -174.49064228264615, 0.11200000531971455, 0.12800000607967377, 0.8960000425577164, 0.0, 0.0, 0.0, 0.0, 0.0, 1.6518367672310255E9, 0.0, 2022-05-06 12:32:47.231
35.0, -301.3199995299801, -268.2611538716592, -259.169457079377, -239.81547480868176, 0.11200000531971455, 0.12800000607967377, 0.8960000425577164, 0.0, 0.0, 0.0, 0.0, 0.0, 1.6518367672310255E9, 0.0, 2022-05-06 12:32:47.231
36.0, -263.91726007312536, -133.60979586699978, -191.58198508014902, -199.7013078839518, 0.11200000531971455, 0.12800000607967377, 0.8960000425577164, 0.0, 0.0, 0.0, 0.0, 0.0, 1.6518367672319417E9, 0.0, 2022-05-06 12:32:47.231
36.0, -203.4692570893094, -48.62056937394664, -116.21926107304171, -145.35682162782177, 0.11200000531971455, 0.12800000607967377, 0.8960000425577164, 0.0, 0.0, 0.0, 0.0, 0.0, 1.6518367672319417E9, 0.0, 2022-05-06 12:32:47.231
37.0, -261.2282720049843, -196.39897622307763, -187.72988812578842, -200.13139637885615, 0.11200000531971455, 0.12800000607967377, 0.8960000425577164, 0.0, 0.0, 0.0, 0.0, 0.0, 1.6518367672460403E9, 0.0, 2022-05-06 12:32:47.246
37.0, -305.16087678447366, -265.5946052032523, -248.918391300831, -231.26606350997463, 0.11200000531971455, 0.12800000607967377, 0.8960000425577164, 0.0, 0.0, 0.0, 0.0, 0.0, 1.6518367672460403E9, 0.0, 2022-05-06 12:32:47.246
38.0, -247.46170026808977, -111.0694188340567, -173.79128099093214, -179.12437832774594, 0.11200000531971455, 0.12800000607967377, 0.8960000425577164, 0.0, 0.0, 0.0, 0.0, 0.0, 1.6518367672609875E9, 0.0, 2022-05-06 12:32:47.260
38.0, -183.10924173053354, -30.111804493237287, -91.94731036061421, -118.20140804955736, 0.11200000531971455, 0.12800000607967377, 0.8960000425577164, 0.0, 0.0, 0.0, 0.0, 0.0, 1.6518367672609875E9, 0.0, 2022-05-06 12:32:47.260
39.0, -237.1096571907401, -175.8781451662071, -166.0197688830085, -164.33681390294805, 0.11200000531971455, 0.12800000607967377, 0.8960000425577164, 0.0, 0.0, 0.0, 0.0, 0.0, 1.651836767261991E9, 0.0, 2022-05-06 12:32:47.261
39.0, -301.63789102621377, -263.39180412935093, -254.8797918302007, -230.7574371160008, 0.11200000531971455, 0.12800000607967377, 0.8960000425577164, 0.0, 0.0, 0.0, 0.0, 0.0, 1.651836767261991E9, 0.0, 2022-05-06 12:32:47.261
40.0, -250.8575294278562, -113.63499020365998, -175.43309707148, -187.6962290261872, 0.11200000531971455, 0.12800000607967377, 0.9600000455975533, 0.0, 0.0, 0.0, 0.0, 0.0, 1.6518367672760181E9, 0.0, 2022-05-06 12:32:47.276
40.0, -181.32530945166945, -33.51885335287079, -94.40442463150248, -124.17028837883845, 0.11200000531971455, 0.12800000607967377, 0.9600000455975533, 0.0, 0.0, 0.0, 0.0, 0.0, 1.6518367672760181E9, 0.0, 2022-05-06 12:32:47.276
41.0, -251.4110346212983, -183.26818747865036, -171.11725252261385, -170.4328508307226, 0.11200000531971455, 0.12800000607967377, 0.9600000455975533, 0.0, 0.0, 0.0, 0.0, 0.0, 1.6518367672910066E9, 0.0, 2022-05-06 12:32:47.291
41.0, -303.86313149984926, -260.1455709678121, -256.6936433087103, -235.14807966398075, 0.11200000531971455, 0.12800000607967377, 0.9600000455975533, 0.0, 0.0, 0.0, 0.0, 0.0, 1.6518367672910066E9, 0.0, 2022-05-06 12:32:47.291
42.0, -249.159614847973, -117.22903406107798, -176.49522865889594, -178.27916093776003, 0.12800000607967377, 0.12800000607967377, 0.9600000455975533, 0.0, 0.0, 0.0, 0.0, 0.0, 1.6518367672919254E9, 0.0, 2022-05-06 12:32:47.291
42.0, -193.06485541258007, -37.61404380435124, -98.79132727952674, -128.20190053107217, 0.12800000607967377, 0.12800000607967377, 0.9600000455975533, 0.0, 0.0, 0.0, 0.0, 0.0, 1.6518367672919254E9, 0.0, 2022-05-06 12:32:47.291
43.0, -246.81469757575542, -188.71348181413487, -185.61684465082362, -195.50888003362343, 0.12800000607967377, 0.12800000607967377, 0.9600000455975533, 0.0, 0.0, 0.0, 0.0, 0.0, 1.6518367673060777E9, 0.0, 2022-05-06 12:32:47.306
43.0, -317.83913763426244, -268.1152977733873, -258.64213118562475, -234.97230436606333, 0.12800000607967377, 0.12800000607967377, 0.9600000455975533, 0.0, 0.0, 0.0, 0.0, 0.0, 1.6518367673060777E9, 0.0, 2022-05-06 12:32:47.306
44.0, -261.2058326052502, -121.09983051521704, -174.11665228707716, -177.34044604888186, 0.12800000607967377, 0.12800000607967377, 0.9600000455975533, 0.0, 0.0, 0.0, 0.0, 0.0, 1.6518367673210049E9, 0.0, 2022-05-06 12:32:47.321
44.0, -195.2788761863485, -41.006133064161986, -100.85949195502326, -132.92165427515283, 0.12800000607967377, 0.12800000607967377, 0.9600000455975533, 0.0, 0.0, 0.0, 0.0, 0.0, 1.6518367673210049E9, 0.0, 2022-05-06 12:32:47.321
45.0, -254.8255632808432, -192.82737176539376, -189.69333560252562, -190.71058839047328, 0.12800000607967377, 0.12800000607967377, 0.9600000455975533, 0.0, 0.0, 0.0, 0.0, 0.0, 1.6518367673219557E9, 0.0, 2022-05-06 12:32:47.321
45.0, -312.01611340325326, -269.951588651631, -261.79112694831565, -239.70327781001106, 0.12800000607967377, 0.12800000607967377, 0.9600000455975533, 0.0, 0.0, 0.0, 0.0, 0.0, 1.6518367673219557E9, 0.0, 2022-05-06 12:32:47.321
46.0, -244.64929550141096, -112.85335111292079, -178.9149439302273, -178.45493623567745, 0.12800000607967377, 0.12800000607967377, 0.9600000455975533, 0.0, 0.0, 0.0, 0.0, 0.0, 1.651836767335987E9, 0.0, 2022-05-06 12:32:47.335
46.0, -188.49095776677132, -42.3711965479888, -98.6230317815207, -128.710526925046, 0.12800000607967377, 0.12800000607967377, 0.9600000455975533, 0.0, 0.0, 0.0, 0.0, 0.0, 1.651836767335987E9, 0.0, 2022-05-06 12:32:47.335
47.0, -272.29089607391506, -208.261938882526, -196.95622131647542, -205.5617311145179, 0.12800000607967377, 0.12800000607967377, 0.9600000455975533, 0.0, 0.0, 0.0, 0.0, 0.0, 1.6518367673509915E9, 0.0, 2022-05-06 12:32:47.350
47.0, -318.2580064292997, -277.4089491632767, -265.923716399353, -240.6906113983132, 0.12800000607967377, 0.12800000607967377, 0.9600000455975533, 0.0, 0.0, 0.0, 0.0, 0.0, 1.6518367673509915E9, 0.0, 2022-05-06 12:32:47.350
48.0, -259.03295073099434, -122.21806060196832, -183.19338947953656, -189.12861070921645, 0.12800000607967377, 0.12800000607967377, 0.9600000455975533, 0.0, 0.0, 0.0, 0.0, 0.0, 1.6518367673519616E9, 0.0, 2022-05-06 12:32:47.351
48.0, -212.38517858367413, -58.59488255577162, -118.41084244707599, -150.67121946485713, 0.12800000607967377, 0.12800000607967377, 0.9600000455975533, 0.0, 0.0, 0.0, 0.0, 0.0, 1.6518367673519616E9, 0.0, 2022-05-06 12:32:47.351
49.0, -266.63242744095623, -202.50623285071924, -197.0422390154563, -205.35977651691064, 0.12800000607967377, 0.12800000607967377, 0.9600000455975533, 0.0, 0.0, 0.0, 0.0, 0.0, 1.6518367673660383E9, 0.0, 2022-05-06 12:32:47.366
49.0, -311.3279718114063, -269.86931085260585, -255.57167332200333, -232.66104619344696, 0.12800000607967377, 0.12800000607967377, 0.9600000455975533, 0.0, 0.0, 0.0, 0.0, 0.0, 1.6518367673660383E9, 0.0, 2022-05-06 12:32:47.366
50.0, -242.46145402733237, -111.25267393188551, -169.84942643763497, -168.82843374973163, 0.12800000607967377, 0.12800000607967377, 0.9920000471174717, 0.0, 0.0, 0.0, 0.0, 0.0, 1.6518367673810155E9, 0.0, 2022-05-06 12:32:47.381
50.0, -195.08066148869693, -41.39508265955374, -105.15289710415527, -132.13253538450226, 0.12800000607967377, 0.12800000607967377, 0.9920000471174717, 0.0, 0.0, 0.0, 0.0, 0.0, 1.6518367673810155E9, 0.0, 2022-05-06 12:32:47.381
51.0, -255.85403576865792, -194.37569034704939, -187.5503729279153, -189.72325480217114, 0.12800000607967377, 0.12800000607967377, 0.9920000471174717, 0.0, 0.0, 0.0, 0.0, 0.0, 1.65183676738194E9, 0.0, 2022-05-06 12:32:47.381
51.0, -314.8546974696219, -259.59206577437, -248.9557903003879, -226.5687491656281, 0.12800000607967377, 0.12800000607967377, 0.9920000471174717, 0.0, 0.0, 0.0, 0.0, 0.0, 1.65183676738194E9, 0.0, 2022-05-06 12:32:47.381
52.0, -249.34660984575748, -103.55221992311999, -164.23209670418873, -165.33910709107295, 0.12800000607967377, 0.12800000607967377, 0.9920000471174717, 0.0, 0.0, 0.0, 0.0, 0.0, 1.65183676739599E9, 0.0, 2022-05-06 12:32:47.395
52.0, -205.77303546201438, -39.14366288622841, -106.42072318913415, -141.48228527372703, 0.12800000607967377, 0.12800000607967377, 0.9920000471174717, 0.0, 0.0, 0.0, 0.0, 0.0, 1.65183676739599E9, 0.0, 2022-05-06 12:32:47.395
53.0, -261.4676256021485, -192.80867226561531, -184.12088466854766, -187.39703702973202, 0.12800000607967377, 0.12800000607967377, 0.9920000471174717, 0.0, 0.0, 0.0, 0.0, 0.0, 1.651836767410997E9, 0.0, 2022-05-06 12:32:47.410
53.0, -308.8484181407839, -257.2995071015321, -253.8774986420758, -222.08086921880022, 0.12800000607967377, 0.12800000607967377, 0.9920000471174717, 0.0, 0.0, 0.0, 0.0, 0.0, 1.651836767410997E9, 0.0, 2022-05-06 12:32:47.410
54.0, -253.90554789174348, -113.35075780702755, -177.0674333521165, -190.59839139180258, 0.12800000607967377, 0.12800000607967377, 0.9920000471174717, 0.0, 0.0, 0.0, 0.0, 0.0, 1.651836767411959E9, 0.0, 2022-05-06 12:32:47.411
54.0, -198.45405124872923, -47.1507886913605, -106.07291249325499, -146.67326641222462, 0.12800000607967377, 0.12800000607967377, 0.9920000471174717, 0.0, 0.0, 0.0, 0.0, 0.0, 1.651836767411959E9, 0.0, 2022-05-06 12:32:47.411
55.0, -267.9339126255363, -201.09255066746846, -192.46460146969184, -194.78333944221959, 0.12800000607967377, 0.12800000607967377, 0.9920000471174717, 0.0, 0.0, 0.0, 0.0, 0.0, 1.6518367674260297E9, 0.0, 2022-05-06 12:32:47.426
55.0, -310.82682521734387, -263.12253133254126, -252.37405885988846, -232.07388190040365, 0.12800000607967377, 0.12800000607967377, 0.9920000471174717, 0.0, 0.0, 0.0, 0.0, 0.0, 1.6518367674260297E9, 0.0, 2022-05-06 12:32:47.426
56.0, -250.42744093295187, -107.28090017894283, -169.41185814281926, -166.59945337614045, 0.12800000607967377, 0.12800000607967377, 0.9920000471174717, 0.0, 0.0, 0.0, 0.0, 0.0, 1.651836767441053E9, 0.0, 2022-05-06 12:32:47.441
56.0, -190.2374910460785, -32.49038086505607, -93.72002293961123, -124.94070776971057, 0.12800000607967377, 0.12800000607967377, 0.9920000471174717, 0.0, 0.0, 0.0, 0.0, 0.0, 1.651836767441053E9, 0.0, 2022-05-06 12:32:47.441
57.0, -262.17820659372956, -198.1529893022962, -193.45193505799398, -202.47257375111803, 0.12800000607967377, 0.12800000607967377, 0.9920000471174717, 0.0, 0.0, 0.0, 0.0, 0.0, 1.651836767441951E9, 0.0, 2022-05-06 12:32:47.441
57.0, -310.1424235254526, -261.6714501497336, -255.61281222151592, -236.6814386458136, 0.12800000607967377, 0.12800000607967377, 0.9920000471174717, 0.0, 0.0, 0.0, 0.0, 0.0, 1.651836767441951E9, 0.0, 2022-05-06 12:32:47.441
58.0, -246.9343743743375, -113.52653310494497, -166.56953417649493, -165.14089239342138, 0.12800000607967377, 0.12800000607967377, 0.9920000471174717, 0.0, 0.0, 0.0, 0.0, 0.0, 1.6518367674560068E9, 0.0, 2022-05-06 12:32:47.456
58.0, -209.90562491305172, -48.36625617695972, -108.87409756006673, -137.7461252179928, 0.12800000607967377, 0.12800000607967377, 0.9920000471174717, 0.0, 0.0, 0.0, 0.0, 0.0, 1.6518367674560068E9, 0.0, 2022-05-06 12:32:47.456
59.0, -273.0837548645213, -199.97806048067287, -188.35071151843295, -200.7073409720324, 0.12800000607967377, 0.12800000607967377, 0.9920000471174717, 0.0, 0.0, 0.0, 0.0, 0.0, 1.6518367674709976E9, 0.0, 2022-05-06 12:32:47.470
59.0, -314.2937124762684, -263.15993033209816, -254.6179988333024, -232.3917733966373, 0.12800000607967377, 0.12800000607967377, 0.9920000471174717, 0.0, 0.0, 0.0, 0.0, 0.0, 1.6518367674709976E9, 0.0, 2022-05-06 12:32:47.470
60.0, -249.94499383866787, -110.63185053924099, -171.41270461911336, -173.30135409673676, 0.12800000607967377, 0.12800000607967377, 1.008000047877431, 0.0, 0.0, 0.0, 0.0, 0.0, 1.651836767471946E9, 0.0, 2022-05-06 12:32:47.471
60.0, -190.92563263792545, -39.857983777765185, -101.71218914492056, -127.06871084449813, 0.12800000607967377, 0.12800000607967377, 1.008000047877431, 0.0, 0.0, 0.0, 0.0, 0.0, 1.651836767471946E9, 0.0, 2022-05-06 12:32:47.471
61.0, -250.83135012816638, -189.01267381059006, -181.11774500412866, -189.70829520234838, 0.12800000607967377, 0.12800000607967377, 1.008000047877431, 0.0, 0.0, 0.0, 0.0, 0.0, 1.651836767486036E9, 0.0, 2022-05-06 12:32:47.486
61.0, -320.6814616005868, -262.2137356433086, -249.60653289267793, -227.70941865211353, 0.12800000607967377, 0.12800000607967377, 1.008000047877431, 0.0, 0.0, 0.0, 0.0, 0.0, 1.651836767486036E9, 0.0, 2022-05-06 12:32:47.486
62.0, -259.99410501960665, -111.52942652860656, -173.83615979040042, -182.5164675875567, 0.12800000607967377, 0.12800000607967377, 1.008000047877431, 0.0, 0.0, 0.0, 0.0, 0.0, 1.651836767518011E9, 0.0, 2022-05-06 12:32:47.518
62.0, -205.45140406582505, -48.21666017873213, -109.4425623533316, -135.00103865051642, 0.12800000607967377, 0.12800000607967377, 1.008000047877431, 0.0, 0.0, 0.0, 0.0, 0.0, 1.651836767518011E9, 0.0, 2022-05-06 12:32:47.518
63.0, -263.64424737636, -195.4827007339336, -184.00868766987696, -180.01821441715583, 0.12800000607967377, 0.12800000607967377, 1.008000047877431, 0.0, 0.0, 0.0, 0.0, 0.0, 1.6518367675189412E9, 0.0, 2022-05-06 12:32:47.518
63.0, -312.68555549532175, -268.1040780735202, -260.134351267945, -239.95759100699797, 0.12800000607967377, 0.12800000607967377, 1.008000047877431, 0.0, 0.0, 0.0, 0.0, 0.0, 1.6518367675189412E9, 0.0, 2022-05-06 12:32:47.518
64.0, -258.6103420360014, -113.39189670654014, -171.81661381432787, -187.69248912623152, 0.12800000607967377, 0.12800000607967377, 1.008000047877431, 0.0, 0.0, 0.0, 0.0, 0.0, 1.6518367675200052E9, 0.0, 2022-05-06 12:32:47.520
64.0, -215.85206584259868, -55.483285792637616, -117.1504961620085, -155.03194281319156, 0.12800000607967377, 0.12800000607967377, 1.008000047877431, 0.0, 0.0, 0.0, 0.0, 0.0, 1.6518367675200052E9, 0.0, 2022-05-06 12:32:47.520
65.0, -269.5719888061285, -207.65981498965994, -197.2965522124432, -192.24020747235045, 0.12800000607967377, 0.12800000607967377, 1.008000047877431, 0.0, 0.0, 0.0, 0.0, 0.0, 1.6518367675209544E9, 0.0, 2022-05-06 12:32:47.520
65.0, -315.06413186714053, -262.08283914485946, -254.85735243046656, -244.093920357991, 0.12800000607967377, 0.12800000607967377, 1.008000047877431, 0.0, 0.0, 0.0, 0.0, 0.0, 1.6518367675209544E9, 0.0, 2022-05-06 12:32:47.520
66.0, -263.0496032834053, -122.43871469935402, -188.46290851710364, -199.47317398665473, 0.12800000607967377, 0.12800000607967377, 1.008000047877431, 0.0, 0.0, 0.0, 0.0, 0.0, 1.65183676753098E9, 0.0, 2022-05-06 12:32:47.530
66.0, -210.55636750534177, -59.08854934992269, -118.47068084636703, -150.88065386237577, 0.12800000607967377, 0.12800000607967377, 1.008000047877431, 0.0, 0.0, 0.0, 0.0, 0.0, 1.65183676753098E9, 0.0, 2022-05-06 12:32:47.530
67.0, -269.29149630945176, -200.591404073406, -193.19388196105137, -205.88336251070723, 0.12800000607967377, 0.12800000607967377, 1.008000047877431, 0.0, 0.0, 0.0, 0.0, 0.0, 1.6518367675460553E9, 0.0, 2022-05-06 12:32:47.546
67.0, -314.7798994705081, -269.67857595486566, -262.7261019372381, -239.36668681399897, 0.12800000607967377, 0.12800000607967377, 1.008000047877431, 0.0, 0.0, 0.0, 0.0, 0.0, 1.6518367675460553E9, 0.0, 2022-05-06 12:32:47.546
68.0, -255.491265472956, -115.21322798496112, -176.19229676248506, -177.8490724428557, 0.12800000607967377, 0.12800000607967377, 1.008000047877431, 0.0, 0.0, 0.0, 0.0, 0.0, 1.6518367675609877E9, 0.0, 2022-05-06 12:32:47.560
68.0, -194.29154259804636, -41.11833006283268, -100.18257006304339, -130.38600210519508, 0.12800000607967377, 0.12800000607967377, 1.008000047877431, 0.0, 0.0, 0.0, 0.0, 0.0, 1.6518367675609877E9, 0.0, 2022-05-06 12:32:47.560
69.0, -270.7276178924367, -201.91906855767593, -189.86911090044305, -196.297998924274, 0.12800000607967377, 0.12800000607967377, 1.008000047877431, 0.0, 0.0, 0.0, 0.0, 0.0, 1.6518367675620303E9, 0.0, 2022-05-06 12:32:47.562
69.0, -310.01152702700347, -255.01068832864985, -247.579507116694, -226.13492077076808, 0.12800000607967377, 0.12800000607967377, 1.008000047877431, 0.0, 0.0, 0.0, 0.0, 0.0, 1.6518367675620303E9, 0.0, 2022-05-06 12:32:47.562
70.0, -234.7049015192315, -101.24844155041501, -151.5313964546658, -151.80440915143117, 0.12800000607967377, 0.12800000607967377, 1.008000047877431, 0.0, 0.0, 0.0, 0.0, 0.0, 1.6518367675760033E9, 0.0, 2022-05-06 12:32:47.576
70.0, -194.717891192995, -36.94460171228275, -98.53701408253983, -124.5592379742302, 0.12800000607967377, 0.12800000607967377, 1.008000047877431, 0.0, 0.0, 0.0, 0.0, 0.0, 1.6518367675760033E9, 0.0, 2022-05-06 12:32:47.576
71.0, -261.40404730290174, -181.3645784012042, -185.7739204489626, -198.28388580074534, 0.12800000607967377, 0.12800000607967377, 1.008000047877431, 0.0, 0.0, 0.0, 0.0, 0.0, 1.651836767591007E9, 0.0, 2022-05-06 12:32:47.591
71.0, -310.9315424161032, -250.92671757703647, -246.5846937284805, -228.95106543740258, 0.12800000607967377, 0.12800000607967377, 1.008000047877431, 0.0, 0.0, 0.0, 0.0, 0.0, 1.651836767591007E9, 0.0, 2022-05-06 12:32:47.591
72.0, -255.4202073737979, -130.38600210519508, -182.96899548219517, -185.3700112537481, 0.12800000607967377, 0.12800000607967377, 1.008000047877431, 0.0, 0.0, 0.0, 0.0, 0.0, 1.6518367675919385E9, 0.0, 2022-05-06 12:32:47.591
72.0, -197.7584298569709, -51.115082644391805, -104.31889941403642, -140.06112329056486, 0.12800000607967377, 0.12800000607967377, 1.008000047877431, 0.0, 0.0, 0.0, 0.0, 0.0, 1.6518367675919385E9, 0.0, 2022-05-06 12:32:47.591
73.0, -250.3451631339267, -181.78344719624147, -177.86029214272276, -178.26794123789296, 0.12800000607967377, 0.12800000607967377, 1.008000047877431, 0.0, 0.0, 0.0, 0.0, 0.0, 1.6518367676060233E9, 0.0, 2022-05-06 12:32:47.606
73.0, -311.5561057087034, -257.56877989834175, -250.27597498474643, -238.08390112919733, 0.12800000607967377, 0.12800000607967377, 1.008000047877431, 0.0, 0.0, 0.0, 0.0, 0.0, 1.6518367676060233E9, 0.0, 2022-05-06 12:32:47.606
74.0, -277.15276601631194, -146.089842019137, -192.54687926871702, -201.53385886223987, 0.12800000607967377, 0.12800000607967377, 1.008000047877431, 0.0, 0.0, 0.0, 0.0, 0.0, 1.6518367676210043E9, 0.0, 2022-05-06 12:32:47.621
74.0, -221.34223897755146, -67.05827615549788, -131.32097709411755, -158.40907247317955, 0.12800000607967377, 0.12800000607967377, 1.008000047877431, 0.0, 0.0, 0.0, 0.0, 0.0, 1.6518367676210043E9, 0.0, 2022-05-06 12:32:47.621
75.0, -263.6891261758283, -195.89782962901518, -194.85813744133338, -196.88142331736162, 0.12800000607967377, 0.12800000607967377, 1.008000047877431, 0.0, 0.0, 0.0, 0.0, 0.0, 1.6518367676219463E9, 0.0, 2022-05-06 12:32:47.621
75.0, -320.87967629823834, -272.75277371844277, -268.9193762638606, -253.90741784172133, 0.12800000607967377, 0.12800000607967377, 1.008000047877431, 0.0, 0.0, 0.0, 0.0, 0.0, 1.6518367676219463E9, 0.0, 2022-05-06 12:32:47.621
76.0, -265.1252477588132, -132.83937647612765, -187.35215823026374, -189.75317400181666, 0.12800000607967377, 0.12800000607967377, 1.008000047877431, 0.0, 0.0, 0.0, 0.0, 0.0, 1.6518367676360075E9, 0.0, 2022-05-06 12:32:47.636
76.0, -202.44452450145036, -48.50837237527594, -110.34013834269717, -142.604255260434, 0.12800000607967377, 0.12800000607967377, 1.008000047877431, 0.0, 0.0, 0.0, 0.0, 0.0, 1.6518367676360075E9, 0.0, 2022-05-06 12:32:47.636
77.0, -266.6174678411335, -189.38292390620336, -188.63868381502107, -195.63603663211688, 0.12800000607967377, 0.12800000607967377, 1.008000047877431, 0.0, 0.0, 0.0, 0.0, 0.0, 1.6518367676510437E9, 0.0, 2022-05-06 12:32:47.651
77.0, -310.94276211597025, -256.4692493113689, -248.97448980016634, -233.32674838555977, 0.12800000607967377, 0.12800000607967377, 1.008000047877431, 0.0, 0.0, 0.0, 0.0, 0.0, 1.6518367676510437E9, 0.0, 2022-05-06 12:32:47.651
78.0, -248.8192839520052, -125.37827606452629, -169.93918403657153, -175.9492032653652, 0.12800000607967377, 0.12800000607967377, 1.008000047877431, 0.0, 0.0, 0.0, 0.0, 0.0, 1.6518367676519256E9, 0.0, 2022-05-06 12:32:47.651
78.0, -201.99199660681188, -44.88440931821242, -103.20440922724083, -134.88510175189003, 0.12800000607967377, 0.12800000607967377, 1.008000047877431, 0.0, 0.0, 0.0, 0.0, 0.0, 1.6518367676519256E9, 0.0, 2022-05-06 12:32:47.651
79.0, -253.1239088010043, -177.4339435477741, -182.07889929274097, -184.28170036664233, 0.12800000607967377, 0.12800000607967377, 1.008000047877431, 0.0, 0.0, 0.0, 0.0, 0.0, 1.6518367676820114E9, 0.0, 2022-05-06 12:32:47.682
79.0, -322.0091260848567, -266.563239291776, -261.2525813546963, -247.05592112289742, 0.12800000607967377, 0.12800000607967377, 1.008000047877431, 0.0, 0.0, 0.0, 0.0, 0.0, 1.6518367676820114E9, 0.0, 2022-05-06 12:32:47.682
80.0, -259.4667791258544, -125.60267006186768, -178.11834523966536, -184.5098342639394, 0.12800000607967377, 0.12800000607967377, 1.0240000486373901, 0.0, 0.0, 0.0, 0.0, 0.0, 1.651836767682936E9, 0.0, 2022-05-06 12:32:47.682
80.0, -199.23195043951273, -54.297737506683916, -113.35823760693893, -140.69316638307646, 0.12800000607967377, 0.12800000607967377, 1.0240000486373901, 0.0, 0.0, 0.0, 0.0, 0.0, 1.651836767682936E9, 0.0, 2022-05-06 12:32:47.682
81.0, -255.11353557743132, -184.4051170651801, -178.3614387367852, -186.09181194519624, 0.12800000607967377, 0.12800000607967377, 1.0240000486373901, 0.0, 0.0, 0.0, 0.0, 0.0, 1.6518367676839895E9, 0.0, 2022-05-06 12:32:47.683
81.0, -314.0020002797246, -260.9646090581082, -242.9869099711068, -222.81762951007113, 0.12800000607967377, 0.12800000607967377, 1.0240000486373901, 0.0, 0.0, 0.0, 0.0, 0.0, 1.6518367676839895E9, 0.0, 2022-05-06 12:32:47.683
82.0, -247.29340477008373, -125.89812215836719, -172.82264690240845, -181.09530560439453, 0.12800000607967377, 0.12800000607967377, 1.0240000486373901, 0.0, 0.0, 0.0, 0.0, 0.0, 1.651836767711984E9, 0.0, 2022-05-06 12:32:47.711
82.0, -198.34185425005853, -49.106756368186325, -102.97627532994375, -139.47769889747724, 0.12800000607967377, 0.12800000607967377, 1.0240000486373901, 0.0, 0.0, 0.0, 0.0, 0.0, 1.651836767711984E9, 0.0, 2022-05-06 12:32:47.711
83.0, -264.5268637659028, -182.86427828343585, -183.50754107581452, -197.9248554049991, 0.12800000607967377, 0.12800000607967377, 1.0240000486373901, 0.0, 0.0, 0.0, 0.0, 0.0, 1.6518367677129326E9, 0.0, 2022-05-06 12:32:47.712
83.0, -312.8949898928404, -257.2995071015321, -260.31386646581814, -241.71908388612792, 0.12800000607967377, 0.12800000607967377, 1.0240000486373901, 0.0, 0.0, 0.0, 0.0, 0.0, 1.6518367677129326E9, 0.0, 2022-05-06 12:32:47.712
84.0, -261.1310346061364, -132.6374218785204, -169.583893540781, -188.4442090173252, 0.12800000607967377, 0.12800000607967377, 1.0240000486373901, 0.0, 0.0, 0.0, 0.0, 0.0, 1.6518367677139404E9, 0.0, 2022-05-06 12:32:47.713
84.0, -200.04350872989744, -52.730719425249845, -105.54184669954702, -139.52257769694552, 0.12800000607967377, 0.12800000607967377, 1.0240000486373901, 0.0, 0.0, 0.0, 0.0, 0.0, 1.6518367677139404E9, 0.0, 2022-05-06 12:32:47.713
85.0, -247.91796806268394, -185.89359724754468, -187.34093853039667, -186.76125403726473, 0.12800000607967377, 0.12800000607967377, 1.0240000486373901, 0.0, 0.0, 0.0, 0.0, 0.0, 1.651836767725997E9, 0.0, 2022-05-06 12:32:47.725
85.0, -316.42171555105597, -256.38323161238804, -250.73598267929628, -234.35896077333018, 0.12800000607967377, 0.12800000607967377, 1.0240000486373901, 0.0, 0.0, 0.0, 0.0, 0.0, 1.651836767725997E9, 0.0, 2022-05-06 12:32:47.725
86.0, -252.42828740924597, -119.19996133772656, -172.13076541060582, -171.99612901220098, 0.12800000607967377, 0.12800000607967377, 1.0240000486373901, 0.0, 0.0, 0.0, 0.0, 0.0, 1.6518367677410543E9, 0.0, 2022-05-06 12:32:47.741
86.0, -198.3530739499256, -49.34610996535048, -105.48948810016736, -139.02143110288307, 0.12800000607967377, 0.12800000607967377, 1.0240000486373901, 0.0, 0.0, 0.0, 0.0, 0.0, 1.6518367677410543E9, 0.0, 2022-05-06 12:32:47.741
87.0, -258.0082181431353, -187.97672152286395, -191.94475537585095, -193.2985991598107, 0.12800000607967377, 0.12800000607967377, 1.0240000486373901, 0.0, 0.0, 0.0, 0.0, 0.0, 1.6518367677419283E9, 0.0, 2022-05-06 12:32:47.741
87.0, -312.39384329877794, -251.88787186564878, -246.18826433317736, -234.2056248751469, 0.12800000607967377, 0.12800000607967377, 1.0240000486373901, 0.0, 0.0, 0.0, 0.0, 0.0, 1.6518367677419283E9, 0.0, 2022-05-06 12:32:47.741
88.0, -259.9305267203599, -122.90994209377095, -168.23752955673262, -173.9184375894256, 0.12800000607967377, 0.12800000607967377, 1.0240000486373901, 0.0, 0.0, 0.0, 0.0, 0.0, 1.6518367677560325E9, 0.0, 2022-05-06 12:32:47.756
88.0, -197.85192735586315, -47.087210392113775, -96.79422070318833, -118.19018834969029, 0.12800000607967377, 0.12800000607967377, 1.0240000486373901, 0.0, 0.0, 0.0, 0.0, 0.0, 1.6518367677560325E9, 0.0, 2022-05-06 12:32:47.756
89.0, -237.3340511880815, -171.09107322292402, -179.3599920249544, -188.1412771209143, 0.12800000607967377, 0.12800000607967377, 1.0240000486373901, 0.0, 0.0, 0.0, 0.0, 0.0, 1.6518367677709825E9, 0.0, 2022-05-06 12:32:47.770
89.0, -314.7499802708626, -259.2816540780477, -251.9140511653386, -229.500830730889, 0.12800000607967377, 0.12800000607967377, 1.0240000486373901, 0.0, 0.0, 0.0, 0.0, 0.0, 1.6518367677709825E9, 0.0, 2022-05-06 12:32:47.770
90.0, -263.95091917272657, -129.36500941729173, -183.42900317674503, -183.46640217630193, 0.12800000607967377, 0.12800000607967377, 1.0240000486373901, 0.0, 0.0, 0.0, 0.0, 0.0, 1.65183676777199E9, 0.0, 2022-05-06 12:32:47.771
90.0, -204.40797197818756, -56.62021537916735, -116.71292786719278, -157.19734488753602, 0.12800000607967377, 0.12800000607967377, 1.0240000486373901, 0.0, 0.0, 0.0, 0.0, 0.0, 1.65183676777199E9, 0.0, 2022-05-06 12:32:47.771
91.0, -253.59513619542122, -183.43274307670072, -184.6295110625215, -185.2166753555648, 0.12800000607967377, 0.12800000607967377, 1.0240000486373901, 0.0, 0.0, 0.0, 0.0, 0.0, 1.651836767785981E9, 0.0, 2022-05-06 12:32:47.785
91.0, -314.7836393704638, -261.82852594787255, -258.45139628788456, -241.93973798351362, 0.12800000607967377, 0.12800000607967377, 1.0240000486373901, 0.0, 0.0, 0.0, 0.0, 0.0, 1.651836767785981E9, 0.0, 2022-05-06 12:32:47.785
92.0, -253.95416659116745, -124.39468237617984, -180.1416311156936, -184.12462456850335, 0.12800000607967377, 0.12800000607967377, 1.0240000486373901, 0.0, 0.0, 0.0, 0.0, 0.0, 1.6518367678010197E9, 0.0, 2022-05-06 12:32:47.801
92.0, -196.5429623713717, -49.64156206184998, -115.11973048606887, -148.56191588984802, 0.12800000607967377, 0.12800000607967377, 1.0240000486373901, 0.0, 0.0, 0.0, 0.0, 0.0, 1.6518367678010197E9, 0.0, 2022-05-06 12:32:47.801
93.0, -256.88624815642834, -188.16371652064845, -187.29979963088408, -189.8167523010634, 0.12800000607967377, 0.12800000607967377, 1.0240000486373901, 0.0, 0.0, 0.0, 0.0, 0.0, 1.651836767801954E9, 0.0, 2022-05-06 12:32:47.801
93.0, -312.9548282921314, -258.6196917858906, -249.5840934929438, -223.386094303336, 0.12800000607967377, 0.12800000607967377, 1.0240000486373901, 0.0, 0.0, 0.0, 0.0, 0.0, 1.651836767801954E9, 0.0, 2022-05-06 12:32:47.801
94.0, -254.56003038398921, -124.69387437263504, -175.51911477046087, -183.48884157603607, 0.12800000607967377, 0.12800000607967377, 1.0240000486373901, 0.0, 0.0, 0.0, 0.0, 0.0, 1.651836767815982E9, 0.0, 2022-05-06 12:32:47.815
94.0, -196.1278334762901, -40.96125426469371, -100.13021146366373, -130.82731029996648, 0.12800000607967377, 0.12800000607967377, 1.0240000486373901, 0.0, 0.0, 0.0, 0.0, 0.0, 1.651836767815982E9, 0.0, 2022-05-06 12:32:47.815
95.0, -253.29594419896603, -188.19737562024966, -190.4787145932205, -196.40271612303331, 0.12800000607967377, 0.12800000607967377, 1.0240000486373901, 0.0, 0.0, 0.0, 0.0, 0.0, 1.6518367678310308E9, 0.0, 2022-05-06 12:32:47.831
95.0, -311.0773985143751, -258.4476563879289, -257.05267370445654, -237.47803733637556, 0.12800000607967377, 0.12800000607967377, 1.0240000486373901, 0.0, 0.0, 0.0, 0.0, 0.0, 1.6518367678310308E9, 0.0, 2022-05-06 12:32:47.831
96.0, -250.12824893649668, -122.38635609997436, -174.7299958798103, -179.3300728253089, 0.12800000607967377, 0.12800000607967377, 1.0240000486373901, 0.0, 0.0, 0.0, 0.0, 0.0, 1.6518367678319376E9, 0.0, 2022-05-06 12:32:47.831
96.0, -198.48023054841906, -46.649642097298056, -102.9949748297222, -126.1150363557972, 0.12800000607967377, 0.12800000607967377, 1.0240000486373901, 0.0, 0.0, 0.0, 0.0, 0.0, 1.6518367678319376E9, 0.0, 2022-05-06 12:32:47.831
97.0, -244.69791420083493, -175.8444860666059, -178.67185043310747, -167.79622136196122, 0.12800000607967377, 0.12800000607967377, 1.0240000486373901, 0.0, 0.0, 0.0, 0.0, 0.0, 1.6518367678459795E9, 0.0, 2022-05-06 12:32:47.845
97.0, -300.5421003391966, -245.75069603836164, -248.83237360185012, -228.24422434577718, 0.12800000607967377, 0.12800000607967377, 1.0240000486373901, 0.0, 0.0, 0.0, 0.0, 0.0, 1.6518367678459795E9, 0.0, 2022-05-06 12:32:47.845
98.0, -247.18494767136872, -107.13130418071523, -163.3532202146016, -167.68028446333483, 0.12800000607967377, 0.12800000607967377, 1.0240000486373901, 0.0, 0.0, 0.0, 0.0, 0.0, 1.6518367678609838E9, 0.0, 2022-05-06 12:32:47.860
98.0, -190.91441293805838, -40.01879947585985, -91.60323956469074, -119.5178528339602, 0.12800000607967377, 0.12800000607967377, 1.0240000486373901, 0.0, 0.0, 0.0, 0.0, 0.0, 1.6518367678609838E9, 0.0, 2022-05-06 12:32:47.860
99.0, -251.97949941456318, -176.76076155574992, -178.01362804090604, -185.3251324542798, 0.12800000607967377, 0.12800000607967377, 1.0240000486373901, 0.0, 0.0, 0.0, 0.0, 0.0, 1.651836767861945E9, 0.0, 2022-05-06 12:32:47.861
99.0, -305.1758363842964, -260.60183876240626, -264.87280451180413, -257.17983030295, 0.12800000607967377, 0.12800000607967377, 1.0240000486373901, 0.0, 0.0, 0.0, 0.0, 0.0, 1.651836767861945E9, 0.0, 2022-05-06 12:32:47.861
100.0, -263.13936088234186, -131.0442244973965, -191.09579808590934, -200.58766417345032, 0.12800000607967377, 0.12800000607967377, 1.0240000486373901, 0.0, 0.0, 0.0, 0.0, 0.0, 1.6518367678759875E9, 0.0, 2022-05-06 12:32:47.875
100.0, -200.85880692023784, -53.134628620464355, -105.44834920065477, -142.81742955790833, 0.12800000607967377, 0.12800000607967377, 1.0240000486373901, 0.0, 0.0, 0.0, 0.0, 0.0, 1.6518367678759875E9, 0.0, 2022-05-06 12:32:47.875
0.0, -253.477329346817, -189.59796815365553, -192.2589069721289, -195.69213513145223, 0.12800000607967377, 0.12800000607967377, 1.0240000486373901, 0.0, 0.0, 0.0, 0.0, 0.0, 1.65183676787693E9, 0.0, 2022-05-06 12:32:47.876
1.0, -316.0645551052876, -254.50019198469818, -248.79497460229322, -230.59288151795045, 0.12800000607967377, 0.12800000607967377, 1.0240000486373901, 0.0, 0.0, 0.0, 0.0, 0.0, 1.6518367678909965E9, 0.0, 2022-05-06 12:32:47.890
1.0, -257.19478990277275, -124.49378972500563, -187.09784503327683, -190.01122709875926, 0.12800000607967377, 0.12800000607967377, 1.0240000486373901, 0.0, 0.0, 0.0, 0.0, 0.0, 1.6518367678909965E9, 0.0, 2022-05-06 12:32:47.890
2.0, -193.1116041620262, -49.54993451293558, -105.78868009662256, -142.67157345963642, 0.12800000607967377, 0.12800000607967377, 1.0240000486373901, 0.0, 0.0, 0.0, 0.0, 0.0, 1.6518367679060187E9, 0.0, 2022-05-06 12:32:47.906
2.0, -265.6918426021002, -189.02202356047928, -188.94161571143195, -194.28219284815714, 0.12800000607967377, 0.12800000607967377, 1.0240000486373901, 0.0, 0.0, 0.0, 0.0, 0.0, 1.6518367679060187E9, 0.0, 2022-05-06 12:32:47.906
3.0, -303.06840275926515, -249.21197344735265, -242.41470527788624, -212.36086923396215, 0.12800000607967377, 0.12800000607967377, 1.0240000486373901, 0.0, 0.0, 0.0, 0.0, 0.0, 1.651836767906932E9, 0.0, 2022-05-06 12:32:47.906
3.0, -249.7636086908169, -115.9817774258554, -181.39075770089403, -174.56544028175995, 0.12800000607967377, 0.12800000607967377, 1.0240000486373901, 0.0, 0.0, 0.0, 0.0, 0.0, 1.651836767906932E9, 0.0, 2022-05-06 12:32:47.906
4.0, -202.43517475156114, -54.45294335484505, -106.4768216884695, -145.03145033167675, 0.12800000607967377, 0.12800000607967377, 1.0240000486373901, 0.0, 0.0, 0.0, 0.0, 0.0, 1.6518367679209864E9, 0.0, 2022-05-06 12:32:47.920
4.0, -254.44222353538498, -189.79992275126278, -184.86886465968564, -197.64810280827805, 0.12800000607967377, 0.12800000607967377, 1.0240000486373901, 0.0, 0.0, 0.0, 0.0, 0.0, 1.6518367679209864E9, 0.0, 2022-05-06 12:32:47.920
5.0, -311.7187913567759, -258.9843320315704, -252.71064985590056, -240.27174260327592, 0.12800000607967377, 0.12800000607967377, 1.0240000486373901, 0.0, 0.0, 0.0, 0.0, 0.0, 1.651836767935988E9, 0.0, 2022-05-06 12:32:47.935
5.0, -249.67385109188035, -118.95499789062887, -170.03642143541947, -183.30932637816295, 0.12800000607967377, 0.12800000607967377, 1.0240000486373901, 0.0, 0.0, 0.0, 0.0, 0.0, 1.651836767935988E9, 0.0, 2022-05-06 12:32:47.935
6.0, -203.92365493392572, -54.580099953338504, -108.2570140673779, -141.06715637864545, 0.12800000607967377, 0.12800000607967377, 1.0240000486373901, 0.0, 0.0, 0.0, 0.0, 0.0, 1.651836767936934E9, 0.0, 2022-05-06 12:32:47.936
6.0, -252.6582912565209, -185.99644449632615, -185.19423595583066, -190.08602509787306, 0.12800000607967377, 0.12800000607967377, 1.0240000486373901, 0.0, 0.0, 0.0, 0.0, 0.0, 1.651836767936934E9, 0.0, 2022-05-06 12:32:47.936
7.0, -301.0899956827052, -253.0865098014474, -247.9497572123073, -224.02935709571466, 0.12800000607967377, 0.12800000607967377, 1.0240000486373901, 0.0, 0.0, 0.0, 0.0, 0.0, 1.6518367679509974E9, 0.0, 2022-05-06 12:32:47.950
7.0, -245.73947633849457, -116.62130031827837, -169.37071924330667, -164.60234679980204, 0.12800000607967377, 0.12800000607967377, 1.0240000486373901, 0.0, 0.0, 0.0, 0.0, 0.0, 1.6518367679509974E9, 0.0, 2022-05-06 12:32:47.950
8.0, -193.17892236122862, -52.874705573543906, -106.22998829139397, -141.61318177217618, 0.12800000607967377, 0.12800000607967377, 1.0240000486373901, 0.0, 0.0, 0.0, 0.0, 0.0, 1.6518367679659872E9, 0.0, 2022-05-06 12:32:47.965
8.0, -254.86109233042225, -188.96218516118824, -187.34841833030805, -186.65279693854973, 0.12800000607967377, 0.12800000607967377, 1.0240000486373901, 0.0, 0.0, 0.0, 0.0, 0.0, 1.6518367679659872E9, 0.0, 2022-05-06 12:32:47.965
9.0, -313.14743313984945, -261.4152670027688, -265.3702112059109, -249.8010076903738, 0.12800000607967377, 0.12800000607967377, 1.0240000486373901, 0.0, 0.0, 0.0, 0.0, 0.0, 1.6518367679669323E9, 0.0, 2022-05-06 12:32:47.966
9.0, -251.3942050714977, -121.03438226599246, -179.12063842779025, -186.12547104479745, 0.12800000607967377, 0.12800000607967377, 1.0240000486373901, 0.0, 0.0, 0.0, 0.0, 0.0, 1.6518367679669323E9, 0.0, 2022-05-06 12:32:47.966
10.0, -196.49621362192556, -53.25617536902428, -108.55994596378878, -125.86446305876598, 0.12800000607967377, 0.12800000607967377, 1.0240000486373901, 0.0, 0.0, 0.0, 0.0, 0.0, 1.65183676798098E9, 0.0, 2022-05-06 12:32:47.980
10.0, -256.64128470933065, -187.62330097705126, -183.55615977523848, -178.436236735899, 0.12800000607967377, 0.12800000607967377, 1.0240000486373901, 0.0, 0.0, 0.0, 0.0, 0.0, 1.65183676798098E9, 0.0, 2022-05-06 12:32:47.980
11.0, -302.36530156759545, -247.73097306489944, -252.72186955576763, -232.0963213001378, 0.12800000607967377, 0.12800000607967377, 1.0240000486373901, 0.0, 0.0, 0.0, 0.0, 0.0, 1.6518367679960186E9, 0.0, 2022-05-06 12:32:47.996
11.0, -252.82284685457125, -122.53034224826843, -178.96730252960697, -195.73327403096482, 0.12800000607967377, 0.12800000607967377, 1.0240000486373901, 0.0, 0.0, 0.0, 0.0, 0.0, 1.6518367679960186E9, 0.0, 2022-05-06 12:32:47.996
12.0, -199.54049218585715, -55.44775674305856, -111.94455542368814, -150.6824391647242, 0.12800000607967377, 0.12800000607967377, 1.0240000486373901, 0.0, 0.0, 0.0, 0.0, 0.0, 1.651836767996925E9, 0.0, 2022-05-06 12:32:47.996
12.0, -261.71632894920185, -191.7596303280443, -191.69418207881972, -200.97287386888638, 0.12800000607967377, 0.12800000607967377, 1.0240000486373901, 0.0, 0.0, 0.0, 0.0, 0.0, 1.651836767996925E9, 0.0, 2022-05-06 12:32:47.996
13.0, -315.11088061658666, -254.52263138443232, -254.29636743711308, -234.8301881677471, 0.12800000607967377, 0.12800000607967377, 1.0240000486373901, 0.0, 0.0, 0.0, 0.0, 0.0, 1.6518367680109842E9, 0.0, 2022-05-06 12:32:48.010
13.0, -243.40577876614407, -113.60694095399231, -161.2102575399913, -170.71708322735503, 0.12800000607967377, 0.12800000607967377, 1.0240000486373901, 0.0, 0.0, 0.0, 0.0, 0.0, 1.6518367680109842E9, 0.0, 2022-05-06 12:32:48.010
14.0, -202.412735351827, -49.9501038081944, -112.15024992125109, -146.66204671235755, 0.12800000607967377, 0.12800000607967377, 1.0240000486373901, 0.0, 0.0, 0.0, 0.0, 0.0, 1.6518367680260177E9, 0.0, 2022-05-06 12:32:48.026
14.0, -255.66517082089558, -188.00851067248732, -181.86946489522234, -185.48594815237448, 0.12800000607967377, 0.12800000607967377, 1.0240000486373901, 0.0, 0.0, 0.0, 0.0, 0.0, 1.6518367680260177E9, 0.0, 2022-05-06 12:32:48.026
15.0, -304.4596455427818, -246.51924547925591, -244.22107695648447, -220.3792147389613, 0.12800000607967377, 0.12800000607967377, 1.0240000486373901, 0.0, 0.0, 0.0, 0.0, 0.0, 1.651836768026966E9, 0.0, 2022-05-06 12:32:48.026
15.0, -253.19683685014024, -116.47544422000647, -173.88477848982438, -185.80009974865243, 0.12800000607967377, 0.12800000607967377, 1.0240000486373901, 0.0, 0.0, 0.0, 0.0, 0.0, 1.651836768026966E9, 0.0, 2022-05-06 12:32:48.026
16.0, -201.28328556520864, -54.25472865719348, -107.46789517672732, -142.36116176331416, 0.12800000607967377, 0.12800000607967377, 1.0240000486373901, 0.0, 0.0, 0.0, 0.0, 0.0, 1.6518367680409985E9, 0.0, 2022-05-06 12:32:48.040
16.0, -259.30409347778186, -191.69231212884188, -188.50778731657192, -184.8464252599515, 0.12800000607967377, 0.12800000607967377, 1.0240000486373901, 0.0, 0.0, 0.0, 0.0, 0.0, 1.6518367680409985E9, 0.0, 2022-05-06 12:32:48.040
17.0, -309.56086908234283, -253.69985339418054, -255.94940321752802, -237.40697923721746, 0.12800000607967377, 0.12800000607967377, 1.0240000486373901, 0.0, 0.0, 0.0, 0.0, 0.0, 1.6518367680560372E9, 0.0, 2022-05-06 12:32:48.056
17.0, -253.31277374876663, -117.313181810081, -174.7673948793672, -179.02340102894232, 0.12800000607967377, 0.12800000607967377, 1.0240000486373901, 0.0, 0.0, 0.0, 0.0, 0.0, 1.6518367680560372E9, 0.0, 2022-05-06 12:32:48.056
18.0, -192.35614437097684, -48.499022625386715, -99.4719890714623, -130.47949960408732, 0.12800000607967377, 0.12800000607967377, 1.0240000486373901, 0.0, 0.0, 0.0, 0.0, 0.0, 1.6518367680569284E9, 0.0, 2022-05-06 12:32:48.056
18.0, -252.1721042622812, -187.26801048126072, -181.04294700501487, -178.92616363009438, 0.12800000607967377, 0.12800000607967377, 1.0240000486373901, 0.0, 0.0, 0.0, 0.0, 0.0, 1.6518367680569284E9, 0.0, 2022-05-06 12:32:48.056
19.0, -306.6923658163287, -245.7488260883838, -243.15520546911284, -223.7937433985062, 0.12800000607967377, 0.12800000607967377, 1.0240000486373901, 0.0, 0.0, 0.0, 0.0, 0.0, 1.6518367680709927E9, 0.0, 2022-05-06 12:32:48.070
19.0, -255.12662522727624, -117.66847230587155, -183.53372037550434, -190.08602509787306, 0.12800000607967377, 0.12800000607967377, 1.0240000486373901, 0.0, 0.0, 0.0, 0.0, 0.0, 1.6518367680709927E9, 0.0, 2022-05-06 12:32:48.070
20.0, -201.93776805745438, -56.46126963105053, -103.07725262874737, -135.3376296465285, 0.12800000607967377, 0.12800000607967377, 1.0240000486373901, 0.0, 0.0, 0.0, 0.0, 0.0, 1.651836768085984E9, 0.0, 2022-05-06 12:32:48.085
20.0, -258.1783835911192, -195.51822978351265, -195.90904932888225, -194.6300035440363, 0.12800000607967377, 0.12800000607967377, 1.0240000486373901, 0.0, 0.0, 0.0, 0.0, 0.0, 1.651836768085984E9, 0.0, 2022-05-06 12:32:48.085
21.0, -308.92134618991986, -258.66270063538104, -256.45428971154615, -230.60036131786183, 0.12800000607967377, 0.12800000607967377, 1.0240000486373901, 0.0, 0.0, 0.0, 0.0, 0.0, 1.6518367680869465E9, 0.0, 2022-05-06 12:32:48.086
21.0, -254.6927968324162, -123.22596364002675, -180.16781041538343, -193.27241986012086, 0.12800000607967377, 0.12800000607967377, 1.0240000486373901, 0.0, 0.0, 0.0, 0.0, 0.0, 1.6518367680869465E9, 0.0, 2022-05-06 12:32:48.086
22.0, -207.3419234934263, -77.91707567684352, -131.20878009544685, -168.74989585066214, 0.12800000607967377, 0.12800000607967377, 1.0240000486373901, 0.0, 0.0, 0.0, 0.0, 0.0, 1.651836768101035E9, 0.0, 2022-05-06 12:32:48.101
22.0, -254.1430315389298, -198.99633674230427, -192.67403586721048, -201.2982451650314, 0.12800000607967377, 0.12800000607967377, 1.0240000486373901, 0.0, 0.0, 0.0, 0.0, 0.0, 1.651836768101035E9, 0.0, 2022-05-06 12:32:48.101
23.0, -314.7144512212835, -249.42140784487128, -246.31168103171512, -229.3474948327057, 0.12800000607967377, 0.12800000607967377, 1.0240000486373901, 0.0, 0.0, 0.0, 0.0, 0.0, 1.6518367681309888E9, 0.0, 2022-05-06 12:32:48.130
23.0, -247.22047672094777, -113.40498635638505, -166.66303167538717, -177.81541334325448, 0.12800000607967377, 0.12800000607967377, 1.0240000486373901, 0.0, 0.0, 0.0, 0.0, 0.0, 1.6518367681309888E9, 0.0, 2022-05-06 12:32:48.130
24.0, -196.47003432223573, -50.555967601016164, -100.81835305551067, -131.0778835969977, 0.12800000607967377, 0.12800000607967377, 1.0240000486373901, 0.0, 0.0, 0.0, 0.0, 0.0, 1.6518367681479871E9, 0.0, 2022-05-06 12:32:48.147
24.0, -250.77338167885318, -191.06026903633028, -190.37773729441687, -187.9580220230855, 0.12800000607967377, 0.12800000607967377, 1.0240000486373901, 0.0, 0.0, 0.0, 0.0, 0.0, 1.6518367681479871E9, 0.0, 2022-05-06 12:32:48.147
25.0, -287.3683027452789, -236.21208120137453, -237.70617123367265, -211.88590193958953, 0.12800000607967377, 0.12800000607967377, 1.0240000486373901, 0.0, 0.0, 0.0, 0.0, 0.0, 1.6518367681489716E9, 0.0, 2022-05-06 12:32:48.148
25.0, -247.62438591616228, -111.9052864741534, -169.35201974352822, -179.59186582220718, 0.12800000607967377, 0.12800000607967377, 1.0240000486373901, 0.0, 0.0, 0.0, 0.0, 0.0, 1.6518367681489716E9, 0.0, 2022-05-06 12:32:48.148
26.0, -202.0050862566568, -55.62727194093168, -105.50444769999012, -128.55345112690702, 0.12800000607967377, 0.12800000607967377, 1.0240000486373901, 0.0, 0.0, 0.0, 0.0, 0.0, 1.6518367681499684E9, 0.0, 2022-05-06 12:32:48.149
26.0, -250.0590607873164, -188.760230563581, -188.19363572029397, -186.39474384160712, 0.12800000607967377, 0.12800000607967377, 1.0240000486373901, 0.0, 0.0, 0.0, 0.0, 0.0, 1.6518367681499684E9, 0.0, 2022-05-06 12:32:48.149
27.0, -308.29304299736395, -253.46423969697207, -254.37490533618256, -232.33567489730194, 0.12800000607967377, 0.12800000607967377, 1.0240000486373901, 0.0, 0.0, 0.0, 0.0, 0.0, 1.6518367681509435E9, 0.0, 2022-05-06 12:32:48.150
27.0, -242.63535937527195, -105.34924185182899, -158.77932256879285, -164.05258150631562, 0.12800000607967377, 0.12800000607967377, 1.0240000486373901, 0.0, 0.0, 0.0, 0.0, 0.0, 1.6518367681509435E9, 0.0, 2022-05-06 12:32:48.150
28.0, -204.1891878307797, -55.53377444203943, -112.96928801154718, -142.35742186335847, 0.12800000607967377, 0.12800000607967377, 1.0240000486373901, 0.0, 0.0, 0.0, 0.0, 0.0, 1.6518367681609955E9, 0.0, 2022-05-06 12:32:48.160
28.0, -264.6184913148172, -193.71559800487012, -191.039699586574, -200.92051526950672, 0.12800000607967377, 0.12800000607967377, 1.0240000486373901, 0.0, 0.0, 0.0, 0.0, 0.0, 1.6518367681609955E9, 0.0, 2022-05-06 12:32:48.160
29.0, -310.95959166577086, -258.2662712400779, -253.97473604092374, -238.32699462631717, 0.12800000607967377, 0.12800000607967377, 1.0240000486373901, 0.0, 0.0, 0.0, 0.0, 0.0, 1.6518367681759968E9, 0.0, 2022-05-06 12:32:48.175
29.0, -242.62787957536057, -110.72347808815539, -160.60813364712521, -170.48520943010226, 0.12800000607967377, 0.12800000607967377, 1.0240000486373901, 0.0, 0.0, 0.0, 0.0, 0.0, 1.6518367681759968E9, 0.0, 2022-05-06 12:32:48.175
30.0, -195.19098853738979, -47.45559053774923, -94.08653313526884, -128.45995362801477, 0.12800000607967377, 0.12800000607967377, 1.0240000486373901, 0.0, 0.0, 0.0, 0.0, 0.0, 1.6518367681769276E9, 0.0, 2022-05-06 12:32:48.176
30.0, -254.22530933795497, -193.06859531253576, -193.86332405311987, -194.27097314829007, 0.12800000607967377, 0.12800000607967377, 1.0240000486373901, 0.0, 0.0, 0.0, 0.0, 0.0, 1.6518367681769276E9, 0.0, 2022-05-06 12:32:48.176
31.0, -301.2059325813316, -244.18180800694972, -244.33327395515516, -218.68877995898947, 0.12800000607967377, 0.12800000607967377, 1.0240000486373901, 0.0, 0.0, 0.0, 0.0, 0.0, 1.6518367681910055E9, 0.0, 2022-05-06 12:32:48.191
31.0, -237.75478993309662, -104.02905716747046, -163.73842991003767, -164.3517735027708, 0.12800000607967377, 0.12800000607967377, 1.0240000486373901, 0.0, 0.0, 0.0, 0.0, 0.0, 1.6518367681910055E9, 0.0, 2022-05-06 12:32:48.191
32.0, -193.7735664541833, -50.79532119818032, -110.85250463662669, -134.1520813605748, 0.12800000607967377, 0.12800000607967377, 1.0240000486373901, 0.0, 0.0, 0.0, 0.0, 0.0, 1.6518367682060337E9, 0.0, 2022-05-06 12:32:48.206
32.0, -256.92925700591877, -188.0945283714682, -186.33864534227178, -199.03186579188332, 0.12800000607967377, 0.12800000607967377, 1.0240000486373901, 0.0, 0.0, 0.0, 0.0, 0.0, 1.6518367682060337E9, 0.0, 2022-05-06 12:32:48.206
33.0, -300.2036393932067, -247.28218507021666, -245.88533243676648, -232.08136170031503, 0.12800000607967377, 0.12800000607967377, 1.0240000486373901, 0.0, 0.0, 0.0, 0.0, 0.0, 1.6518367682069252E9, 0.0, 2022-05-06 12:32:48.206
33.0, -245.60483994008973, -106.44129263889045, -162.14149262895808, -169.19868384534493, 0.12800000607967377, 0.12800000607967377, 1.0240000486373901, 0.0, 0.0, 0.0, 0.0, 0.0, 1.6518367682069252E9, 0.0, 2022-05-06 12:32:48.206
34.0, -205.0381451207213, -67.86422459594905, -123.42604828765616, -160.7577296453528, 0.12800000607967377, 0.12800000607967377, 1.0240000486373901, 0.0, 0.0, 0.0, 0.0, 0.0, 1.651836768221001E9, 0.0, 2022-05-06 12:32:48.221
34.0, -260.49338166369125, -199.5386222358793, -189.22584810806438, -195.08627133863047, 0.12800000607967377, 0.12800000607967377, 1.0240000486373901, 0.0, 0.0, 0.0, 0.0, 0.0, 1.651836768221001E9, 0.0, 2022-05-06 12:32:48.221
35.0, -306.7596840155311, -254.7507652817294, -251.13241207459942, -229.60180802969262, 0.12800000607967377, 0.12800000607967377, 1.0240000486373901, 0.0, 0.0, 0.0, 0.0, 0.0, 1.651836768235989E9, 0.0, 2022-05-06 12:32:48.235
35.0, -246.36403963109478, -110.83941498678178, -165.2119504925795, -172.8787454017438, 0.12800000607967377, 0.12800000607967377, 1.0240000486373901, 0.0, 0.0, 0.0, 0.0, 0.0, 1.651836768235989E9, 0.0, 2022-05-06 12:32:48.235
36.0, -199.1552824904211, -55.96760283689946, -116.91114256484434, -146.83782201027498, 0.12800000607967377, 0.12800000607967377, 1.0240000486373901, 0.0, 0.0, 0.0, 0.0, 0.0, 1.6518367682369328E9, 0.0, 2022-05-06 12:32:48.236
36.0, -253.41001114761457, -195.66782578174025, -193.5903113563545, -192.5206999690272, 0.12800000607967377, 0.12800000607967377, 1.0240000486373901, 0.0, 0.0, 0.0, 0.0, 0.0, 1.6518367682369328E9, 0.0, 2022-05-06 12:32:48.236
37.0, -298.9320734082721, -241.83315083477646, -245.38792574265972, -221.4525660262443, 0.12800000607967377, 0.12800000607967377, 1.0240000486373901, 0.0, 0.0, 0.0, 0.0, 0.0, 1.6518367682669885E9, 0.0, 2022-05-06 12:32:48.266
37.0, -246.00874913530424, -114.7214311407879, -172.6543514044024, -183.23452837904915, 0.12800000607967377, 0.12800000607967377, 1.0240000486373901, 0.0, 0.0, 0.0, 0.0, 0.0, 1.6518367682669885E9, 0.0, 2022-05-06 12:32:48.266
38.0, -204.70155412470922, -59.0642400002107, -110.60941113950685, -134.98607905069366, 0.12800000607967377, 0.12800000607967377, 1.0240000486373901, 0.0, 0.0, 0.0, 0.0, 0.0, 1.6518367682679398E9, 0.0, 2022-05-06 12:32:48.267
38.0, -256.01672141673043, -192.01020362507552, -190.46375499339774, -191.80263917753473, 0.12800000607967377, 0.12800000607967377, 1.0240000486373901, 0.0, 0.0, 0.0, 0.0, 0.0, 1.6518367682679398E9, 0.0, 2022-05-06 12:32:48.267
39.0, -295.4651861493476, -238.27276607695967, -227.2007922581397, -200.53156567411497, 0.12800000607967377, 0.12800000607967377, 1.0240000486373901, 0.0, 0.0, 0.0, 0.0, 0.0, 1.6518367682689438E9, 0.0, 2022-05-06 12:32:48.268
39.0, -243.89196576038375, -109.56410910189152, -162.75109632173553, -159.40388586139306, 0.12800000607967377, 0.12800000607967377, 1.0240000486373901, 0.0, 0.0, 0.0, 0.0, 0.0, 1.6518367682689438E9, 0.0, 2022-05-06 12:32:48.268
40.0, -195.63603663211688, -53.8395997621119, -105.80363969644532, -148.14304709481075, 0.12800000607967377, 0.12800000607967377, 1.0240000486373901, 0.0, 0.0, 0.0, 0.0, 0.0, 1.6518367682809987E9, 0.0, 2022-05-06 12:32:48.280
40.0, -260.68037666147575, -201.4272717135027, -202.5623313500546, -204.79505162360147, 0.12800000607967377, 0.12800000607967377, 1.0240000486373901, 0.0, 0.0, 0.0, 0.0, 0.0, 1.6518367682809987E9, 0.0, 2022-05-06 12:32:48.280
41.0, -321.23309684405103, -261.2619311045855, -262.4792685401626, -242.32494767894968, 0.12800000607967377, 0.12800000607967377, 1.0240000486373901, 0.0, 0.0, 0.0, 0.0, 0.0, 1.651836768296001E9, 0.0, 2022-05-06 12:32:48.296
41.0, -237.6837318339385, -110.18119259458035, -161.44961113715544, -167.75134256249294, 0.12800000607967377, 0.12800000607967377, 1.0240000486373901, 0.0, 0.0, 0.0, 0.0, 0.0, 1.651836768296001E9, 0.0, 2022-05-06 12:32:48.296
42.0, -199.60033058514819, -58.361138808541, -118.94190824078396, -145.15486703021452, 0.12800000607967377, 0.12800000607967377, 1.0240000486373901, 0.0, 0.0, 0.0, 0.0, 0.0, 1.6518367682969577E9, 0.0, 2022-05-06 12:32:48.296
42.0, -280.1951746302657, -209.38951871916652, -200.73726017167792, -207.0053324974142, 0.12800000607967377, 0.12800000607967377, 1.0240000486373901, 0.0, 0.0, 0.0, 0.0, 0.0, 1.6518367682969577E9, 0.0, 2022-05-06 12:32:48.296
43.0, -319.6885181623511, -257.21909925248474, -254.42726393556222, -237.1339665404521, 0.12800000607967377, 0.12800000607967377, 1.0240000486373901, 0.0, 0.0, 0.0, 0.0, 0.0, 1.6518367683109825E9, 0.0, 2022-05-06 12:32:48.310
43.0, -253.67928394442424, -114.00711024925113, -166.62189277587458, -180.60163881024346, 0.12800000607967377, 0.12800000607967377, 1.0240000486373901, 0.0, 0.0, 0.0, 0.0, 0.0, 1.6518367683109825E9, 0.0, 2022-05-06 12:32:48.310
44.0, -205.36725631682202, -65.72874172125012, -121.49625991052017, -154.8374680154957, 0.12800000607967377, 0.12800000607967377, 1.0240000486373901, 0.0, 0.0, 0.0, 0.0, 0.0, 1.6518367683259883E9, 0.0, 2022-05-06 12:32:48.325
44.0, -270.6733893430792, -206.30410125572234, -197.78647910663858, -206.5939435022883, 0.12800000607967377, 0.12800000607967377, 1.0240000486373901, 0.0, 0.0, 0.0, 0.0, 0.0, 1.6518367683259883E9, 0.0, 2022-05-06 12:32:48.325
45.0, -322.4747436293401, -264.51190416608006, -265.72550170170143, -242.68397807469591, 0.12800000607967377, 0.12800000607967377, 1.0240000486373901, 0.0, 0.0, 0.0, 0.0, 0.0, 1.6518367683269396E9, 0.0, 2022-05-06 12:32:48.326
45.0, -251.9177910652943, -112.08480167202652, -172.22052300954238, -182.12377809220925, 0.12800000607967377, 0.12800000607967377, 1.0240000486373901, 0.0, 0.0, 0.0, 0.0, 0.0, 1.6518367683269396E9, 0.0, 2022-05-06 12:32:48.326
46.0, -208.72568647703156, -66.74225460924208, -117.25147346081212, -149.4931509788148, 0.12800000607967377, 0.12800000607967377, 1.0240000486373901, 0.0, 0.0, 0.0, 0.0, 0.0, 1.6518367683409903E9, 0.0, 2022-05-06 12:32:48.340
46.0, -268.05171947414055, -208.23762953281403, -204.39114242838696, -201.91906855767593, 0.12800000607967377, 0.12800000607967377, 1.0240000486373901, 0.0, 0.0, 0.0, 0.0, 0.0, 1.6518367683409903E9, 0.0, 2022-05-06 12:32:48.340
47.0, -308.70443199248984, -247.34950326941907, -251.04265447566286, -230.99679071316496, 0.12800000607967377, 0.12800000607967377, 1.0240000486373901, 0.0, 0.0, 0.0, 0.0, 0.0, 1.6518367683560002E9, 0.0, 2022-05-06 12:32:48.356
47.0, -250.8033008784987, -114.59053464233875, -170.15983813395724, -172.79646760271862, 0.12800000607967377, 0.12800000607967377, 1.0240000486373901, 0.0, 0.0, 0.0, 0.0, 0.0, 1.6518367683560002E9, 0.0, 2022-05-06 12:32:48.356
48.0, -201.57499776175246, -61.98510186560452, -109.52484015235677, -135.51340494444594, 0.12800000607967377, 0.12800000607967377, 1.0240000486373901, 0.0, 0.0, 0.0, 0.0, 0.0, 1.6518367683569558E9, 0.0, 2022-05-06 12:32:48.356
48.0, -266.0658325976692, -196.08295467682183, -196.32791812391952, -193.85958415316418, 0.12800000607967377, 0.12800000607967377, 1.0240000486373901, 0.0, 0.0, 0.0, 0.0, 0.0, 1.6518367683569558E9, 0.0, 2022-05-06 12:32:48.356
49.0, -299.8371291975491, -233.15658293757588, -238.03154252981767, -216.27654448756948, 0.12800000607967377, 0.12800000607967377, 1.0240000486373901, 0.0, 0.0, 0.0, 0.0, 0.0, 1.6518367683710043E9, 0.0, 2022-05-06 12:32:48.371
49.0, -253.07716005155817, -109.09662160743028, -171.08733332296833, -183.92640987085178, 0.12800000607967377, 0.12800000607967377, 1.0240000486373901, 0.0, 0.0, 0.0, 0.0, 0.0, 1.6518367683710043E9, 0.0, 2022-05-06 12:32:48.371
50.0, -197.2254941132851, -56.82777982670814, -105.0668794051744, -140.1621005893685, 0.12800000607967377, 0.12800000607967377, 1.0240000486373901, 0.0, 0.0, 0.0, 0.0, 0.0, 1.6518367683860185E9, 0.0, 2022-05-06 12:32:48.386
50.0, -256.7684413078241, -195.73888388089836, -181.86572499526665, -178.23802203824744, 0.12800000607967377, 0.12800000607967377, 1.0240000486373901, 0.0, 0.0, 0.0, 0.0, 0.0, 1.6518367683860185E9, 0.0, 2022-05-06 12:32:48.386
51.0, -313.4989837356843, -247.40560176875442, -248.2115502092056, -225.0877487831749, 0.12800000607967377, 0.12800000607967377, 1.0240000486373901, 0.0, 0.0, 0.0, 0.0, 0.0, 1.6518367683869588E9, 0.0, 2022-05-06 12:32:48.386
51.0, -243.5815540640615, -110.19241229444742, -168.0580143588595, -174.5878796814941, 0.12800000607967377, 0.12800000607967377, 1.0240000486373901, 0.0, 0.0, 0.0, 0.0, 0.0, 1.6518367683869588E9, 0.0, 2022-05-06 12:32:48.386
52.0, -202.20704085426405, -59.19139659870416, -109.07979205762967, -134.6345284548588, 0.12800000607967377, 0.12800000607967377, 1.0240000486373901, 0.0, 0.0, 0.0, 0.0, 0.0, 1.651836768401003E9, 0.0, 2022-05-06 12:32:48.401
52.0, -269.9964674510993, -202.14533250499517, -204.2303267302923, -211.86720243981108, 0.12800000607967377, 0.12800000607967377, 1.0240000486373901, 0.0, 0.0, 0.0, 0.0, 0.0, 1.651836768401003E9, 0.0, 2022-05-06 12:32:48.401
53.0, -304.84859513817355, -237.49112698622048, -239.51254291227087, -232.67600579326972, 0.12800000607967377, 0.12800000607967377, 1.0240000486373901, 0.0, 0.0, 0.0, 0.0, 0.0, 1.6518367684159906E9, 0.0, 2022-05-06 12:32:48.415
53.0, -252.83032665448263, -107.69789902400225, -166.11700628185645, -180.15285081556067, 0.12800000607967377, 0.12800000607967377, 1.0240000486373901, 0.0, 0.0, 0.0, 0.0, 0.0, 1.6518367684159906E9, 0.0, 2022-05-06 12:32:48.415
54.0, -207.39802199276164, -62.71064245700836, -113.81076550157741, -134.02118486212566, 0.12800000607967377, 0.12800000607967377, 1.0240000486373901, 0.0, 0.0, 0.0, 0.0, 0.0, 1.6518367684169247E9, 0.0, 2022-05-06 12:32:48.416
54.0, -271.8439780292101, -199.29926863871515, -199.89952258160338, -194.11763725010678, 0.12800000607967377, 0.12800000607967377, 1.0240000486373901, 0.0, 0.0, 0.0, 0.0, 0.0, 1.6518367684169247E9, 0.0, 2022-05-06 12:32:48.416
55.0, -323.4957363172434, -256.3888414623216, -262.486748340074, -245.70581723889336, 0.12800000607967377, 0.12800000607967377, 1.0240000486373901, 0.0, 0.0, 0.0, 0.0, 0.0, 1.6518367684310143E9, 0.0, 2022-05-06 12:32:48.431
55.0, -252.9500034530647, -109.6089879013598, -164.86413979670033, -170.47772963019088, 0.12800000607967377, 0.12800000607967377, 1.0240000486373901, 0.0, 0.0, 0.0, 0.0, 0.0, 1.6518367684310143E9, 0.0, 2022-05-06 12:32:48.431
56.0, -200.71482077194378, -63.432443148456514, -110.94600213551894, -135.6704807425849, 0.12800000607967377, 0.12800000607967377, 1.0240000486373901, 0.0, 0.0, 0.0, 0.0, 0.0, 1.651836768445978E9, 0.0, 2022-05-06 12:32:48.445
56.0, -271.31291223550215, -202.57168109994382, -195.28448603628203, -197.35639061173424, 0.12800000607967377, 0.12800000607967377, 1.0240000486373901, 0.0, 0.0, 0.0, 0.0, 0.0, 1.651836768445978E9, 0.0, 2022-05-06 12:32:48.445
57.0, -316.0159364058636, -243.46000731550157, -254.2178295380436, -232.8368214913644, 0.12800000607967377, 0.12800000607967377, 1.0240000486373901, 0.0, 0.0, 0.0, 0.0, 0.0, 1.6518367684469583E9, 0.0, 2022-05-06 12:32:48.446
57.0, -259.82767947157845, -114.13426684774458, -166.85750647308305, -185.41489005321637, 0.12800000607967377, 0.12800000607967377, 1.0240000486373901, 0.0, 0.0, 0.0, 0.0, 0.0, 1.6518367684469583E9, 0.0, 2022-05-06 12:32:48.446
58.0, -211.7811847408302, -73.9602615237236, -118.86711024167016, -156.12025370029733, 0.12800000607967377, 0.12800000607967377, 1.0240000486373901, 0.0, 0.0, 0.0, 0.0, 0.0, 1.6518367684610715E9, 0.0, 2022-05-06 12:32:48.461
58.0, -278.28408575290814, -223.71707544941455, -217.6004690718837, -215.01993810245767, 0.12800000607967377, 0.12800000607967377, 1.0240000486373901, 0.0, 0.0, 0.0, 0.0, 0.0, 1.6518367684610715E9, 0.0, 2022-05-06 12:32:48.461
59.0, -313.36434733727947, -251.02208502590656, -252.26186186121777, -233.28934938600287, 0.12800000607967377, 0.12800000607967377, 1.0240000486373901, 0.0, 0.0, 0.0, 0.0, 0.0, 1.6518367684760077E9, 0.0, 2022-05-06 12:32:48.476
59.0, -252.83032665448263, -110.22981129400432, -162.03303553024307, -175.55651377001777, 0.12800000607967377, 0.12800000607967377, 1.0240000486373901, 0.0, 0.0, 0.0, 0.0, 0.0, 1.6518367684760077E9, 0.0, 2022-05-06 12:32:48.476
60.0, -203.50478613888845, -63.23422845080495, -109.93248924752697, -141.27659077616408, 0.12800000607967377, 0.12800000607967377, 1.0240000486373901, 0.0, 0.0, 0.0, 0.0, 0.0, 1.6518367684769647E9, 0.0, 2022-05-06 12:32:48.476
60.0, -270.98380103940144, -208.24136943276972, -200.87563647003844, -199.45447448687628, 0.12800000607967377, 0.12800000607967377, 1.0240000486373901, 0.0, 0.0, 0.0, 0.0, 0.0, 1.6518367684769647E9, 0.0, 2022-05-06 12:32:48.476
61.0, -310.48462437139824, -245.70394728891551, -247.03348172316328, -235.03962256526574, 0.12800000607967377, 0.12800000607967377, 1.0240000486373901, 0.0, 0.0, 0.0, 0.0, 0.0, 1.651836768491001E9, 0.0, 2022-05-06 12:32:48.491
61.0, -236.58420124696568, -108.7188917119056, -158.62224677065387, -158.99249686626717, 0.12800000607967377, 0.12800000607967377, 1.0240000486373901, 0.0, 0.0, 0.0, 0.0, 0.0, 1.651836768491001E9, 0.0, 2022-05-06 12:32:48.491
62.0, -212.95177342696115, -69.23302797973156, -116.12202367419377, -137.24497862393036, 0.12800000607967377, 0.12800000607967377, 1.0240000486373901, 0.0, 0.0, 0.0, 0.0, 0.0, 1.6518367685059931E9, 0.0, 2022-05-06 12:32:48.505
62.0, -260.5831392626278, -193.45006510801613, -188.41428981767967, -191.61938407970592, 0.12800000607967377, 0.12800000607967377, 1.0240000486373901, 0.0, 0.0, 0.0, 0.0, 0.0, 1.6518367685059931E9, 0.0, 2022-05-06 12:32:48.505
63.0, -316.3525274018757, -246.64640207774937, -259.3190530776046, -245.01767564704642, 0.12800000607967377, 0.12800000607967377, 1.0240000486373901, 0.0, 0.0, 0.0, 0.0, 0.0, 1.6518367685069692E9, 0.0, 2022-05-06 12:32:48.506
63.0, -257.42292380006984, -113.82759505137801, -169.30340104410425, -182.9241166827269, 0.12800000607967377, 0.12800000607967377, 1.0240000486373901, 0.0, 0.0, 0.0, 0.0, 0.0, 1.6518367685069692E9, 0.0, 2022-05-06 12:32:48.506
64.0, -202.27809895342216, -61.59989217016846, -113.38067700667307, -138.32206981116906, 0.12800000607967377, 0.12800000607967377, 1.0240000486373901, 0.0, 0.0, 0.0, 0.0, 0.0, 1.6518367685210388E9, 0.0, 2022-05-06 12:32:48.521
64.0, -260.8411923595704, -204.29951487947255, -196.7767061186023, -202.19582115439698, 0.12800000607967377, 0.12800000607967377, 1.0240000486373901, 0.0, 0.0, 0.0, 0.0, 0.0, 1.6518367685210388E9, 0.0, 2022-05-06 12:32:48.521
65.0, -302.54481676546857, -239.35733706410974, -240.06978800566867, -220.96637903200462, 0.12800000607967377, 0.12800000607967377, 1.0240000486373901, 0.0, 0.0, 0.0, 0.0, 0.0, 1.651836768536002E9, 0.0, 2022-05-06 12:32:48.536
65.0, -252.29926086077467, -102.99684477970004, -157.96776427840814, -167.63540566386655, 0.12800000607967377, 0.12800000607967377, 1.0240000486373901, 0.0, 0.0, 0.0, 0.0, 0.0, 1.651836768536002E9, 0.0, 2022-05-06 12:32:48.536
66.0, -209.73545946506783, -66.06159281730652, -118.62027684459463, -152.6421467415057, 0.12800000607967377, 0.12800000607967377, 1.0240000486373901, 0.0, 0.0, 0.0, 0.0, 0.0, 1.6518367685369375E9, 0.0, 2022-05-06 12:32:48.536
66.0, -265.7741204011254, -203.74974958598614, -200.7821389711462, -201.95272765727714, 0.12800000607967377, 0.12800000607967377, 1.0240000486373901, 0.0, 0.0, 0.0, 0.0, 0.0, 1.6518367685369375E9, 0.0, 2022-05-06 12:32:48.536
67.0, -301.91651357291266, -239.79116545896977, -237.52665603579953, -212.1925737359561, 0.12800000607967377, 0.12800000607967377, 1.0240000486373901, 0.0, 0.0, 0.0, 0.0, 0.0, 1.651836768551026E9, 0.0, 2022-05-06 12:32:48.551
67.0, -235.350034261588, -99.35418222285807, -154.57941491855308, -148.7152517880313, 0.12800000607967377, 0.12800000607967377, 1.0240000486373901, 0.0, 0.0, 0.0, 0.0, 0.0, 1.651836768551026E9, 0.0, 2022-05-06 12:32:48.551
68.0, -206.72484000073746, -66.1812696158886, -121.4850402106531, -157.17864538775757, 0.12800000607967377, 0.12800000607967377, 1.0240000486373901, 0.0, 0.0, 0.0, 0.0, 0.0, 1.651836768566069E9, 0.0, 2022-05-06 12:32:48.566
68.0, -264.27442051889375, -204.90911857225, -197.09459761483595, -199.49561338638887, 0.12800000607967377, 0.12800000607967377, 1.0240000486373901, 0.0, 0.0, 0.0, 0.0, 0.0, 1.651836768566069E9, 0.0, 2022-05-06 12:32:48.566
69.0, -322.40742543013766, -254.10002268943936, -257.38552480051294, -235.70906465733424, 0.12800000607967377, 0.12800000607967377, 1.0240000486373901, 0.0, 0.0, 0.0, 0.0, 0.0, 1.6518367685669572E9, 0.0, 2022-05-06 12:32:48.566
69.0, -246.26680223224685, -105.76063084695488, -168.7237165509723, -181.9180835946463, 0.12800000607967377, 0.12800000607967377, 1.0240000486373901, 0.0, 0.0, 0.0, 0.0, 0.0, 1.6518367685669572E9, 0.0, 2022-05-06 12:32:48.566
70.0, -211.3398765460588, -75.56093870475888, -123.62800288526341, -153.07971503632143, 0.12800000607967377, 0.12800000607967377, 1.0240000486373901, 0.0, 0.0, 0.0, 0.0, 0.0, 1.6518367685810003E9, 0.0, 2022-05-06 12:32:48.581
70.0, -265.1046783090569, -211.6222389927134, -208.79300467623398, -202.81290464708582, 0.12800000607967377, 0.12800000607967377, 1.0240000486373901, 0.0, 0.0, 0.0, 0.0, 0.0, 1.6518367685810003E9, 0.0, 2022-05-06 12:32:48.581
71.0, -303.36011495580897, -241.50777953863144, -243.11032666964456, -226.7968830629252, 0.12800000607967377, 0.12800000607967377, 1.0240000486373901, 0.0, 0.0, 0.0, 0.0, 0.0, 1.6518367685959878E9, 0.0, 2022-05-06 12:32:48.595
71.0, -258.4364366880618, -102.87716798111796, -161.68148493440822, -173.23029599757865, 0.12800000607967377, 0.12800000607967377, 1.0240000486373901, 0.0, 0.0, 0.0, 0.0, 0.0, 1.6518367685959878E9, 0.0, 2022-05-06 12:32:48.595
72.0, -205.415875016246, -63.28284715022892, -115.47128108190373, -142.7912502582185, 0.12800000607967377, 0.12800000607967377, 1.0240000486373901, 0.0, 0.0, 0.0, 0.0, 0.0, 1.6518367685969443E9, 0.0, 2022-05-06 12:32:48.596
72.0, -269.15872986102477, -210.04400121141225, -200.19871457805857, -208.18340098345652, 0.12800000607967377, 0.12800000607967377, 1.0240000486373901, 0.0, 0.0, 0.0, 0.0, 0.0, 1.6518367685969443E9, 0.0, 2022-05-06 12:32:48.596
73.0, -315.4699110123329, -244.4884798033163, -244.77458214992657, -228.73041134001687, 0.12800000607967377, 0.12800000607967377, 1.0240000486373901, 0.0, 0.0, 0.0, 0.0, 0.0, 1.6518367686110103E9, 0.0, 2022-05-06 12:32:48.611
73.0, -245.0999534460716, -101.64674089569598, -164.36673310259357, -168.61151955230162, 0.12800000607967377, 0.12800000607967377, 1.0240000486373901, 0.0, 0.0, 0.0, 0.0, 0.0, 1.6518367686110103E9, 0.0, 2022-05-06 12:32:48.611
74.0, -207.98144638584927, -65.60158512275666, -118.10417065070942, -145.48771812627092, 0.12800000607967377, 0.12800000607967377, 1.0240000486373901, 0.0, 0.0, 0.0, 0.0, 0.0, 1.6518367686259868E9, 0.0, 2022-05-06 12:32:48.625
74.0, -273.72888760687783, -209.75976881477982, -203.62446293747053, -198.818691494409, 0.12800000607967377, 0.12800000607967377, 1.0240000486373901, 0.0, 0.0, 0.0, 0.0, 0.0, 1.6518367686259868E9, 0.0, 2022-05-06 12:32:48.625
75.0, -311.18024576315656, -245.67402808927, -250.36573258368298, -233.07617508852854, 0.12800000607967377, 0.12800000607967377, 1.0240000486373901, 0.0, 0.0, 0.0, 0.0, 0.0, 1.6518367686269867E9, 0.0, 2022-05-06 12:32:48.626
75.0, -246.59591342834756, -105.14728725422174, -161.23643683968112, -176.22595586208627, 0.12800000607967377, 0.12800000607967377, 1.0240000486373901, 0.0, 0.0, 0.0, 0.0, 0.0, 1.6518367686269867E9, 0.0, 2022-05-06 12:32:48.626
76.0, -211.2688184469007, -70.17548276856542, -118.08173125097528, -149.59786817757413, 0.12800000607967377, 0.12800000607967377, 1.0240000486373901, 0.0, 0.0, 0.0, 0.0, 0.0, 1.6518367686409736E9, 0.0, 2022-05-06 12:32:48.640
76.0, -278.1419695545919, -213.0321812760085, -208.50129247969016, -208.95382037432864, 0.12800000607967377, 0.12800000607967377, 1.0240000486373901, 0.0, 0.0, 0.0, 0.0, 0.0, 1.6518367686409736E9, 0.0, 2022-05-06 12:32:48.640
77.0, -306.36325462022796, -243.31041131727397, -248.3200073079206, -226.62858756491914, 0.12800000607967377, 0.12800000607967377, 1.0240000486373901, 0.0, 0.0, 0.0, 0.0, 0.0, 1.6518367686560087E9, 0.0, 2022-05-06 12:32:48.656
77.0, -234.71051136916503, -91.57893021497875, -150.65625986503437, -161.40473233768716, 0.12800000607967377, 0.12800000607967377, 1.0240000486373901, 0.0, 0.0, 0.0, 0.0, 0.0, 1.6518367686560087E9, 0.0, 2022-05-06 12:32:48.656
78.0, -189.06503240996972, -59.59530579391867, -108.97507485887036, -137.65636761905625, 0.12800000607967377, 0.12800000607967377, 1.0240000486373901, 0.0, 0.0, 0.0, 0.0, 0.0, 1.651836768656936E9, 0.0, 2022-05-06 12:32:48.656
78.0, -268.6276640673168, -207.36623284313828, -205.4906730153598, -202.786725347396, 0.12800000607967377, 0.12800000607967377, 1.0240000486373901, 0.0, 0.0, 0.0, 0.0, 0.0, 1.651836768656936E9, 0.0, 2022-05-06 12:32:48.656
79.0, -318.22621727967635, -242.66340862493962, -248.49578260583803, -218.96179265575483, 0.12800000607967377, 0.12800000607967377, 1.0240000486373901, 0.0, 0.0, 0.0, 0.0, 0.0, 1.6518367686709917E9, 0.0, 2022-05-06 12:32:48.670
79.0, -253.3651323481463, -109.60150810144842, -169.63251224020496, -173.83615979040042, 0.12800000607967377, 0.12800000607967377, 1.0240000486373901, 0.0, 0.0, 0.0, 0.0, 0.0, 1.6518367686709917E9, 0.0, 2022-05-06 12:32:48.670
80.0, -215.25929169962183, -71.23387445602566, -119.51411293400452, -145.2745438287966, 0.12800000607967377, 0.12800000607967377, 1.0240000486373901, 0.0, 0.0, 0.0, 0.0, 0.0, 1.6518367686859915E9, 0.0, 2022-05-06 12:32:48.685
80.0, -263.67977642593905, -209.78594811446965, -200.10147717921063, -200.01919938018546, 0.12800000607967377, 0.12800000607967377, 1.0240000486373901, 0.0, 0.0, 0.0, 0.0, 0.0, 1.6518367686859915E9, 0.0, 2022-05-06 12:32:48.685
81.0, -290.0909499130212, -232.10193115007132, -241.7228237860836, -220.7195456349291, 0.12800000607967377, 0.12800000607967377, 1.0240000486373901, 0.0, 0.0, 0.0, 0.0, 0.0, 1.6518367686869264E9, 0.0, 2022-05-06 12:32:48.686
81.0, -241.59940708754584, -94.83638307638466, -148.8311886866577, -166.49099627742544, 0.12800000607967377, 0.12800000607967377, 1.0240000486373901, 0.0, 0.0, 0.0, 0.0, 0.0, 1.6518367686869264E9, 0.0, 2022-05-06 12:32:48.686
82.0, -211.8223236403428, -71.21517495624721, -115.5535588809289, -140.7193456827663, 0.12800000607967377, 0.12800000607967377, 1.0240000486373901, 0.0, 0.0, 0.0, 0.0, 0.0, 1.6518367687010415E9, 0.0, 2022-05-06 12:32:48.701
82.0, -272.5134201212786, -212.0261481879279, -213.01535172620788, -203.8189377351664, 0.12800000607967377, 0.12800000607967377, 1.0240000486373901, 0.0, 0.0, 0.0, 0.0, 0.0, 1.6518367687010415E9, 0.0, 2022-05-06 12:32:48.701
83.0, -316.14309300435707, -247.03161177318543, -252.75552865536883, -240.70183109818026, 0.12800000607967377, 0.12800000607967377, 1.0240000486373901, 0.0, 0.0, 0.0, 0.0, 0.0, 1.6518367687160077E9, 0.0, 2022-05-06 12:32:48.716
83.0, -239.7294571097009, -93.6358751906082, -150.61886086547747, -161.27009593928233, 0.12800000607967377, 0.12800000607967377, 1.0240000486373901, 0.0, 0.0, 0.0, 0.0, 0.0, 1.6518367687160077E9, 0.0, 2022-05-06 12:32:48.716
84.0, -211.87094233976677, -73.64984982740134, -123.66540188482031, -155.424632308539, 0.12800000607967377, 0.12800000607967377, 1.0240000486373901, 0.0, 0.0, 0.0, 0.0, 0.0, 1.651836768716959E9, 0.0, 2022-05-06 12:32:48.716
84.0, -277.36033046385273, -222.71852216124535, -211.54557104362175, -211.5642705434002, 0.12800000607967377, 0.12800000607967377, 1.0240000486373901, 0.0, 0.0, 0.0, 0.0, 0.0, 1.651836768716959E9, 0.0, 2022-05-06 12:32:48.716
85.0, -308.3566212966107, -245.13922239560634, -248.78001500247046, -230.37222742056474, 0.12800000607967377, 0.12800000607967377, 1.0240000486373901, 0.0, 0.0, 0.0, 0.0, 0.0, 1.6518367687309825E9, 0.0, 2022-05-06 12:32:48.730
85.0, -238.67106542224064, -88.54213145095855, -152.08490164810792, -155.70512480521575, 0.12800000607967377, 0.12800000607967377, 1.0240000486373901, 0.0, 0.0, 0.0, 0.0, 0.0, 1.6518367687309825E9, 0.0, 2022-05-06 12:32:48.730
86.0, -204.42106162803248, -67.14616380445659, -118.05555195128545, -145.40170042729005, 0.12800000607967377, 0.12800000607967377, 1.0240000486373901, 0.0, 0.0, 0.0, 0.0, 0.0, 1.6518367687460172E9, 0.0, 2022-05-06 12:32:48.746
86.0, -267.09430508548394, -212.83022667840123, -204.51455912692472, -210.31140405824408, 0.12800000607967377, 0.12800000607967377, 1.0240000486373901, 0.0, 0.0, 0.0, 0.0, 0.0, 1.6518367687460172E9, 0.0, 2022-05-06 12:32:48.746
87.0, -304.85233503812924, -239.09928396716714, -249.3970984951593, -220.6784067354165, 0.12800000607967377, 0.12800000607967377, 1.0240000486373901, 0.0, 0.0, 0.0, 0.0, 0.0, 1.6518367687610111E9, 0.0, 2022-05-06 12:32:48.761
87.0, -241.21419739210978, -99.96004601567984, -168.0954133584164, -186.7350747375749, 0.12800000607967377, 0.12800000607967377, 1.0240000486373901, 0.0, 0.0, 0.0, 0.0, 0.0, 1.6518367687610111E9, 0.0, 2022-05-06 12:32:48.761
88.0, -212.76103852922097, -73.87424382474273, -122.3003384009935, -153.13581353565678, 0.12800000607967377, 0.12800000607967377, 1.0240000486373901, 0.0, 0.0, 0.0, 0.0, 0.0, 1.651836768761946E9, 0.0, 2022-05-06 12:32:48.761
88.0, -276.3355978759937, -220.88971108291298, -209.45870686834678, -207.55135789094493, 0.12800000607967377, 0.12800000607967377, 1.0240000486373901, 0.0, 0.0, 0.0, 0.0, 0.0, 1.651836768761946E9, 0.0, 2022-05-06 12:32:48.761
89.0, -304.55314304167405, -238.84497077018023, -241.356313590426, -223.6478873002343, 0.12800000607967377, 0.12800000607967377, 1.0240000486373901, 0.0, 0.0, 0.0, 0.0, 0.0, 1.6518367687759871E9, 0.0, 2022-05-06 12:32:48.775
89.0, -234.15326627576724, -90.37094252929091, -150.67121946485713, -161.81238143285736, 0.12800000607967377, 0.12800000607967377, 1.0240000486373901, 0.0, 0.0, 0.0, 0.0, 0.0, 1.6518367687759871E9, 0.0, 2022-05-06 12:32:48.775
90.0, -198.51201969804242, -68.56732578761876, -118.71377434348688, -152.39905324438587, 0.12800000607967377, 0.12800000607967377, 1.0240000486373901, 0.0, 0.0, 0.0, 0.0, 0.0, 1.651836768776935E9, 0.0, 2022-05-06 12:32:48.776
90.0, -252.82284685457125, -205.08489387016743, -203.4524275395088, -202.33045755280182, 0.12800000607967377, 0.12800000607967377, 1.0240000486373901, 0.0, 0.0, 0.0, 0.0, 0.0, 1.651836768776935E9, 0.0, 2022-05-06 12:32:48.776
91.0, -320.0550283580087, -249.90385493915528, -251.92153096524999, -234.06350867683068, 0.12800000607967377, 0.12800000607967377, 1.0240000486373901, 0.0, 0.0, 0.0, 0.0, 0.0, 1.651836768791017E9, 0.0, 2022-05-06 12:32:48.791
91.0, -261.08802575664595, -102.63781438395381, -158.49135027220473, -174.23258918570355, 0.12800000607967377, 0.12800000607967377, 1.0240000486373901, 0.0, 0.0, 0.0, 0.0, 0.0, 1.651836768791017E9, 0.0, 2022-05-06 12:32:48.791
92.0, -202.39777575200424, -69.65563667472452, -111.4808078291826, -143.50931104971096, 0.12800000607967377, 0.12800000607967377, 1.0240000486373901, 0.0, 0.0, 0.0, 0.0, 0.0, 1.6518367688230102E9, 0.0, 2022-05-06 12:32:48.823
92.0, -278.72165404772386, -220.6578372856602, -207.7869715881534, -198.54567879764363, 0.12800000607967377, 0.12800000607967377, 1.0240000486373901, 0.0, 0.0, 0.0, 0.0, 0.0, 1.6518367688230102E9, 0.0, 2022-05-06 12:32:48.823
93.0, -302.5709960651584, -235.87175030540675, -238.9478180189617, -218.72991885850206, 0.12800000607967377, 0.12800000607967377, 1.0240000486373901, 0.0, 0.0, 0.0, 0.0, 0.0, 1.6518367688240027E9, 0.0, 2022-05-06 12:32:48.824
93.0, -239.15725241648033, -94.07344348542392, -150.55528256623074, -163.89176580822095, 0.12800000607967377, 0.12800000607967377, 1.0240000486373901, 0.0, 0.0, 0.0, 0.0, 0.0, 1.6518367688240027E9, 0.0, 2022-05-06 12:32:48.824
94.0, -209.39512856910005, -70.09320496954024, -119.19622143777087, -144.7883568345569, 0.12800000607967377, 0.12800000607967377, 1.0240000486373901, 0.0, 0.0, 0.0, 0.0, 0.0, 1.6518367688249707E9, 0.0, 2022-05-06 12:32:48.824
94.0, -264.71198881370947, -206.12832595780492, -204.32756412914023, -197.97721400437877, 0.12800000607967377, 0.12800000607967377, 1.0240000486373901, 0.0, 0.0, 0.0, 0.0, 0.0, 1.6518367688249707E9, 0.0, 2022-05-06 12:32:48.824
95.0, -302.03619037149474, -236.339237799868, -245.88907233672217, -224.55668298946694, 0.12800000607967377, 0.12800000607967377, 1.0240000486373901, 0.0, 0.0, 0.0, 0.0, 0.0, 1.6518367688259487E9, 0.0, 2022-05-06 12:32:48.825
95.0, -239.41530551342294, -88.98717954568565, -148.59557498944923, -159.6881182580255, 0.12800000607967377, 0.12800000607967377, 1.0240000486373901, 0.0, 0.0, 0.0, 0.0, 0.0, 1.6518367688259487E9, 0.0, 2022-05-06 12:32:48.825
96.0, -203.05599814420566, -71.4395689535886, -116.0734049747698, -137.85458231670782, 0.12800000607967377, 0.12800000607967377, 1.0240000486373901, 0.0, 0.0, 0.0, 0.0, 0.0, 1.6518367688359883E9, 0.0, 2022-05-06 12:32:48.835
96.0, -268.661323166918, -213.92227746546268, -204.81375112337992, -209.25675227073953, 0.12800000607967377, 0.12800000607967377, 1.0240000486373901, 0.0, 0.0, 0.0, 0.0, 0.0, 1.6518367688359883E9, 0.0, 2022-05-06 12:32:48.835
97.0, -294.50403186073527, -233.17528243735433, -237.5004767361097, -218.87577495677397, 0.12800000607967377, 0.12800000607967377, 1.0240000486373901, 0.0, 0.0, 0.0, 0.0, 0.0, 1.651836768851019E9, 0.0, 2022-05-06 12:32:48.851
97.0, -238.0577218295075, -100.13956121355295, -157.15620598802343, -171.27806822070852, 0.12800000607967377, 0.12800000607967377, 1.0240000486373901, 0.0, 0.0, 0.0, 0.0, 0.0, 1.651836768851019E9, 0.0, 2022-05-06 12:32:48.851
98.0, -207.60745639028028, -74.6633627153933, -117.5955442567356, -144.2011925415136, 0.12800000607967377, 0.12800000607967377, 1.0240000486373901, 0.0, 0.0, 0.0, 0.0, 0.0, 1.651836768865981E9, 0.0, 2022-05-06 12:32:48.865
98.0, -263.029033833649, -202.2463098037988, -193.39583655865863, -184.11340486863628, 0.12800000607967377, 0.12800000607967377, 1.0240000486373901, 0.0, 0.0, 0.0, 0.0, 0.0, 1.651836768865981E9, 0.0, 2022-05-06 12:32:48.865
99.0, -297.66424732329324, -230.54239286854863, -248.80993420211598, -229.13432053523138, 0.12800000607967377, 0.12800000607967377, 1.0240000486373901, 0.0, 0.0, 0.0, 0.0, 0.0, 1.65183676886694E9, 0.0, 2022-05-06 12:32:48.866
99.0, -229.85612122667953, -98.04147733841091, -158.22955727530643, -172.7628085031174, 0.12800000607967377, 0.12800000607967377, 1.0240000486373901, 0.0, 0.0, 0.0, 0.0, 0.0, 1.65183676886694E9, 0.0, 2022-05-06 12:32:48.866
100.0, -205.09050372010097, -75.42630230635405, -117.91343575296924, -151.2434241580777, 0.12800000607967377, 0.12800000607967377, 1.0240000486373901, 0.0, 0.0, 0.0, 0.0, 0.0, 1.651836768881022E9, 0.0, 2022-05-06 12:32:48.881
100.0, -273.6353901079856, -211.85037289001048, -200.9242551694624, -195.13115013809875, 0.12800000607967377, 0.12800000607967377, 1.0240000486373901, 0.0, 0.0, 0.0, 0.0, 0.0, 1.651836768881022E9, 0.0, 2022-05-06 12:32:48.881
0.0, -302.9038471612148, -232.41047289641574, -248.0114655615762, -228.36203119438142, 0.12800000607967377, 0.12800000607967377, 1.0240000486373901, 0.0, 0.0, 0.0, 0.0, 0.0, 1.6518367688819366E9, 0.0, 2022-05-06 12:32:48.881
1.0, -236.80485534435138, -94.61385902902111, -155.4826007578522, -171.42579426895827, 0.12800000607967377, 0.12800000607967377, 1.0240000486373901, 0.0, 0.0, 0.0, 0.0, 0.0, 1.6518367688959887E9, 0.0, 2022-05-06 12:32:48.895
1.0, -212.9742128266953, -83.760669357609, -125.28664851561189, -154.08761807437986, 0.12800000607967377, 0.12800000607967377, 1.0240000486373901, 0.0, 0.0, 0.0, 0.0, 0.0, 1.6518367688959887E9, 0.0, 2022-05-06 12:32:48.895
2.0, -270.8828237405978, -213.10510932514444, -205.8029546616599, -202.56420130003244, 0.12800000607967377, 0.12800000607967377, 1.0240000486373901, 0.0, 0.0, 0.0, 0.0, 0.0, 1.651836768910993E9, 0.0, 2022-05-06 12:32:48.910
2.0, -299.99420499568805, -237.43689843686298, -248.79310465231538, -229.24090768396854, 0.12800000607967377, 0.12800000607967377, 1.0240000486373901, 0.0, 0.0, 0.0, 0.0, 0.0, 1.651836768910993E9, 0.0, 2022-05-06 12:32:48.910
3.0, -236.7637164448388, -88.71977669885382, -145.50080777611583, -156.7018081434071, 0.12800000607967377, 0.12800000607967377, 1.0240000486373901, 0.0, 0.0, 0.0, 0.0, 0.0, 1.6518367689119785E9, 0.0, 2022-05-06 12:32:48.911
3.0, -205.51685231504962, -71.5349364024587, -114.4222391443327, -141.9516427181661, 0.12800000607967377, 0.12800000607967377, 1.0240000486373901, 0.0, 0.0, 0.0, 0.0, 0.0, 1.6518367689119785E9, 0.0, 2022-05-06 12:32:48.911
4.0, -263.7732739248313, -213.62121551902965, -205.97125015966594, -208.95943022426218, 0.12800000607967377, 0.12800000607967377, 1.0240000486373901, 0.0, 0.0, 0.0, 0.0, 0.0, 1.6518367689259782E9, 0.0, 2022-05-06 12:32:48.925
4.0, -296.92374713206664, -228.35642134444788, -231.13329706154764, -216.05402044020593, 0.12800000607967377, 0.12800000607967377, 1.0240000486373901, 0.0, 0.0, 0.0, 0.0, 0.0, 1.6518367689259782E9, 0.0, 2022-05-06 12:32:48.925
5.0, -241.2403766917996, -95.81436691479757, -150.90870311204344, -160.32203130051494, 0.12800000607967377, 0.12800000607967377, 1.0240000486373901, 0.0, 0.0, 0.0, 0.0, 0.0, 1.6518367689409912E9, 0.0, 2022-05-06 12:32:48.940
5.0, -204.9633471216075, -76.03403604915366, -125.46242381352931, -153.67996897920966, 0.12800000607967377, 0.12800000607967377, 1.0240000486373901, 0.0, 0.0, 0.0, 0.0, 0.0, 1.6518367689409912E9, 0.0, 2022-05-06 12:32:48.940
6.0, -269.30832585925236, -214.12610201304778, -207.18671764526516, -217.95014971774071, 0.12800000607967377, 0.12800000607967377, 1.0240000486373901, 0.0, 0.0, 0.0, 0.0, 0.0, 1.6518367689419613E9, 0.0, 2022-05-06 12:32:48.941
6.0, -299.8333892975934, -229.34375493275002, -238.7851323708892, -221.20386267919093, 0.12800000607967377, 0.12800000607967377, 1.0240000486373901, 0.0, 0.0, 0.0, 0.0, 0.0, 1.6518367689419613E9, 0.0, 2022-05-06 12:32:48.941
7.0, -225.47295847861096, -88.10269320616499, -148.37679084204137, -156.2978989481926, 0.12800000607967377, 0.12800000607967377, 1.0240000486373901, 0.0, 0.0, 0.0, 0.0, 0.0, 1.65183676895606E9, 0.0, 2022-05-06 12:32:48.956
7.0, -209.51480536768213, -81.89819917967543, -124.9089186200872, -155.13852996192873, 0.12800000607967377, 0.12800000607967377, 1.0240000486373901, 0.0, 0.0, 0.0, 0.0, 0.0, 1.65183676895606E9, 0.0, 2022-05-06 12:32:48.956
8.0, -271.772919930052, -214.07748331362382, -207.40363184269518, -208.2151901330799, 0.12800000607967377, 0.12800000607967377, 1.0240000486373901, 0.0, 0.0, 0.0, 0.0, 0.0, 1.651836768971006E9, 0.0, 2022-05-06 12:32:48.971
8.0, -299.24996490450576, -231.22118471050635, -240.19507465418428, -222.35201196558774, 0.12800000607967377, 0.12800000607967377, 1.0240000486373901, 0.0, 0.0, 0.0, 0.0, 0.0, 1.651836768971006E9, 0.0, 2022-05-06 12:32:48.971
9.0, -227.03623666008934, -87.54918801272288, -143.27182740252465, -165.0081259449944, 0.12800000607967377, 0.12800000607967377, 1.0240000486373901, 0.0, 0.0, 0.0, 0.0, 0.0, 1.6518367689719791E9, 0.0, 2022-05-06 12:32:48.971
9.0, -194.93667534040287, -68.21016534185037, -109.22377820592374, -125.87007290869951, 0.12800000607967377, 0.12800000607967377, 1.0240000486373901, 0.0, 0.0, 0.0, 0.0, 0.0, 1.6518367689719791E9, 0.0, 2022-05-06 12:32:48.971
10.0, -284.6344358776696, -217.66030747117475, -212.6918503800407, -210.2122967094183, 0.12800000607967377, 0.12800000607967377, 1.0240000486373901, 0.0, 0.0, 0.0, 0.0, 0.0, 1.6518367689859912E9, 0.0, 2022-05-06 12:32:48.985
10.0, -302.29424346843734, -228.51349714258686, -242.69706772454083, -231.38761025853455, 0.12800000607967377, 0.12800000607967377, 1.0240000486373901, 0.0, 0.0, 0.0, 0.0, 0.0, 1.6518367689859912E9, 0.0, 2022-05-06 12:32:48.985
11.0, -223.28137710457668, -87.17893791710958, -151.23407440818846, -172.3383298581466, 0.12800000607967377, 0.12800000607967377, 1.0240000486373901, 0.0, 0.0, 0.0, 0.0, 0.0, 1.6518367690009725E9, 0.0, 2022-05-06 12:32:49.000
11.0, -203.19811434252188, -73.58440157817677, -114.47085784375668, -151.2565138079226, 0.12800000607967377, 0.12800000607967377, 1.0240000486373901, 0.0, 0.0, 0.0, 0.0, 0.0, 1.6518367690009725E9, 0.0, 2022-05-06 12:32:49.000
12.0, -283.5610845903866, -225.48043827852234, -210.48904930613935, -208.15535173378885, 0.12800000607967377, 0.12800000607967377, 1.0240000486373901, 0.0, 0.0, 0.0, 0.0, 0.0, 1.6518367690019524E9, 0.0, 2022-05-06 12:32:49.001
12.0, -300.87682138523087, -232.7246244926937, -244.79889149963856, -221.11784498021007, 0.12800000607967377, 0.12800000607967377, 1.0240000486373901, 0.0, 0.0, 0.0, 0.0, 0.0, 1.6518367690019524E9, 0.0, 2022-05-06 12:32:49.001
13.0, -235.6529661579989, -86.41225842619315, -139.37859154865146, -151.24903400801122, 0.12800000607967377, 0.12800000607967377, 1.0240000486373901, 0.0, 0.0, 0.0, 0.0, 0.0, 1.6518367690159883E9, 0.0, 2022-05-06 12:32:49.015
13.0, -208.153481783811, -80.02824920183048, -121.97683705482632, -157.27775273658335, 0.12800000607967377, 0.12800000607967377, 1.0240000486373901, 0.0, 0.0, 0.0, 0.0, 0.0, 1.6518367690159883E9, 0.0, 2022-05-06 12:32:49.015
14.0, -266.83251208858564, -215.58840289572254, -210.6573448041454, -211.52126169390976, 0.12800000607967377, 0.12800000607967377, 1.0240000486373901, 0.0, 0.0, 0.0, 0.0, 0.0, 1.6518367690309875E9, 0.0, 2022-05-06 12:32:49.030
14.0, -311.3223619614728, -236.00825665378943, -245.32995729334652, -232.02339325100183, 0.12800000607967377, 0.12800000607967377, 1.0240000486373901, 0.0, 0.0, 0.0, 0.0, 0.0, 1.6518367690309875E9, 0.0, 2022-05-06 12:32:49.030
15.0, -244.3968522544019, -94.434343831148, -160.08641760330647, -175.7154595181346, 0.12800000607967377, 0.12800000607967377, 1.0240000486373901, 0.0, 0.0, 0.0, 0.0, 0.0, 1.6518367690319328E9, 0.0, 2022-05-06 12:32:49.031
15.0, -206.7435395005159, -82.88927266793326, -123.30450153909624, -143.1072718044743, 0.12800000607967377, 0.12800000607967377, 1.0240000486373901, 0.0, 0.0, 0.0, 0.0, 0.0, 1.6518367690319328E9, 0.0, 2022-05-06 12:32:49.031
16.0, -276.64974947227165, -221.44882612628862, -214.30374726094306, -209.33716011978686, 0.12800000607967377, 0.12800000607967377, 1.0240000486373901, 0.0, 0.0, 0.0, 0.0, 0.0, 1.6518367690459852E9, 0.0, 2022-05-06 12:32:49.045
16.0, -296.7517117341049, -234.48611737182364, -246.71746017690748, -225.23547483142465, 0.12800000607967377, 0.12800000607967377, 1.0240000486373901, 0.0, 0.0, 0.0, 0.0, 0.0, 1.6518367690459852E9, 0.0, 2022-05-06 12:32:49.045
17.0, -243.86952636064962, -98.1779836867936, -159.8545438060537, -174.51121173240244, 0.12800000607967377, 0.12800000607967377, 1.0240000486373901, 0.0, 0.0, 0.0, 0.0, 0.0, 1.651836769061024E9, 0.0, 2022-05-06 12:32:49.061
17.0, -206.27605200605467, -82.26844927528873, -126.64423219952732, -155.86407055333257, 0.12800000607967377, 0.12800000607967377, 1.0240000486373901, 0.0, 0.0, 0.0, 0.0, 0.0, 1.651836769061024E9, 0.0, 2022-05-06 12:32:49.061
18.0, -275.90176948113367, -227.80291615100577, -212.93494387716055, -206.52101545315236, 0.12800000607967377, 0.12800000607967377, 1.0240000486373901, 0.0, 0.0, 0.0, 0.0, 0.0, 1.6518367690619352E9, 0.0, 2022-05-06 12:32:49.061
18.0, -296.21316614048555, -229.018383636605, -241.31330474093556, -218.7729277079925, 0.12800000607967377, 0.12800000607967377, 1.0240000486373901, 0.0, 0.0, 0.0, 0.0, 0.0, 1.6518367690619352E9, 0.0, 2022-05-06 12:32:49.061
19.0, -223.46837210236117, -82.81073476886377, -143.2157289031893, -164.4508808515966, 0.12800000607967377, 0.12800000607967377, 1.0240000486373901, 0.0, 0.0, 0.0, 0.0, 0.0, 1.6518367690759916E9, 0.0, 2022-05-06 12:32:49.075
19.0, -177.94256994174793, -61.24647162435576, -95.65916106663644, -127.19399749301374, 0.12800000607967377, 0.12800000607967377, 1.0240000486373901, 0.0, 0.0, 0.0, 0.0, 0.0, 1.6518367690759916E9, 0.0, 2022-05-06 12:32:49.075
20.0, -262.1015386446379, -206.32467070547864, -191.51653683092445, -181.1944129532203, 0.12800000607967377, 0.12800000607967377, 1.0240000486373901, 0.0, 0.0, 0.0, 0.0, 0.0, 1.6518367690909767E9, 0.0, 2022-05-06 12:32:49.090
20.0, -290.92120770318434, -218.3409692631103, -229.19976878445596, -194.65431289374828, 0.12800000607967377, 0.12800000607967377, 1.0240000486373901, 0.0, 0.0, 0.0, 0.0, 0.0, 1.6518367690909767E9, 0.0, 2022-05-06 12:32:49.090
21.0, -236.65525934612378, -91.04599447129294, -152.180269096978, -163.93851455766708, 0.12800000607967377, 0.12800000607967377, 1.0240000486373901, 0.0, 0.0, 0.0, 0.0, 0.0, 1.651836769091918E9, 0.0, 2022-05-06 12:32:49.091
21.0, -213.1574679245241, -84.18701795255765, -124.79298172146082, -165.54667153861374, 0.12800000607967377, 0.12800000607967377, 1.0240000486373901, 0.0, 0.0, 0.0, 0.0, 0.0, 1.651836769091918E9, 0.0, 2022-05-06 12:32:49.091
22.0, -273.7700265063904, -220.1922197411768, -213.93349716532975, -212.08224668726325, 0.12800000607967377, 0.12800000607967377, 1.0240000486373901, 0.0, 0.0, 0.0, 0.0, 0.0, 1.6518367691059947E9, 0.0, 2022-05-06 12:32:49.105
22.0, -305.47315843077376, -234.66563256969675, -247.4504805682227, -234.5141666214913, 0.12800000607967377, 0.12800000607967377, 1.0240000486373901, 0.0, 0.0, 0.0, 0.0, 0.0, 1.6518367691059947E9, 0.0, 2022-05-06 12:32:49.105
23.0, -234.9124659667723, -87.63146581174806, -146.3684645658359, -165.39333564043045, 0.12800000607967377, 0.12800000607967377, 1.0240000486373901, 0.0, 0.0, 0.0, 0.0, 0.0, 1.6518367691209724E9, 0.0, 2022-05-06 12:32:49.120
23.0, -199.75740638328716, -77.11860703630373, -116.99903021380305, -150.68056921474636, 0.12800000607967377, 0.12800000607967377, 1.0240000486373901, 0.0, 0.0, 0.0, 0.0, 0.0, 1.6518367691209724E9, 0.0, 2022-05-06 12:32:49.120
24.0, -260.2502881665714, -211.1603613481857, -196.00067687779665, -197.66119245812297, 0.12800000607967377, 0.12800000607967377, 1.0240000486373901, 0.0, 0.0, 0.0, 0.0, 0.0, 1.6518367691219666E9, 0.0, 2022-05-06 12:32:49.121
24.0, -292.6079025832005, -222.9747053082101, -236.073704903014, -205.05123477056623, 0.12800000607967377, 0.12800000607967377, 1.0240000486373901, 0.0, 0.0, 0.0, 0.0, 0.0, 1.6518367691219666E9, 0.0, 2022-05-06 12:32:49.121
25.0, -231.33338170917705, -86.0569679304026, -147.52409365214407, -168.21322020702064, 0.12800000607967377, 0.12800000607967377, 1.0240000486373901, 0.0, 0.0, 0.0, 0.0, 0.0, 1.6518367691359997E9, 0.0, 2022-05-06 12:32:49.135
25.0, -199.40211588749662, -78.28919572243467, -115.33851463347673, -148.18979584425688, 0.12800000607967377, 0.12800000607967377, 1.0240000486373901, 0.0, 0.0, 0.0, 0.0, 0.0, 1.6518367691359997E9, 0.0, 2022-05-06 12:32:49.135
26.0, -265.86013810010627, -216.57947638398036, -204.38179267849773, -201.10564031731337, 0.12800000607967377, 0.12800000607967377, 1.0240000486373901, 0.0, 0.0, 0.0, 0.0, 0.0, 1.6518367691510308E9, 0.0, 2022-05-06 12:32:49.151
26.0, -289.58980331895873, -220.43531323829666, -234.5515656210482, -213.4398303711787, 0.12800000607967377, 0.12800000607967377, 1.0240000486373901, 0.0, 0.0, 0.0, 0.0, 0.0, 1.6518367691510308E9, 0.0, 2022-05-06 12:32:49.151
27.0, -227.14843365876004, -86.93210452003404, -150.06348572205752, -167.7831317121163, 0.12800000607967377, 0.12800000607967377, 1.0240000486373901, 0.0, 0.0, 0.0, 0.0, 0.0, 1.6518367691519296E9, 0.0, 2022-05-06 12:32:49.151
27.0, -209.0473178732209, -76.56510184286162, -122.47798364888877, -148.0663791457191, 0.12800000607967377, 0.12800000607967377, 1.0240000486373901, 0.0, 0.0, 0.0, 0.0, 0.0, 1.6518367691519296E9, 0.0, 2022-05-06 12:32:49.151
28.0, -258.0624466924928, -207.9739665859379, -202.59412049967796, -194.14194659981877, 0.12800000607967377, 0.12800000607967377, 1.0240000486373901, 0.0, 0.0, 0.0, 0.0, 0.0, 1.6518367691659777E9, 0.0, 2022-05-06 12:32:49.165
28.0, -275.35574408760294, -215.0087184025906, -226.91468991152942, -192.28695622179657, 0.12800000607967377, 0.12800000607967377, 1.0240000486373901, 0.0, 0.0, 0.0, 0.0, 0.0, 1.6518367691659777E9, 0.0, 2022-05-06 12:32:49.165
29.0, -237.00307004200295, -83.65595215884969, -149.56607902795076, -174.709426430054, 0.12800000607967377, 0.12800000607967377, 1.0240000486373901, 0.0, 0.0, 0.0, 0.0, 0.0, 1.6518367691809888E9, 0.0, 2022-05-06 12:32:49.180
29.0, -210.02717166161165, -90.55606757709756, -125.93365120794624, -159.01680621597916, 0.12800000607967377, 0.12800000607967377, 1.0240000486373901, 0.0, 0.0, 0.0, 0.0, 0.0, 1.6518367691809888E9, 0.0, 2022-05-06 12:32:49.180
30.0, -277.04991876753047, -227.69445905229077, -214.49074225872755, -205.6870177630335, 0.12800000607967377, 0.12800000607967377, 1.0240000486373901, 0.0, 0.0, 0.0, 0.0, 0.0, 1.6518367691819365E9, 0.0, 2022-05-06 12:32:49.181
30.0, -306.2286182218231, -227.84405505051836, -236.02508620359004, -208.73503622692078, 0.12800000607967377, 0.12800000607967377, 1.0240000486373901, 0.0, 0.0, 0.0, 0.0, 0.0, 1.6518367691819365E9, 0.0, 2022-05-06 12:32:49.181
31.0, -231.2062251106836, -86.96576361963525, -146.8509116601199, -165.5279720388353, 0.12800000607967377, 0.12800000607967377, 1.0240000486373901, 0.0, 0.0, 0.0, 0.0, 0.0, 1.651836769196009E9, 0.0, 2022-05-06 12:32:49.196
31.0, -197.5209462097846, -75.85078095132485, -114.60549424216151, -145.23153497930616, 0.12800000607967377, 0.12800000607967377, 1.0240000486373901, 0.0, 0.0, 0.0, 0.0, 0.0, 1.651836769196009E9, 0.0, 2022-05-06 12:32:49.196
32.0, -260.0782527686097, -208.10486308438703, -201.62174651119858, -196.7187376692891, 0.12800000607967377, 0.12800000607967377, 1.0240000486373901, 0.0, 0.0, 0.0, 0.0, 0.0, 1.6518367692109818E9, 0.0, 2022-05-06 12:32:49.210
32.0, -290.0124120139517, -219.80701004574075, -229.60741787962615, -204.29203507956117, 0.12800000607967377, 0.12800000607967377, 1.0240000486373901, 0.0, 0.0, 0.0, 0.0, 0.0, 1.6518367692109818E9, 0.0, 2022-05-06 12:32:49.210
33.0, -225.3869407796301, -83.67839155858383, -149.79795282520354, -166.62750262580812, 0.12800000607967377, 0.12800000607967377, 1.0240000486373901, 0.0, 0.0, 0.0, 0.0, 0.0, 1.6518367692119527E9, 0.0, 2022-05-06 12:32:49.211
33.0, -193.05924556264654, -71.57607530197129, -105.53997674956918, -128.92931107245386, 0.12800000607967377, 0.12800000607967377, 1.0240000486373901, 0.0, 0.0, 0.0, 0.0, 0.0, 1.6518367692119527E9, 0.0, 2022-05-06 12:32:49.211
34.0, -260.1418310678564, -213.3407230223529, -203.71235058642924, -193.14713321160525, 0.12800000607967377, 0.12800000607967377, 1.0240000486373901, 0.0, 0.0, 0.0, 0.0, 0.0, 1.6518367692259946E9, 0.0, 2022-05-06 12:32:49.225
34.0, -293.47929927287623, -225.78337017493322, -238.63927627261728, -224.04618664551526, 0.12800000607967377, 0.12800000607967377, 1.0240000486373901, 0.0, 0.0, 0.0, 0.0, 0.0, 1.6518367692259946E9, 0.0, 2022-05-06 12:32:49.225
35.0, -234.5048168716021, -87.00316261919215, -149.1846092324704, -175.62570191919804, 0.12800000607967377, 0.12800000607967377, 1.0240000486373901, 0.0, 0.0, 0.0, 0.0, 0.0, 1.6518367692409916E9, 0.0, 2022-05-06 12:32:49.240
35.0, -202.69696774845943, -76.55762204295024, -116.66617911774665, -143.6570370979607, 0.12800000607967377, 0.12800000607967377, 1.0240000486373901, 0.0, 0.0, 0.0, 0.0, 0.0, 1.6518367692409916E9, 0.0, 2022-05-06 12:32:49.240
36.0, -271.49616733333096, -223.65536710014567, -214.15415126271546, -206.23678305651993, 0.12800000607967377, 0.12800000607967377, 1.0240000486373901, 0.0, 0.0, 0.0, 0.0, 0.0, 1.651836769241944E9, 0.0, 2022-05-06 12:32:49.241
36.0, -294.81070365710184, -223.5319504016079, -240.34841055236757, -223.09251215681434, 0.12800000607967377, 0.12800000607967377, 1.0240000486373901, 0.0, 0.0, 0.0, 0.0, 0.0, 1.651836769241944E9, 0.0, 2022-05-06 12:32:49.241
37.0, -231.74477070430294, -86.64787212340161, -142.4378297124058, -158.75501321908087, 0.12800000607967377, 0.12800000607967377, 1.0240000486373901, 0.0, 0.0, 0.0, 0.0, 0.0, 1.6518367692559896E9, 0.0, 2022-05-06 12:32:49.255
37.0, -203.87503623450175, -83.99254315486178, -125.29038841556758, -150.4038166180253, 0.12800000607967377, 0.12800000607967377, 1.0240000486373901, 0.0, 0.0, 0.0, 0.0, 0.0, 1.6518367692559896E9, 0.0, 2022-05-06 12:32:49.255
38.0, -276.2196609773673, -227.0923351594247, -216.79452063143253, -214.3224467607215, 0.12800000607967377, 0.12800000607967377, 1.0240000486373901, 0.0, 0.0, 0.0, 0.0, 0.0, 1.6518367692709792E9, 0.0, 2022-05-06 12:32:49.270
38.0, -310.70901836873963, -232.56754869455472, -243.3777295164764, -226.0320735219866, 0.12800000607967377, 0.12800000607967377, 1.0240000486373901, 0.0, 0.0, 0.0, 0.0, 0.0, 1.6518367692709792E9, 0.0, 2022-05-06 12:32:49.270
39.0, -243.58903386397287, -92.19040385773405, -153.45557498186827, -168.55355110298842, 0.12800000607967377, 0.12800000607967377, 1.0240000486373901, 0.0, 0.0, 0.0, 0.0, 0.0, 1.6518367692719257E9, 0.0, 2022-05-06 12:32:49.271
39.0, -215.6781604946591, -91.18811066960916, -122.5041629485786, -147.44929565303028, 0.12800000607967377, 0.12800000607967377, 1.0240000486373901, 0.0, 0.0, 0.0, 0.0, 0.0, 1.6518367692719257E9, 0.0, 2022-05-06 12:32:49.271
40.0, -279.5182527382858, -231.4979373072274, -220.54190038703382, -209.9131047129631, 0.12800000607967377, 0.12800000607967377, 1.0240000486373901, 0.0, 0.0, 0.0, 0.0, 0.0, 1.6518367692859674E9, 0.0, 2022-05-06 12:32:49.285
40.0, -290.43128080898896, -227.28307005716488, -238.24284687731415, -213.1368984747678, 0.12800000607967377, 0.12800000607967377, 1.0240000486373901, 0.0, 0.0, 0.0, 0.0, 0.0, 1.6518367692859674E9, 0.0, 2022-05-06 12:32:49.285
41.0, -241.3189145908691, -83.54749506013468, -149.45388202928007, -175.3826084220782, 0.12800000607967377, 0.12800000607967377, 1.0240000486373901, 0.0, 0.0, 0.0, 0.0, 0.0, 1.6518367693009772E9, 0.0, 2022-05-06 12:32:49.300
41.0, -213.06771032558754, -88.33830690337345, -118.45011139661074, -146.63399746268988, 0.12800000607967377, 0.12800000607967377, 1.0240000486373901, 0.0, 0.0, 0.0, 0.0, 0.0, 1.6518367693009772E9, 0.0, 2022-05-06 12:32:49.300
42.0, -276.57495147315785, -220.06132324272767, -205.55612126458436, -186.22083849366754, 0.12800000607967377, 0.12800000607967377, 1.0240000486373901, 0.0, 0.0, 0.0, 0.0, 0.0, 1.6518367693019197E9, 0.0, 2022-05-06 12:32:49.301
42.0, -307.21595181012526, -226.5388299659826, -244.60441670194268, -228.86691768839955, 0.12800000607967377, 0.12800000607967377, 1.0240000486373901, 0.0, 0.0, 0.0, 0.0, 0.0, 1.6518367693019197E9, 0.0, 2022-05-06 12:32:49.301
43.0, -240.26426280336455, -87.29861471569166, -153.02174658700824, -171.36221596971154, 0.12800000607967377, 0.12800000607967377, 1.0240000486373901, 0.0, 0.0, 0.0, 0.0, 0.0, 1.6518367693159933E9, 0.0, 2022-05-06 12:32:49.315
43.0, -202.0050862566568, -78.59212761884555, -123.56255463603884, -150.91244301199913, 0.12800000607967377, 0.12800000607967377, 1.0240000486373901, 0.0, 0.0, 0.0, 0.0, 0.0, 1.6518367693159933E9, 0.0, 2022-05-06 12:32:49.315
44.0, -275.46420118631795, -224.62400118866935, -210.09261991083622, -206.74540945049375, 0.12800000607967377, 0.12800000607967377, 1.0240000486373901, 0.0, 0.0, 0.0, 0.0, 0.0, 1.651836769330978E9, 0.0, 2022-05-06 12:32:49.330
44.0, -296.44503993773833, -220.85418203333393, -227.99178109876812, -211.07621359918267, 0.12800000607967377, 0.12800000607967377, 1.0240000486373901, 0.0, 0.0, 0.0, 0.0, 0.0, 1.651836769330978E9, 0.0, 2022-05-06 12:32:49.330
45.0, -231.6437934054993, -77.77308952854946, -150.42625601775944, -164.3723429525271, 0.12800000607967377, 0.12800000607967377, 1.0240000486373901, 0.0, 0.0, 0.0, 0.0, 0.0, 1.6518367693319595E9, 0.0, 2022-05-06 12:32:49.331
45.0, -218.69251985894516, -88.08399370638654, -127.89335878472775, -158.6353364204988, 0.12800000607967377, 0.12800000607967377, 1.0240000486373901, 0.0, 0.0, 0.0, 0.0, 0.0, 1.6518367693319595E9, 0.0, 2022-05-06 12:32:49.331
46.0, -277.9661942566745, -221.17581342952326, -208.70885692723095, -205.15595196932554, 0.12800000607967377, 0.12800000607967377, 1.0240000486373901, 0.0, 0.0, 0.0, 0.0, 0.0, 1.6518367693460135E9, 0.0, 2022-05-06 12:32:49.346
46.0, -306.1201611231081, -242.63535937527195, -248.53131165541708, -232.98080763965845, 0.12800000607967377, 0.12800000607967377, 1.0240000486373901, 0.0, 0.0, 0.0, 0.0, 0.0, 1.6518367693460135E9, 0.0, 2022-05-06 12:32:49.346
47.0, -239.11237361701205, -87.24251621635631, -148.0327200461179, -165.374636140652, 0.12800000607967377, 0.12800000607967377, 1.0240000486373901, 0.0, 0.0, 0.0, 0.0, 0.0, 1.6518367693610132E9, 0.0, 2022-05-06 12:32:49.361
47.0, -192.69647526694462, -70.8692342103459, -106.4599921386689, -126.95838379580528, 0.12800000607967377, 0.12800000607967377, 1.0240000486373901, 0.0, 0.0, 0.0, 0.0, 0.0, 1.6518367693610132E9, 0.0, 2022-05-06 12:32:49.361
48.0, -283.519945690874, -226.34061526833102, -219.44610970001668, -219.77896079607308, 0.12800000607967377, 0.12800000607967377, 1.0240000486373901, 0.0, 0.0, 0.0, 0.0, 0.0, 1.651836769375975E9, 0.0, 2022-05-06 12:32:49.375
48.0, -312.2348975506611, -226.52761026611552, -241.27216584142298, -228.39943019393831, 0.12800000607967377, 0.12800000607967377, 1.0240000486373901, 0.0, 0.0, 0.0, 0.0, 0.0, 1.651836769375975E9, 0.0, 2022-05-06 12:32:49.375
49.0, -237.85202733194456, -80.63411299465224, -149.98868772294372, -163.38126946426928, 0.12800000607967377, 0.12800000607967377, 1.0240000486373901, 0.0, 0.0, 0.0, 0.0, 0.0, 1.651836769376956E9, 0.0, 2022-05-06 12:32:49.376
49.0, -215.20693310024217, -87.3958521145396, -123.6897112345323, -154.54014596901834, 0.12800000607967377, 0.12800000607967377, 1.0240000486373901, 0.0, 0.0, 0.0, 0.0, 0.0, 1.651836769376956E9, 0.0, 2022-05-06 12:32:49.376
50.0, -274.776059594471, -222.32396271592006, -211.00889539998025, -199.0225160419941, 0.12800000607967377, 0.12800000607967377, 1.0240000486373901, 0.0, 0.0, 0.0, 0.0, 0.0, 1.651836769391006E9, 0.0, 2022-05-06 12:32:49.391
50.0, -302.40644046710804, -220.9364598323591, -234.2598534245044, -219.87619819492102, 0.12800000607967377, 0.12800000607967377, 1.0240000486373901, 0.0, 0.0, 0.0, 0.0, 0.0, 1.651836769391006E9, 0.0, 2022-05-06 12:32:49.391
51.0, -239.4639242128469, -86.5394150246866, -151.19293550867587, -167.94020751025528, 0.12800000607967377, 0.12800000607967377, 1.0240000486373901, 0.0, 0.0, 0.0, 0.0, 0.0, 1.651836769391935E9, 0.0, 2022-05-06 12:32:49.391
51.0, -215.24807199975476, -89.70711028715596, -127.23139649257064, -156.91124254092574, 0.12800000607967377, 0.12800000607967377, 1.0240000486373901, 0.0, 0.0, 0.0, 0.0, 0.0, 1.651836769391935E9, 0.0, 2022-05-06 12:32:49.391
52.0, -275.8830699813552, -227.44762565521523, -219.31147330161184, -207.23533634468913, 0.12800000607967377, 0.12800000607967377, 1.0240000486373901, 0.0, 0.0, 0.0, 0.0, 0.0, 1.6518367694060743E9, 0.0, 2022-05-06 12:32:49.406
52.0, -293.6401149709709, -217.6416079713963, -229.28204658348113, -204.0601612823084, 0.12800000607967377, 0.12800000607967377, 1.0240000486373901, 0.0, 0.0, 0.0, 0.0, 0.0, 1.6518367694060743E9, 0.0, 2022-05-06 12:32:49.406
53.0, -224.8708345857449, -69.6462869248353, -132.71034992765635, -141.5514734229073, 0.12800000607967377, 0.12800000607967377, 1.0240000486373901, 0.0, 0.0, 0.0, 0.0, 0.0, 1.651836769421016E9, 0.0, 2022-05-06 12:32:49.421
53.0, -220.865401733201, -84.20197755238041, -120.6491725705564, -160.90545569360256, 0.12800000607967377, 0.12800000607967377, 1.0240000486373901, 0.0, 0.0, 0.0, 0.0, 0.0, 1.651836769421016E9, 0.0, 2022-05-06 12:32:49.421
54.0, -283.32547089317814, -226.22093846974894, -212.90876457747072, -200.1669254284352, 0.12800000607967377, 0.12800000607967377, 1.0240000486373901, 0.0, 0.0, 0.0, 0.0, 0.0, 1.6518367694220312E9, 0.0, 2022-05-06 12:32:49.422
54.0, -308.25938389776275, -233.6446398817934, -251.80372411664575, -246.5566444788128, 0.12800000607967377, 0.12800000607967377, 1.0240000486373901, 0.0, 0.0, 0.0, 0.0, 0.0, 1.6518367694220312E9, 0.0, 2022-05-06 12:32:49.422
55.0, -237.52665603579953, -88.5440014009364, -153.39199668262154, -168.8564829993993, 0.12800000607967377, 0.12800000607967377, 1.0240000486373901, 0.0, 0.0, 0.0, 0.0, 0.0, 1.651836769435986E9, 0.0, 2022-05-06 12:32:49.435
55.0, -223.55064990138635, -101.19608295103535, -138.3613387607038, -164.1142898555845, 0.12800000607967377, 0.12800000607967377, 1.0240000486373901, 0.0, 0.0, 0.0, 0.0, 0.0, 1.651836769435986E9, 0.0, 2022-05-06 12:32:49.435
56.0, -286.09299686038867, -230.5367830186151, -223.48894155211747, -217.22460912633687, 0.12800000607967377, 0.12800000607967377, 1.0240000486373901, 0.0, 0.0, 0.0, 0.0, 0.0, 1.6518367694509957E9, 0.0, 2022-05-06 12:32:49.450
56.0, -312.3620541491546, -227.34290845645592, -249.06985724903643, -227.4420158052817, 0.12800000607967377, 0.12800000607967377, 1.0240000486373901, 0.0, 0.0, 0.0, 0.0, 0.0, 1.6518367694509957E9, 0.0, 2022-05-06 12:32:49.450
57.0, -241.63680608710274, -82.99398986669257, -149.177129432559, -169.42868769261986, 0.12800000607967377, 0.12800000607967377, 1.0240000486373901, 0.0, 0.0, 0.0, 0.0, 0.0, 1.651836769451964E9, 0.0, 2022-05-06 12:32:49.451
57.0, -210.57319705514237, -84.59092714777216, -115.27493633423, -143.09605210460722, 0.12800000607967377, 0.12800000607967377, 1.0240000486373901, 0.0, 0.0, 0.0, 0.0, 0.0, 1.651836769451964E9, 0.0, 2022-05-06 12:32:49.451
58.0, -269.6336971553974, -214.02886461419985, -205.982469859533, -198.28575575072318, 0.12800000607967377, 0.12800000607967377, 1.0240000486373901, 0.0, 0.0, 0.0, 0.0, 0.0, 1.6518367694659915E9, 0.0, 2022-05-06 12:32:49.465
58.0, -299.47809880180284, -219.09642905415967, -240.041738756001, -223.6983759496361, 0.12800000607967377, 0.12800000607967377, 1.0240000486373901, 0.0, 0.0, 0.0, 0.0, 0.0, 1.6518367694659915E9, 0.0, 2022-05-06 12:32:49.465
59.0, -232.8667406910099, -80.62289329478517, -144.5546130873263, -159.60771040897816, 0.12800000607967377, 0.12800000607967377, 1.0240000486373901, 0.0, 0.0, 0.0, 0.0, 0.0, 1.6518367694810383E9, 0.0, 2022-05-06 12:32:49.481
59.0, -223.1280412063934, -91.67055776389316, -127.97937648370862, -152.4420620938763, 0.12800000607967377, 0.12800000607967377, 1.0240000486373901, 0.0, 0.0, 0.0, 0.0, 0.0, 1.6518367694810383E9, 0.0, 2022-05-06 12:32:49.481
60.0, -288.3070176341571, -231.37826050864533, -220.7027160851285, -208.177791133523, 0.12800000607967377, 0.12800000607967377, 1.0240000486373901, 0.0, 0.0, 0.0, 0.0, 0.0, 1.651836769481953E9, 0.0, 2022-05-06 12:32:49.481
60.0, -305.44323923112825, -226.29947636881843, -240.31101155281067, -215.8445860426873, 0.12800000607967377, 0.12800000607967377, 1.0240000486373901, 0.0, 0.0, 0.0, 0.0, 0.0, 1.651836769481953E9, 0.0, 2022-05-06 12:32:49.481
61.0, -226.03394347196445, -75.95923805003986, -136.26325488556176, -149.45762192923576, 0.12800000607967377, 0.12800000607967377, 1.0240000486373901, 0.0, 0.0, 0.0, 0.0, 0.0, 1.6518367694959712E9, 0.0, 2022-05-06 12:32:49.495
61.0, -211.36231594579294, -84.4675104492344, -128.46182357799262, -158.2239474253729, 0.12800000607967377, 0.12800000607967377, 1.0240000486373901, 0.0, 0.0, 0.0, 0.0, 0.0, 1.6518367694959712E9, 0.0, 2022-05-06 12:32:49.495
62.0, -277.19951476575807, -225.15132708242163, -207.40737174265087, -209.78220821451396, 0.12800000607967377, 0.12800000607967377, 1.0240000486373901, 0.0, 0.0, 0.0, 0.0, 0.0, 1.65183676951104E9, 0.0, 2022-05-06 12:32:49.511
62.0, -290.46493990859017, -215.0498573021032, -225.19807583186775, -202.86339329648763, 0.12800000607967377, 0.12800000607967377, 1.0240000486373901, 0.0, 0.0, 0.0, 0.0, 0.0, 1.65183676951104E9, 0.0, 2022-05-06 12:32:49.511
63.0, -227.78421665122733, -77.86658702744171, -144.89120408333838, -160.4080489994958, 0.12800000607967377, 0.12800000607967377, 1.0240000486373901, 0.0, 0.0, 0.0, 0.0, 0.0, 1.651836769511936E9, 0.0, 2022-05-06 12:32:49.511
63.0, -216.0147514906712, -92.36243925569579, -130.94137724861503, -171.1228623725474, 0.12800000607967377, 0.12800000607967377, 1.0240000486373901, 0.0, 0.0, 0.0, 0.0, 0.0, 1.651836769511936E9, 0.0, 2022-05-06 12:32:49.511
