%OpenBCI Raw EEG Data
%Number of channels = 4
%Sample Rate = 200 Hz
%Board = OpenBCI_GUI$BoardGanglionBLE
Sample Index, EXG Channel 0, EXG Channel 1, EXG Channel 2, EXG Channel 3, Accel Channel 0, Accel Channel 1, Accel Channel 2, Other, Other, Other, Other, Other, Timestamp, Other, Timestamp (Formatted)
22.0, 68.64960358664393, 145.90845687128603, 105.69705254770815, 74.42774901818484, 0.12800000607967377, 0.0, 0.0, 0.0, 0.0, 0.0, 0.0, 0.0, 1.6518367907589045E9, 0.0, 2022-05-06 12:33:10.758
22.0, 307.9695416511968, 229.31570568308234, 249.96369333844632, 235.6286568082869, 0.12800000607967377, 0.0, 0.0, 0.0, 0.0, 0.0, 0.0, 0.0, 1.6518367907589045E9, 0.0, 2022-05-06 12:33:10.758
0.0, -304.4185066432692, -253.61009579524398, -241.69477453641593, -220.00522474339232, 0.12800000607967377, 0.0, 0.0, 0.0, 0.0, 0.0, 0.0, 0.0, 1.651836790783891E9, 0.0, 2022-05-06 12:33:10.783
1.0, -256.15883761504665, -140.01437454111874, -179.28706397581846, -185.89733714750037, 0.12800000607967377, 0.12800000607967377, 0.0, 0.0, 0.0, 0.0, 0.0, 0.0, 1.6518367907959032E9, 0.0, 2022-05-06 12:33:10.795
1.0, -205.1166830197908, -57.343886020593345, -122.17879165243357, -152.47011134354398, 0.12800000607967377, 0.12800000607967377, 0.0, 0.0, 0.0, 0.0, 0.0, 0.0, 1.6518367907959032E9, 0.0, 2022-05-06 12:33:10.795
2.0, -248.5032624057494, -184.20503241755068, -188.56575576588511, -196.42141562281176, 0.12800000607967377, 0.12800000607967377, 0.0, 0.0, 0.0, 0.0, 0.0, 0.0, 1.6518367908128839E9, 0.0, 2022-05-06 12:33:10.812
2.0, -297.896121120546, -250.93980722688138, -243.97985340934247, -226.92777956137434, 0.12800000607967377, 0.12800000607967377, 0.0, 0.0, 0.0, 0.0, 0.0, 0.0, 1.6518367908128839E9, 0.0, 2022-05-06 12:33:10.812
3.0, -251.24086917331442, -132.44107713084668, -173.2284260476008, -178.45493623567745, 0.12800000607967377, 0.12800000607967377, 0.0, 0.0, 0.0, 0.0, 0.0, 0.0, 1.6518367908138845E9, 0.0, 2022-05-06 12:33:10.813
3.0, -202.99241984495893, -55.85540583822876, -111.02267008461058, -138.87557500461116, 0.12800000607967377, 0.12800000607967377, 0.0, 0.0, 0.0, 0.0, 0.0, 0.0, 1.6518367908138845E9, 0.0, 2022-05-06 12:33:10.813
4.0, -244.37441285466775, -166.9640936218202, -171.9344206629321, -171.05367422336712, 0.12800000607967377, 0.12800000607967377, 0.0, 0.0, 0.0, 0.0, 0.0, 0.0, 1.6518367908259444E9, 0.0, 2022-05-06 12:33:10.825
4.0, -293.4082411737181, -241.3020850410685, -231.12955716159195, -218.43446676200256, 0.12800000607967377, 0.12800000607967377, 0.0, 0.0, 0.0, 0.0, 0.0, 0.0, 1.6518367908259444E9, 0.0, 2022-05-06 12:33:10.825
5.0, -253.60822584526613, -125.84389360900968, -171.3023775704205, -169.92048453679308, 0.12800000607967377, 0.12800000607967377, 0.0, 0.0, 0.0, 0.0, 0.0, 0.0, 1.6518367908419552E9, 0.0, 2022-05-06 12:33:10.841
5.0, -213.46413972089067, -67.19478250388056, -124.99119641911238, -167.64662536373362, 0.12800000607967377, 0.12800000607967377, 0.0, 0.0, 0.0, 0.0, 0.0, 0.0, 1.6518367908419552E9, 0.0, 2022-05-06 12:33:10.841
6.0, -247.97219661204144, -178.57274308428168, -177.25629829987884, -187.63639062689617, 0.12800000607967377, 0.12800000607967377, 0.0, 0.0, 0.0, 0.0, 0.0, 0.0, 1.6518367908428905E9, 0.0, 2022-05-06 12:33:10.842
6.0, -306.7858633152209, -249.1558749480173, -250.232966135256, -224.7137587876059, 0.12800000607967377, 0.12800000607967377, 0.0, 0.0, 0.0, 0.0, 0.0, 0.0, 1.6518367908428905E9, 0.0, 2022-05-06 12:33:10.842
7.0, -247.59446671651676, -122.49294324871153, -167.77191201224923, -174.41958418348804, 0.12800000607967377, 0.12800000607967377, 0.0, 0.0, 0.0, 0.0, 0.0, 0.0, 1.6518367908559363E9, 0.0, 2022-05-06 12:33:10.855
7.0, -185.04463995760307, -43.45763748511672, -96.4520198572427, -112.01561352284625, 0.12800000607967377, 0.12800000607967377, 0.0, 0.0, 0.0, 0.0, 0.0, 0.0, 1.6518367908559363E9, 0.0, 2022-05-06 12:33:10.855
8.0, -250.90427817730233, -175.92115401569754, -186.53872998990119, -201.2982451650314, 0.12800000607967377, 0.12800000607967377, 0.0, 0.0, 0.0, 0.0, 0.0, 0.0, 1.6518367908719437E9, 0.0, 2022-05-06 12:33:10.871
8.0, -313.4952438357286, -261.17591340560466, -262.0136509956792, -249.73742939112708, 0.12800000607967377, 0.12800000607967377, 0.0, 0.0, 0.0, 0.0, 0.0, 0.0, 1.6518367908719437E9, 0.0, 2022-05-06 12:33:10.871
9.0, -263.4366829288192, -135.45917639508843, -182.48093853797764, -195.75571343069896, 0.12800000607967377, 0.12800000607967377, 0.0, 0.0, 0.0, 0.0, 0.0, 0.0, 1.6518367908728793E9, 0.0, 2022-05-06 12:33:10.872
9.0, -206.24613280640915, -66.45054241269827, -111.63975357729942, -147.02855690801516, 0.12800000607967377, 0.12800000607967377, 0.0, 0.0, 0.0, 0.0, 0.0, 0.0, 1.6518367908728793E9, 0.0, 2022-05-06 12:33:10.872
10.0, -258.3915578885935, -192.39915322046727, -180.4613925619051, -191.33889158302918, 0.12800000607967377, 0.12800000607967377, 1.0240000486373901, 0.0, 0.0, 0.0, 0.0, 0.0, 1.6518367908860092E9, 0.0, 2022-05-06 12:33:10.886
10.0, -317.1379063925706, -269.9871177012101, -262.522277389653, -240.4250785014592, 0.12800000607967377, 0.12800000607967377, 1.0240000486373901, 0.0, 0.0, 0.0, 0.0, 0.0, 1.6518367908860092E9, 0.0, 2022-05-06 12:33:10.886
11.0, -250.51532858191058, -119.19061158783734, -164.72389354836196, -167.4633702659048, 0.12800000607967377, 0.06400000303983688, 1.0240000486373901, 0.0, 0.0, 0.0, 0.0, 0.0, 1.6518367909019923E9, 0.0, 2022-05-06 12:33:10.901
11.0, -209.09219667268917, -67.18730270396918, -122.04041535407305, -145.5662560253404, 0.12800000607967377, 0.06400000303983688, 1.0240000486373901, 0.0, 0.0, 0.0, 0.0, 0.0, 1.6518367909019923E9, 0.0, 2022-05-06 12:33:10.901
12.0, -272.09829122619703, -219.07959950435907, -207.69908393919468, -211.80362414056435, 0.06400000303983688, 0.06400000303983688, 1.0240000486373901, 0.0, 0.0, 0.0, 0.0, 0.0, 1.6518367909029071E9, 0.0, 2022-05-06 12:33:10.902
12.0, -301.73699837503955, -245.66280838940293, -243.86391651071608, -226.18727937014773, 0.06400000303983688, 0.06400000303983688, 1.0240000486373901, 0.0, 0.0, 0.0, 0.0, 0.0, 1.6518367909029071E9, 0.0, 2022-05-06 12:33:10.902
13.0, -243.1365059693344, -100.11712181381881, -163.28029216546565, -178.08468614006415, 0.06400000303983688, 0.06400000303983688, 1.0240000486373901, 0.0, 0.0, 0.0, 0.0, 0.0, 1.6518367909159193E9, 0.0, 2022-05-06 12:33:10.915
13.0, -213.12754872487858, -70.53077326435596, -119.02979588974267, -153.32654843339697, 0.06400000303983688, 0.06400000303983688, 1.0240000486373901, 0.0, 0.0, 0.0, 0.0, 0.0, 1.6518367909159193E9, 0.0, 2022-05-06 12:33:10.915
14.0, -277.3715501637198, -225.78150022495538, -213.14437827467918, -210.72279305336997, 0.06400000303983688, 0.06400000303983688, 1.0240000486373901, 0.0, 0.0, 0.0, 0.0, 0.0, 1.6518367909319675E9, 0.0, 2022-05-06 12:33:10.931
14.0, -310.0994146759622, -251.75884531717747, -247.42056136857718, -233.2743897861801, 0.06400000303983688, 0.06400000303983688, 1.0240000486373901, 0.0, 0.0, 0.0, 0.0, 0.0, 1.6518367909319675E9, 0.0, 2022-05-06 12:33:10.931
15.0, -237.03298924164847, -94.39133498165756, -153.8183452775702, -161.68148493440822, 0.06400000303983688, 0.06400000303983688, 1.0240000486373901, 0.0, 0.0, 0.0, 0.0, 0.0, 1.651836790932916E9, 0.0, 2022-05-06 12:33:10.932
15.0, -205.76742561208084, -63.64187754597515, -117.03268931340426, -144.48168503819034, 0.06400000303983688, 0.06400000303983688, 1.0240000486373901, 0.0, 0.0, 0.0, 0.0, 0.0, 1.651836790932916E9, 0.0, 2022-05-06 12:33:10.932
16.0, -283.09733699588105, -222.93169645871967, -213.45478997100145, -217.30127707542852, 0.06400000303983688, 0.06400000303983688, 1.0240000486373901, 0.0, 0.0, 0.0, 0.0, 0.0, 1.6518367909459438E9, 0.0, 2022-05-06 12:33:10.945
16.0, -314.9089260189794, -258.5617233365774, -259.21620582882315, -241.03468219423667, 0.06400000303983688, 0.06400000303983688, 1.0240000486373901, 0.0, 0.0, 0.0, 0.0, 0.0, 1.6518367909459438E9, 0.0, 2022-05-06 12:33:10.945
17.0, -245.53378184093162, -96.68763355445117, -158.20150802563876, -163.18866461655125, 0.06400000303983688, 0.06400000303983688, 1.0240000486373901, 0.0, 0.0, 0.0, 0.0, 0.0, 1.6518367909619348E9, 0.0, 2022-05-06 12:33:10.961
17.0, -205.61408971389756, -66.92550970707089, -116.1276335241273, -134.6382683548145, 0.06400000303983688, 0.06400000303983688, 1.0240000486373901, 0.0, 0.0, 0.0, 0.0, 0.0, 1.6518367909619348E9, 0.0, 2022-05-06 12:33:10.961
18.0, -280.62152322521433, -224.79790653660893, -216.37939173635095, -222.3875410151668, 0.06400000303983688, 0.06400000303983688, 1.0240000486373901, 0.0, 0.0, 0.0, 0.0, 0.0, 1.6518367909629517E9, 0.0, 2022-05-06 12:33:10.962
18.0, -316.1767521039583, -252.66016120649874, -256.50477836094797, -248.60797960450873, 0.06400000303983688, 0.06400000303983688, 1.0240000486373901, 0.0, 0.0, 0.0, 0.0, 0.0, 1.6518367909629517E9, 0.0, 2022-05-06 12:33:10.962
19.0, -243.86204656073824, -96.54925725609064, -166.64246222563088, -179.71528252074495, 0.06400000303983688, 0.06400000303983688, 1.0240000486373901, 0.0, 0.0, 0.0, 0.0, 0.0, 1.651836790975932E9, 0.0, 2022-05-06 12:33:10.975
19.0, -204.36122322874144, -60.39564438443631, -110.44298559147865, -138.96533260354772, 0.06400000303983688, 0.06400000303983688, 1.0240000486373901, 0.0, 0.0, 0.0, 0.0, 0.0, 1.651836790975932E9, 0.0, 2022-05-06 12:33:10.975
20.0, -268.98669446306303, -218.70934940874577, -201.22157721593976, -194.41308934660628, 0.06400000303983688, 0.06400000303983688, 0.5120000243186951, 0.0, 0.0, 0.0, 0.0, 0.0, 1.651836790991982E9, 0.0, 2022-05-06 12:33:10.991
20.0, -311.1017078640871, -240.6363828489557, -242.39413582812995, -218.9019542564638, 0.06400000303983688, 0.06400000303983688, 0.5120000243186951, 0.0, 0.0, 0.0, 0.0, 0.0, 1.651836790991982E9, 0.0, 2022-05-06 12:33:10.991
21.0, -239.42652521329, -83.77375900745392, -164.30876465328038, -172.48231600644067, 0.06400000303983688, 0.09600000455975533, 0.5120000243186951, 0.0, 0.0, 0.0, 0.0, 0.0, 1.6518367909929173E9, 0.0, 2022-05-06 12:33:10.992
21.0, -212.9330739271827, -67.59869169909507, -117.53009600751102, -150.47674466716126, 0.06400000303983688, 0.09600000455975533, 0.5120000243186951, 0.0, 0.0, 0.0, 0.0, 0.0, 1.6518367909929173E9, 0.0, 2022-05-06 12:33:10.992
22.0, -278.0110730561428, -235.32198501192033, -218.9561828058213, -220.36799503909424, 0.09600000455975533, 0.09600000455975533, 0.5120000243186951, 0.0, 0.0, 0.0, 0.0, 0.0, 1.651836791022972E9, 0.0, 2022-05-06 12:33:11.022
22.0, -316.58814109908417, -249.1932739475742, -250.27410503476858, -231.5315964068286, 0.09600000455975533, 0.09600000455975533, 0.5120000243186951, 0.0, 0.0, 0.0, 0.0, 0.0, 1.651836791022972E9, 0.0, 2022-05-06 12:33:11.022
23.0, -234.9087260668166, -81.5185993341729, -145.61674467474222, -160.53333564801142, 0.09600000455975533, 0.09600000455975533, 0.5120000243186951, 0.0, 0.0, 0.0, 0.0, 0.0, 1.6518367910238967E9, 0.0, 2022-05-06 12:33:11.023
23.0, -203.50104623893276, -61.84672556724399, -108.19156581815332, -133.88280856376514, 0.09600000455975533, 0.09600000455975533, 0.5120000243186951, 0.0, 0.0, 0.0, 0.0, 0.0, 1.6518367910238967E9, 0.0, 2022-05-06 12:33:11.023
24.0, -264.01262752199546, -211.21832979749888, -201.9433779073879, -197.7752594067715, 0.09600000455975533, 0.09600000455975533, 0.5120000243186951, 0.0, 0.0, 0.0, 0.0, 0.0, 1.6518367910248744E9, 0.0, 2022-05-06 12:33:11.024
24.0, -318.15515918051824, -244.6717349011451, -250.31898383423686, -227.18957255827263, 0.09600000455975533, 0.09600000455975533, 0.5120000243186951, 0.0, 0.0, 0.0, 0.0, 0.0, 1.6518367910248744E9, 0.0, 2022-05-06 12:33:11.024
25.0, -246.74924932653084, -86.12241617962718, -156.87758344132453, -170.1411386341788, 0.09600000455975533, 0.09600000455975533, 0.5120000243186951, 0.0, 0.0, 0.0, 0.0, 0.0, 1.6518367910359445E9, 0.0, 2022-05-06 12:33:11.035
25.0, -207.8617695872672, -68.95253548305482, -107.50342422630638, -139.55249689659104, 0.09600000455975533, 0.09600000455975533, 0.5120000243186951, 0.0, 0.0, 0.0, 0.0, 0.0, 1.6518367910359445E9, 0.0, 2022-05-06 12:33:11.035
26.0, -277.49870676221326, -231.94485535193235, -209.75602891482413, -205.3335972172208, 0.09600000455975533, 0.09600000455975533, 0.5120000243186951, 0.0, 0.0, 0.0, 0.0, 0.0, 1.6518367910679612E9, 0.0, 2022-05-06 12:33:11.067
26.0, -306.0902419234626, -242.40535552799702, -251.72518621757627, -232.47405119566247, 0.09600000455975533, 0.09600000455975533, 0.5120000243186951, 0.0, 0.0, 0.0, 0.0, 0.0, 1.6518367910679612E9, 0.0, 2022-05-06 12:33:11.067
27.0, -240.22312390385196, -85.4828932872042, -151.54822600446641, -161.07188124163076, 0.09600000455975533, 0.09600000455975533, 0.5120000243186951, 0.0, 0.0, 0.0, 0.0, 0.0, 1.6518367910689068E9, 0.0, 2022-05-06 12:33:11.068
27.0, -201.447841163259, -64.49831463582814, -114.69525184109807, -139.5300574968569, 0.09600000455975533, 0.09600000455975533, 0.5120000243186951, 0.0, 0.0, 0.0, 0.0, 0.0, 1.6518367910689068E9, 0.0, 2022-05-06 12:33:11.068
28.0, -290.61453590681776, -232.58437824435532, -219.9584759939462, -227.6495802528225, 0.09600000455975533, 0.09600000455975533, 0.5120000243186951, 0.0, 0.0, 0.0, 0.0, 0.0, 1.6518367910698977E9, 0.0, 2022-05-06 12:33:11.069
28.0, -310.5706420703791, -238.79635207075626, -245.07190419640392, -223.277637204621, 0.09600000455975533, 0.09600000455975533, 0.5120000243186951, 0.0, 0.0, 0.0, 0.0, 0.0, 1.6518367910698977E9, 0.0, 2022-05-06 12:33:11.069
29.0, -236.33362794993445, -82.78642541915178, -147.39693705365062, -147.92987279733643, 0.09600000455975533, 0.09600000455975533, 0.5120000243186951, 0.0, 0.0, 0.0, 0.0, 0.0, 1.651836791070947E9, 0.0, 2022-05-06 12:33:11.070
29.0, -206.62386270193383, -63.45114264823496, -116.19869162328541, -149.0892417836003, 0.09600000455975533, 0.09600000455975533, 0.5120000243186951, 0.0, 0.0, 0.0, 0.0, 0.0, 1.651836791070947E9, 0.0, 2022-05-06 12:33:11.070
30.0, -274.3048322000541, -228.56398579198867, -209.23992272093892, -210.09074996085837, 0.09600000455975533, 0.09600000455975533, 0.7680000364780426, 0.0, 0.0, 0.0, 0.0, 0.0, 1.6518367910809255E9, 0.0, 2022-05-06 12:33:11.080
30.0, -317.0631083934568, -253.3819618979469, -261.2432316048071, -245.7656556381844, 0.09600000455975533, 0.09600000455975533, 0.7680000364780426, 0.0, 0.0, 0.0, 0.0, 0.0, 1.6518367910809255E9, 0.0, 2022-05-06 12:33:11.080
31.0, -245.05133474664763, -92.35308950580657, -164.6378758493811, -182.01906089344993, 0.09600000455975533, 0.11200000531971455, 0.7680000364780426, 0.0, 0.0, 0.0, 0.0, 0.0, 1.6518367910959346E9, 0.0, 2022-05-06 12:33:11.095
31.0, -214.47765260888264, -79.80572515446693, -124.71444382239133, -162.3920659259893, 0.09600000455975533, 0.11200000531971455, 0.7680000364780426, 0.0, 0.0, 0.0, 0.0, 0.0, 1.6518367910959346E9, 0.0, 2022-05-06 12:33:11.095
32.0, -278.86751014599577, -225.67678302619606, -212.35151948407292, -210.65173495421186, 0.11200000531971455, 0.11200000531971455, 0.7680000364780426, 0.0, 0.0, 0.0, 0.0, 0.0, 1.651836791111954E9, 0.0, 2022-05-06 12:33:11.111
32.0, -307.85173480259255, -238.69911467190832, -247.1138895722106, -222.95226590847597, 0.11200000531971455, 0.11200000531971455, 0.7680000364780426, 0.0, 0.0, 0.0, 0.0, 0.0, 1.651836791111954E9, 0.0, 2022-05-06 12:33:11.111
33.0, -226.87542096199468, -73.06642543431371, -134.41200440749526, -140.02372429100797, 0.11200000531971455, 0.11200000531971455, 0.7680000364780426, 0.0, 0.0, 0.0, 0.0, 0.0, 1.651836791112883E9, 0.0, 2022-05-06 12:33:11.112
33.0, -173.96331638889387, -48.76081562228501, -99.74687171820551, -121.64585590874776, 0.11200000531971455, 0.11200000531971455, 0.7680000364780426, 0.0, 0.0, 0.0, 0.0, 0.0, 1.651836791112883E9, 0.0, 2022-05-06 12:33:11.112
34.0, -283.0000995970331, -221.12906468007714, -209.75602891482413, -204.09569033188745, 0.11200000531971455, 0.11200000531971455, 0.7680000364780426, 0.0, 0.0, 0.0, 0.0, 0.0, 1.6518367911260047E9, 0.0, 2022-05-06 12:33:11.126
34.0, -316.9434315948747, -244.92230819817632, -256.43372026178986, -230.63776031741872, 0.11200000531971455, 0.11200000531971455, 0.7680000364780426, 0.0, 0.0, 0.0, 0.0, 0.0, 1.6518367911260047E9, 0.0, 2022-05-06 12:33:11.126
35.0, -243.9892031592317, -90.43078092858195, -157.2253941372037, -165.58594048814848, 0.11200000531971455, 0.11200000531971455, 0.7680000364780426, 0.0, 0.0, 0.0, 0.0, 0.0, 1.6518367911419373E9, 0.0, 2022-05-06 12:33:11.141
35.0, -206.9679334978573, -69.12457088101655, -121.86464005615562, -151.69221215276048, 0.11200000531971455, 0.11200000531971455, 0.7680000364780426, 0.0, 0.0, 0.0, 0.0, 0.0, 1.6518367911419373E9, 0.0, 2022-05-06 12:33:11.141
36.0, -275.39314308715984, -220.8485721834004, -200.88124631997198, -192.20280847279355, 0.11200000531971455, 0.11200000531971455, 0.7680000364780426, 0.0, 0.0, 0.0, 0.0, 0.0, 1.651836791142895E9, 0.0, 2022-05-06 12:33:11.142
36.0, -295.6708806469105, -231.13703696150333, -242.1847014306113, -226.123701070901, 0.11200000531971455, 0.11200000531971455, 0.7680000364780426, 0.0, 0.0, 0.0, 0.0, 0.0, 1.651836791142895E9, 0.0, 2022-05-06 12:33:11.142
37.0, -235.6903651575558, -80.31809144839644, -150.78528641350567, -174.23632908565924, 0.11200000531971455, 0.11200000531971455, 0.7680000364780426, 0.0, 0.0, 0.0, 0.0, 0.0, 1.6518367911559317E9, 0.0, 2022-05-06 12:33:11.155
37.0, -206.1900343070738, -72.00429384689778, -118.30051539838314, -146.50871081417426, 0.11200000531971455, 0.11200000531971455, 0.7680000364780426, 0.0, 0.0, 0.0, 0.0, 0.0, 1.6518367911559317E9, 0.0, 2022-05-06 12:33:11.155
38.0, -281.69487451249734, -227.50559410452843, -216.29711393732578, -209.39138866914436, 0.11200000531971455, 0.11200000531971455, 0.7680000364780426, 0.0, 0.0, 0.0, 0.0, 0.0, 1.6518367911719697E9, 0.0, 2022-05-06 12:33:11.171
38.0, -316.44602490076795, -248.25081915874034, -252.27869141101837, -227.50372415455058, 0.11200000531971455, 0.11200000531971455, 0.7680000364780426, 0.0, 0.0, 0.0, 0.0, 0.0, 1.6518367911719697E9, 0.0, 2022-05-06 12:33:11.171
39.0, -231.67745250510052, -74.69328191503882, -140.19014983903617, -148.4197996915318, 0.11200000531971455, 0.11200000531971455, 0.7680000364780426, 0.0, 0.0, 0.0, 0.0, 0.0, 1.6518367911729062E9, 0.0, 2022-05-06 12:33:11.172
39.0, -203.79275843547657, -65.7324816212058, -113.11701405979693, -141.4598458739929, 0.11200000531971455, 0.11200000531971455, 0.7680000364780426, 0.0, 0.0, 0.0, 0.0, 0.0, 1.6518367911729062E9, 0.0, 2022-05-06 12:33:11.172
40.0, -279.53695223806426, -225.66930322628468, -208.86219282541424, -203.32901084097102, 0.11200000531971455, 0.11200000531971455, 0.8960000425577164, 0.0, 0.0, 0.0, 0.0, 0.0, 1.6518367911859496E9, 0.0, 2022-05-06 12:33:11.185
40.0, -306.81952241482213, -234.1850554253906, -241.23850674182177, -216.0446706903167, 0.11200000531971455, 0.11200000531971455, 0.8960000425577164, 0.0, 0.0, 0.0, 0.0, 0.0, 1.6518367911859496E9, 0.0, 2022-05-06 12:33:11.185
41.0, -232.08510160027072, -79.12880326248705, -154.0689185746014, -171.0611540232785, 0.11200000531971455, 0.11200000531971455, 0.8960000425577164, 0.0, 0.0, 0.0, 0.0, 0.0, 1.6518367912019525E9, 0.0, 2022-05-06 12:33:11.201
41.0, -209.29041137034073, -69.9959675706923, -116.8344746157527, -154.61681391810998, 0.11200000531971455, 0.11200000531971455, 0.8960000425577164, 0.0, 0.0, 0.0, 0.0, 0.0, 1.6518367912019525E9, 0.0, 2022-05-06 12:33:11.201
42.0, -281.98284680908546, -235.82687150593847, -218.3278796132654, -212.81713702855632, 0.11200000531971455, 0.11200000531971455, 0.8960000425577164, 0.0, 0.0, 0.0, 0.0, 0.0, 1.6518367912029066E9, 0.0, 2022-05-06 12:33:11.202
42.0, -304.9383527371101, -239.80238515883684, -246.32477068156004, -217.55185037245974, 0.11200000531971455, 0.11200000531971455, 0.8960000425577164, 0.0, 0.0, 0.0, 0.0, 0.0, 1.6518367912029066E9, 0.0, 2022-05-06 12:33:11.202
43.0, -232.69470529304817, -83.57180440984666, -152.75621369015425, -162.36588662629947, 0.11200000531971455, 0.11200000531971455, 0.8960000425577164, 0.0, 0.0, 0.0, 0.0, 0.0, 1.6518367912159376E9, 0.0, 2022-05-06 12:33:11.215
43.0, -210.5993763548322, -77.36357048340142, -125.95609060768038, -145.65601362427697, 0.11200000531971455, 0.11200000531971455, 0.8960000425577164, 0.0, 0.0, 0.0, 0.0, 0.0, 1.6518367912159376E9, 0.0, 2022-05-06 12:33:11.215
44.0, -276.09250437887385, -233.36227743513882, -223.13365105632693, -219.43675995012745, 0.11200000531971455, 0.11200000531971455, 0.8960000425577164, 0.0, 0.0, 0.0, 0.0, 0.0, 1.6518367912319365E9, 0.0, 2022-05-06 12:33:11.231
44.0, -305.6489337286912, -244.40620200429112, -244.36506310477853, -222.3501420156099, 0.11200000531971455, 0.11200000531971455, 0.8960000425577164, 0.0, 0.0, 0.0, 0.0, 0.0, 1.6518367912319365E9, 0.0, 2022-05-06 12:33:11.231
45.0, -244.2809153557755, -80.0001999521628, -151.4435088057071, -165.99732948327437, 0.11200000531971455, 0.11200000531971455, 0.8960000425577164, 0.0, 0.0, 0.0, 0.0, 0.0, 1.6518367912329488E9, 0.0, 2022-05-06 12:33:11.232
45.0, -210.43108085682616, -74.13603682164103, -119.51224298402667, -150.88439376233146, 0.11200000531971455, 0.11200000531971455, 0.8960000425577164, 0.0, 0.0, 0.0, 0.0, 0.0, 1.6518367912329488E9, 0.0, 2022-05-06 12:33:11.232
46.0, -286.4482873561792, -231.94111545197666, -224.74554793722928, -222.43615971459076, 0.11200000531971455, 0.11200000531971455, 0.8960000425577164, 0.0, 0.0, 0.0, 0.0, 0.0, 1.6518367912459435E9, 0.0, 2022-05-06 12:33:11.245
46.0, -312.6388067458756, -243.02617892064154, -248.11244286037982, -234.01115007745102, 0.11200000531971455, 0.11200000531971455, 0.8960000425577164, 0.0, 0.0, 0.0, 0.0, 0.0, 1.6518367912459435E9, 0.0, 2022-05-06 12:33:11.245
47.0, -238.88423971971497, -82.28901872504503, -152.12043069768697, -171.62961881654337, 0.11200000531971455, 0.11200000531971455, 0.8960000425577164, 0.0, 0.0, 0.0, 0.0, 0.0, 1.651836791261956E9, 0.0, 2022-05-06 12:33:11.261
47.0, -205.7038473128341, -72.43812224175781, -110.85437458660454, -139.3019235995598, 0.11200000531971455, 0.11200000531971455, 0.8960000425577164, 0.0, 0.0, 0.0, 0.0, 0.0, 1.651836791261956E9, 0.0, 2022-05-06 12:33:11.261
48.0, -271.60462443204597, -220.141731091775, -207.15305854566395, -198.48958029830828, 0.11200000531971455, 0.11200000531971455, 0.8960000425577164, 0.0, 0.0, 0.0, 0.0, 0.0, 1.6518367912629514E9, 0.0, 2022-05-06 12:33:11.262
48.0, -299.874528197106, -235.36312391143292, -249.4475871445611, -231.38200040860102, 0.11200000531971455, 0.11200000531971455, 0.8960000425577164, 0.0, 0.0, 0.0, 0.0, 0.0, 1.6518367912629514E9, 0.0, 2022-05-06 12:33:11.262
49.0, -235.81752175604925, -80.0001999521628, -148.2159751439467, -166.23294318048283, 0.11200000531971455, 0.11200000531971455, 0.8960000425577164, 0.0, 0.0, 0.0, 0.0, 0.0, 1.6518367912759633E9, 0.0, 2022-05-06 12:33:11.275
49.0, -215.13961490103975, -77.93577517662197, -116.8718736153096, -147.91117329755798, 0.11200000531971455, 0.11200000531971455, 0.8960000425577164, 0.0, 0.0, 0.0, 0.0, 0.0, 1.6518367912759633E9, 0.0, 2022-05-06 12:33:11.275
50.0, -286.43332775635645, -232.15802964940667, -219.86871839500964, -206.01425900915638, 0.11200000531971455, 0.11200000531971455, 0.9600000455975533, 0.0, 0.0, 0.0, 0.0, 0.0, 1.651836791291931E9, 0.0, 2022-05-06 12:33:11.291
50.0, -312.26107685035095, -232.45722164586186, -241.60501693747938, -222.58949561277404, 0.11200000531971455, 0.11200000531971455, 0.9600000455975533, 0.0, 0.0, 0.0, 0.0, 0.0, 1.651836791291931E9, 0.0, 2022-05-06 12:33:11.291
51.0, -231.37452060868964, -70.32133886683732, -140.57909943442792, -152.32051534531638, 0.11200000531971455, 0.12800000607967377, 0.9600000455975533, 0.0, 0.0, 0.0, 0.0, 0.0, 1.651836791292868E9, 0.0, 2022-05-06 12:33:11.292
51.0, -199.40211588749662, -57.762754815630615, -103.95051926840097, -132.91791437519714, 0.11200000531971455, 0.12800000607967377, 0.9600000455975533, 0.0, 0.0, 0.0, 0.0, 0.0, 1.651836791292868E9, 0.0, 2022-05-06 12:33:11.292
52.0, -281.20494761830196, -231.95607505179942, -215.50051524676383, -207.83933018753305, 0.11200000531971455, 0.12800000607967377, 0.9600000455975533, 0.0, 0.0, 0.0, 0.0, 0.0, 1.6518367913059711E9, 0.0, 2022-05-06 12:33:11.305
52.0, -302.17456666985527, -238.44106157496572, -237.88007658161223, -220.81678303377703, 0.11200000531971455, 0.12800000607967377, 0.9600000455975533, 0.0, 0.0, 0.0, 0.0, 0.0, 1.6518367913059711E9, 0.0, 2022-05-06 12:33:11.305
53.0, -241.2815155913122, -86.94519416987896, -143.98614829406142, -155.43211210845038, 0.11200000531971455, 0.12800000607967377, 0.9600000455975533, 0.0, 0.0, 0.0, 0.0, 0.0, 1.6518367913219395E9, 0.0, 2022-05-06 12:33:11.321
53.0, -207.06891079666093, -74.97751431167126, -124.15719872899354, -157.06270848913118, 0.11200000531971455, 0.12800000607967377, 0.9600000455975533, 0.0, 0.0, 0.0, 0.0, 0.0, 1.6518367913219395E9, 0.0, 2022-05-06 12:33:11.321
54.0, -273.42595571046695, -214.93205045349896, -203.19998429249972, -214.03634441411123, 0.11200000531971455, 0.12800000607967377, 0.9600000455975533, 0.0, 0.0, 0.0, 0.0, 0.0, 1.651836791322939E9, 0.0, 2022-05-06 12:33:11.322
54.0, -309.6169675816782, -243.90879531018436, -248.3069176580757, -231.52785650687292, 0.11200000531971455, 0.12800000607967377, 0.9600000455975533, 0.0, 0.0, 0.0, 0.0, 0.0, 1.651836791322939E9, 0.0, 2022-05-06 12:33:11.322
55.0, -231.39322010846809, -96.51559815648943, -159.93682160507888, -173.2153363977559, 0.11200000531971455, 0.12800000607967377, 0.9600000455975533, 0.0, 0.0, 0.0, 0.0, 0.0, 1.6518367913359616E9, 0.0, 2022-05-06 12:33:11.335
55.0, -201.62361646117643, -73.30951893143356, -119.62817988265306, -152.17465924704447, 0.11200000531971455, 0.12800000607967377, 0.9600000455975533, 0.0, 0.0, 0.0, 0.0, 0.0, 1.6518367913359616E9, 0.0, 2022-05-06 12:33:11.335
56.0, -270.09370484994724, -206.18442445714027, -195.01334328949451, -196.4101959229447, 0.11200000531971455, 0.12800000607967377, 0.9600000455975533, 0.0, 0.0, 0.0, 0.0, 0.0, 1.6518367913519444E9, 0.0, 2022-05-06 12:33:11.351
56.0, -307.545063006226, -236.91892229299992, -240.97297384496778, -220.8242628336884, 0.11200000531971455, 0.12800000607967377, 0.9600000455975533, 0.0, 0.0, 0.0, 0.0, 0.0, 1.6518367913519444E9, 0.0, 2022-05-06 12:33:11.351
57.0, -247.6206460162066, -96.95316645130515, -161.54497858602554, -173.985755788628, 0.11200000531971455, 0.12800000607967377, 0.9600000455975533, 0.0, 0.0, 0.0, 0.0, 0.0, 1.651836791352923E9, 0.0, 2022-05-06 12:33:11.352
57.0, -201.3019850649871, -70.80752586107701, -112.77668316382915, -143.81224294612184, 0.11200000531971455, 0.12800000607967377, 0.9600000455975533, 0.0, 0.0, 0.0, 0.0, 0.0, 1.651836791352923E9, 0.0, 2022-05-06 12:33:11.352
58.0, -268.4107498698868, -213.61186576914042, -202.05183500610292, -203.35893004061654, 0.11200000531971455, 0.12800000607967377, 0.9600000455975533, 0.0, 0.0, 0.0, 0.0, 0.0, 1.651836791365992E9, 0.0, 2022-05-06 12:33:11.365
58.0, -314.5424158233218, -245.3710961928591, -252.43576720915735, -226.30321626877412, 0.11200000531971455, 0.12800000607967377, 0.9600000455975533, 0.0, 0.0, 0.0, 0.0, 0.0, 1.651836791365992E9, 0.0, 2022-05-06 12:33:11.365
59.0, -249.63271219236776, -101.85991519317031, -162.35653687641025, -171.97742951242253, 0.11200000531971455, 0.12800000607967377, 0.9600000455975533, 0.0, 0.0, 0.0, 0.0, 0.0, 1.6518367913819392E9, 0.0, 2022-05-06 12:33:11.381
59.0, -196.8477642177604, -60.63125808164477, -110.17745269462466, -136.971965927165, 0.11200000531971455, 0.12800000607967377, 0.9600000455975533, 0.0, 0.0, 0.0, 0.0, 0.0, 1.6518367913819392E9, 0.0, 2022-05-06 12:33:11.381
60.0, -269.7047552545555, -211.880292089656, -201.77882230933756, -207.0763905965723, 0.11200000531971455, 0.12800000607967377, 0.9920000471174717, 0.0, 0.0, 0.0, 0.0, 0.0, 1.6518367913828828E9, 0.0, 2022-05-06 12:33:11.382
60.0, -302.3054631683044, -233.16406273748726, -247.12510927207768, -229.6803459287621, 0.11200000531971455, 0.12800000607967377, 0.9920000471174717, 0.0, 0.0, 0.0, 0.0, 0.0, 1.6518367913828828E9, 0.0, 2022-05-06 12:33:11.382
61.0, -240.03238900611177, -96.92698715161532, -159.16266231425107, -169.5427546412684, 0.11200000531971455, 0.12800000607967377, 0.9920000471174717, 0.0, 0.0, 0.0, 0.0, 0.0, 1.6518367913959491E9, 0.0, 2022-05-06 12:33:11.395
61.0, -204.8586299228482, -69.4387224772945, -115.88454002700746, -135.9023545398377, 0.11200000531971455, 0.12800000607967377, 0.9920000471174717, 0.0, 0.0, 0.0, 0.0, 0.0, 1.6518367913959491E9, 0.0, 2022-05-06 12:33:11.395
62.0, -271.7355209304951, -207.33631364349276, -200.81766802072525, -203.06347794411704, 0.12800000607967377, 0.12800000607967377, 0.9920000471174717, 0.0, 0.0, 0.0, 0.0, 0.0, 1.6518367914119368E9, 0.0, 2022-05-06 12:33:11.411
62.0, -310.88105376670137, -247.76837206445634, -248.14236206002533, -228.7902497393079, 0.12800000607967377, 0.12800000607967377, 0.9920000471174717, 0.0, 0.0, 0.0, 0.0, 0.0, 1.6518367914119368E9, 0.0, 2022-05-06 12:33:11.411
63.0, -246.3191608316265, -100.89128110464662, -159.5590917095542, -172.8376065022312, 0.12800000607967377, 0.12800000607967377, 0.9920000471174717, 0.0, 0.0, 0.0, 0.0, 0.0, 1.6518367914129152E9, 0.0, 2022-05-06 12:33:11.412
63.0, -210.77141175279394, -79.21108106151223, -120.58559427130967, -141.639361071866, 0.12800000607967377, 0.12800000607967377, 0.9920000471174717, 0.0, 0.0, 0.0, 0.0, 0.0, 1.6518367914129152E9, 0.0, 2022-05-06 12:33:11.412
64.0, -265.1719965082593, -210.15245831012726, -194.26910319831222, -175.5452940701507, 0.12800000607967377, 0.12800000607967377, 0.9920000471174717, 0.0, 0.0, 0.0, 0.0, 0.0, 1.6518367914259343E9, 0.0, 2022-05-06 12:33:11.425
64.0, -300.18493989342824, -233.68764873128384, -250.95476682670414, -241.59940708754584, 0.12800000607967377, 0.12800000607967377, 0.9920000471174717, 0.0, 0.0, 0.0, 0.0, 0.0, 1.6518367914259343E9, 0.0, 2022-05-06 12:33:11.425
65.0, -240.81028819689527, -93.1908270958811, -155.31056535989046, -177.37784504843876, 0.12800000607967377, 0.12800000607967377, 0.9920000471174717, 0.0, 0.0, 0.0, 0.0, 0.0, 1.6518367914419377E9, 0.0, 2022-05-06 12:33:11.441
65.0, -210.39742175722495, -77.47576748207211, -115.4993303315714, -148.58061538962647, 0.12800000607967377, 0.12800000607967377, 0.9920000471174717, 0.0, 0.0, 0.0, 0.0, 0.0, 1.6518367914419377E9, 0.0, 2022-05-06 12:33:11.441
66.0, -264.801746412646, -210.48156950622797, -202.88209279626608, -196.95622131647542, 0.12800000607967377, 0.12800000607967377, 0.9920000471174717, 0.0, 0.0, 0.0, 0.0, 0.0, 1.6518367914428973E9, 0.0, 2022-05-06 12:33:11.442
66.0, -278.1083104549907, -231.38387035857886, -235.50524010974914, -218.94683305593207, 0.12800000607967377, 0.12800000607967377, 0.9920000471174717, 0.0, 0.0, 0.0, 0.0, 0.0, 1.6518367914428973E9, 0.0, 2022-05-06 12:33:11.442
67.0, -240.15206580469385, -89.88849543500692, -151.1854557087645, -166.08334718225524, 0.12800000607967377, 0.12800000607967377, 0.9920000471174717, 0.0, 0.0, 0.0, 0.0, 0.0, 1.6518367914559665E9, 0.0, 2022-05-06 12:33:11.455
67.0, -215.32660989882424, -78.86327036563307, -123.86174663249403, -156.77473619254306, 0.12800000607967377, 0.12800000607967377, 0.9920000471174717, 0.0, 0.0, 0.0, 0.0, 0.0, 1.6518367914559665E9, 0.0, 2022-05-06 12:33:11.455
68.0, -268.9941742629744, -214.26634826138616, -203.52909548860043, -198.50453989813104, 0.12800000607967377, 0.12800000607967377, 0.9920000471174717, 0.0, 0.0, 0.0, 0.0, 0.0, 1.6518367914719317E9, 0.0, 2022-05-06 12:33:11.471
68.0, -302.0174908717163, -233.27999963611364, -247.05779107287526, -230.41710622003302, 0.12800000607967377, 0.12800000607967377, 0.9920000471174717, 0.0, 0.0, 0.0, 0.0, 0.0, 1.6518367914719317E9, 0.0, 2022-05-06 12:33:11.471
69.0, -242.88219277234748, -104.07393596693873, -164.7051940485835, -184.81650606030598, 0.12800000607967377, 0.12800000607967377, 0.9920000471174717, 0.0, 0.0, 0.0, 0.0, 0.0, 1.65183679147288E9, 0.0, 2022-05-06 12:33:11.472
69.0, -203.0372986444272, -73.58253162819892, -113.21051155868918, -144.50038453796878, 0.12800000607967377, 0.12800000607967377, 0.9920000471174717, 0.0, 0.0, 0.0, 0.0, 0.0, 1.65183679147288E9, 0.0, 2022-05-06 12:33:11.472
70.0, -280.1203766311519, -215.39205814804882, -206.34898005519062, -199.0056864921935, 0.12800000607967377, 0.12800000607967377, 1.008000047877431, 0.0, 0.0, 0.0, 0.0, 0.0, 1.6518367914859588E9, 0.0, 2022-05-06 12:33:11.485
70.0, -305.69381252815947, -236.98998039215803, -237.80153868254274, -218.53544406080619, 0.12800000607967377, 0.12800000607967377, 1.008000047877431, 0.0, 0.0, 0.0, 0.0, 0.0, 1.6518367914859588E9, 0.0, 2022-05-06 12:33:11.485
71.0, -231.59517470607534, -91.31339731812477, -144.77900708466768, -163.51777581265196, 0.12800000607967377, 0.12800000607967377, 1.008000047877431, 0.0, 0.0, 0.0, 0.0, 0.0, 1.6518367915019448E9, 0.0, 2022-05-06 12:33:11.501
71.0, -214.08870301349089, -81.87762972991914, -128.2411694806069, -155.99683700175956, 0.12800000607967377, 0.12800000607967377, 1.008000047877431, 0.0, 0.0, 0.0, 0.0, 0.0, 1.6518367915019448E9, 0.0, 2022-05-06 12:33:11.501
72.0, -273.46335471002385, -219.53586729895324, -203.43933788966388, -198.17916860198602, 0.12800000607967377, 0.12800000607967377, 1.008000047877431, 0.0, 0.0, 0.0, 0.0, 0.0, 1.6518367915029128E9, 0.0, 2022-05-06 12:33:11.502
72.0, -303.14320075837895, -232.96958793979138, -246.24997268244624, -220.3792147389613, 0.12800000607967377, 0.12800000607967377, 1.008000047877431, 0.0, 0.0, 0.0, 0.0, 0.0, 1.6518367915029128E9, 0.0, 2022-05-06 12:33:11.502
73.0, -243.5067560649477, -101.91227379254997, -160.8867561938241, -183.44770267652348, 0.12800000607967377, 0.12800000607967377, 1.008000047877431, 0.0, 0.0, 0.0, 0.0, 0.0, 1.6518367915159905E9, 0.0, 2022-05-06 12:33:11.515
73.0, -206.81459759967402, -76.86616378929466, -119.74411678127944, -146.95001900894567, 0.12800000607967377, 0.12800000607967377, 1.008000047877431, 0.0, 0.0, 0.0, 0.0, 0.0, 1.6518367915159905E9, 0.0, 2022-05-06 12:33:11.515
74.0, -264.3379988181405, -213.48096927069128, -204.10504008177668, -198.99446679232642, 0.12800000607967377, 0.12800000607967377, 1.008000047877431, 0.0, 0.0, 0.0, 0.0, 0.0, 1.6518367915479457E9, 0.0, 2022-05-06 12:33:11.547
74.0, -297.32391642732546, -230.95378186367452, -233.1079642381519, -205.7487261123024, 0.12800000607967377, 0.12800000607967377, 1.008000047877431, 0.0, 0.0, 0.0, 0.0, 0.0, 1.6518367915479457E9, 0.0, 2022-05-06 12:33:11.547
75.0, -230.74247751617804, -86.99381286930293, -142.42287011258304, -153.88379352679476, 0.12800000607967377, 0.12800000607967377, 1.008000047877431, 0.0, 0.0, 0.0, 0.0, 0.0, 1.6518367915489433E9, 0.0, 2022-05-06 12:33:11.548
75.0, -203.90495543414727, -74.59978441614658, -122.25358965154737, -162.10783352935687, 0.12800000607967377, 0.12800000607967377, 1.008000047877431, 0.0, 0.0, 0.0, 0.0, 0.0, 1.6518367915489433E9, 0.0, 2022-05-06 12:33:11.548
76.0, -264.82792571233585, -218.45129631180316, -212.63201198074967, -211.54183114366606, 0.12800000607967377, 0.12800000607967377, 1.008000047877431, 0.0, 0.0, 0.0, 0.0, 0.0, 1.651836791549945E9, 0.0, 2022-05-06 12:33:11.549
76.0, -302.14464747020975, -234.6338434200734, -237.34901078790426, -219.2684644521214, 0.12800000607967377, 0.12800000607967377, 1.008000047877431, 0.0, 0.0, 0.0, 0.0, 0.0, 1.651836791549945E9, 0.0, 2022-05-06 12:33:11.549
77.0, -237.84080763207749, -87.47252006363124, -150.42625601775944, -164.90153879625723, 0.12800000607967377, 0.12800000607967377, 1.008000047877431, 0.0, 0.0, 0.0, 0.0, 0.0, 1.651836791550887E9, 0.0, 2022-05-06 12:33:11.550
77.0, -195.72205433109775, -60.586379282176495, -108.62913411296904, -129.50338571565226, 0.12800000607967377, 0.12800000607967377, 1.008000047877431, 0.0, 0.0, 0.0, 0.0, 0.0, 1.651836791550887E9, 0.0, 2022-05-06 12:33:11.550
78.0, -267.78618657728657, -216.31207353714854, -212.5085952822119, -213.27714472310618, 0.12800000607967377, 0.12800000607967377, 1.008000047877431, 0.0, 0.0, 0.0, 0.0, 0.0, 1.6518367915769496E9, 0.0, 2022-05-06 12:33:11.576
78.0, -303.44239275483415, -237.45746788661927, -244.7839318998158, -226.62110776500776, 0.12800000607967377, 0.12800000607967377, 1.008000047877431, 0.0, 0.0, 0.0, 0.0, 0.0, 1.6518367915769496E9, 0.0, 2022-05-06 12:33:11.576
79.0, -243.877006160561, -99.28312412369996, -158.21646762546152, -166.52091547707096, 0.12800000607967377, 0.12800000607967377, 1.008000047877431, 0.0, 0.0, 0.0, 0.0, 0.0, 1.6518367915779016E9, 0.0, 2022-05-06 12:33:11.577
79.0, -197.32273151213303, -75.07849161047488, -115.53298943117261, -148.26646379334852, 0.12800000607967377, 0.12800000607967377, 1.008000047877431, 0.0, 0.0, 0.0, 0.0, 0.0, 1.6518367915779016E9, 0.0, 2022-05-06 12:33:11.577
80.0, -266.5258402922191, -217.7706345198676, -211.3941050954163, -204.98952642129734, 0.12800000607967377, 0.12800000607967377, 1.008000047877431, 0.0, 0.0, 0.0, 0.0, 0.0, 1.6518367915919428E9, 0.0, 2022-05-06 12:33:11.591
80.0, -312.7622234444134, -235.8867099052295, -243.13089611940086, -221.96493232017383, 0.12800000607967377, 0.12800000607967377, 1.008000047877431, 0.0, 0.0, 0.0, 0.0, 0.0, 1.6518367915919428E9, 0.0, 2022-05-06 12:33:11.591
81.0, -236.8721735435538, -87.30796446558088, -145.20909557957202, -154.52705631917343, 0.12800000607967377, 0.12800000607967377, 1.008000047877431, 0.0, 0.0, 0.0, 0.0, 0.0, 1.6518367915928695E9, 0.0, 2022-05-06 12:33:11.592
81.0, -199.54049218585715, -71.97063474729657, -117.80310870427638, -147.30156960478052, 0.12800000607967377, 0.12800000607967377, 1.008000047877431, 0.0, 0.0, 0.0, 0.0, 0.0, 1.6518367915928695E9, 0.0, 2022-05-06 12:33:11.592
82.0, -266.8848706879653, -217.247048526071, -215.100345951505, -208.47137328004465, 0.12800000607967377, 0.12800000607967377, 1.008000047877431, 0.0, 0.0, 0.0, 0.0, 0.0, 1.6518367916059904E9, 0.0, 2022-05-06 12:33:11.605
82.0, -308.0162904006429, -228.56772569194436, -234.61514392029494, -217.66030747117475, 0.12800000607967377, 0.12800000607967377, 1.008000047877431, 0.0, 0.0, 0.0, 0.0, 0.0, 1.6518367916059904E9, 0.0, 2022-05-06 12:33:11.605
83.0, -234.14578647585586, -82.45357432309538, -139.90217754244804, -148.21036529401317, 0.12800000607967377, 0.12800000607967377, 1.008000047877431, 0.0, 0.0, 0.0, 0.0, 0.0, 1.6518367916219306E9, 0.0, 2022-05-06 12:33:11.621
83.0, -199.1178834908642, -69.99222767073661, -107.52212372608483, -143.4532125503756, 0.12800000607967377, 0.12800000607967377, 1.008000047877431, 0.0, 0.0, 0.0, 0.0, 0.0, 1.6518367916219306E9, 0.0, 2022-05-06 12:33:11.621
84.0, -276.83674447005615, -221.67509007360786, -215.45189654733986, -221.47500542597845, 0.12800000607967377, 0.12800000607967377, 1.008000047877431, 0.0, 0.0, 0.0, 0.0, 0.0, 1.6518367916228886E9, 0.0, 2022-05-06 12:33:11.622
84.0, -307.5675024059601, -244.2229469064623, -255.46882607322186, -239.06749481754377, 0.12800000607967377, 0.12800000607967377, 1.008000047877431, 0.0, 0.0, 0.0, 0.0, 0.0, 1.6518367916228886E9, 0.0, 2022-05-06 12:33:11.622
85.0, -242.16039208089933, -104.26841076463461, -164.36112325266004, -180.07431291649118, 0.12800000607967377, 0.12800000607967377, 1.008000047877431, 0.0, 0.0, 0.0, 0.0, 0.0, 1.651836791635953E9, 0.0, 2022-05-06 12:33:11.635
85.0, -207.8954286868684, -90.44200062844902, -133.37979201972485, -163.23728331597522, 0.12800000607967377, 0.12800000607967377, 1.008000047877431, 0.0, 0.0, 0.0, 0.0, 0.0, 1.651836791635953E9, 0.0, 2022-05-06 12:33:11.635
86.0, -260.4709422639571, -214.31496696081012, -191.65865302924067, -171.41644451906905, 0.12800000607967377, 0.12800000607967377, 1.008000047877431, 0.0, 0.0, 0.0, 0.0, 0.0, 1.6518367916519337E9, 0.0, 2022-05-06 12:33:11.651
86.0, -283.17213499499485, -215.90816434193403, -228.79585958924145, -185.37375115370378, 0.12800000607967377, 0.12800000607967377, 1.008000047877431, 0.0, 0.0, 0.0, 0.0, 0.0, 1.6518367916519337E9, 0.0, 2022-05-06 12:33:11.651
87.0, -234.35896077333018, -86.78811837173998, -151.79879930149764, -190.6619696910493, 0.12800000607967377, 0.12800000607967377, 1.008000047877431, 0.0, 0.0, 0.0, 0.0, 0.0, 1.6518367916528673E9, 0.0, 2022-05-06 12:33:11.652
87.0, -200.90181576972827, -72.06413224618882, -116.1276335241273, -150.67121946485713, 0.12800000607967377, 0.12800000607967377, 1.008000047877431, 0.0, 0.0, 0.0, 0.0, 0.0, 1.6518367916528673E9, 0.0, 2022-05-06 12:33:11.652
88.0, -275.95038818055764, -218.05486691650003, -210.64612510427833, -215.1171755013056, 0.12800000607967377, 0.12800000607967377, 1.008000047877431, 0.0, 0.0, 0.0, 0.0, 0.0, 1.6518367916829567E9, 0.0, 2022-05-06 12:33:11.682
88.0, -304.4521657428704, -230.34791807085276, -243.24309311807156, -223.99195809615776, 0.12800000607967377, 0.12800000607967377, 1.008000047877431, 0.0, 0.0, 0.0, 0.0, 0.0, 1.6518367916829567E9, 0.0, 2022-05-06 12:33:11.682
89.0, -241.89859908400103, -92.13617530837655, -156.39887624699622, -173.56688699359074, 0.12800000607967377, 0.12800000607967377, 1.008000047877431, 0.0, 0.0, 0.0, 0.0, 0.0, 1.6518367916838791E9, 0.0, 2022-05-06 12:33:11.683
89.0, -202.60347024956718, -78.743593567051, -112.67944576498121, -144.39940723916516, 0.12800000607967377, 0.12800000607967377, 1.008000047877431, 0.0, 0.0, 0.0, 0.0, 0.0, 1.6518367916838791E9, 0.0, 2022-05-06 12:33:11.683
90.0, -263.7470946251415, -211.79801429063082, -200.64189272280782, -197.19931481359527, 0.12800000607967377, 0.12800000607967377, 1.0240000486373901, 0.0, 0.0, 0.0, 0.0, 0.0, 1.651836791684916E9, 0.0, 2022-05-06 12:33:11.684
90.0, -303.22173865744844, -227.28120010718703, -238.84123087022454, -220.43531323829666, 0.12800000607967377, 0.12800000607967377, 1.0240000486373901, 0.0, 0.0, 0.0, 0.0, 0.0, 1.651836791684916E9, 0.0, 2022-05-06 12:33:11.684
91.0, -226.6772062643431, -80.49012684635818, -140.27616753801703, -150.17007287079468, 0.12800000607967377, 0.12800000607967377, 1.0240000486373901, 0.0, 0.0, 0.0, 0.0, 0.0, 1.6518367916959467E9, 0.0, 2022-05-06 12:33:11.695
91.0, -185.4822082524188, -61.86542506702244, -101.5308039970696, -133.43776046903804, 0.12800000607967377, 0.12800000607967377, 1.0240000486373901, 0.0, 0.0, 0.0, 0.0, 0.0, 1.6518367916959467E9, 0.0, 2022-05-06 12:33:11.695
92.0, -269.8206921531819, -212.93120397720486, -201.93215820752084, -200.15757567854598, 0.12800000607967377, 0.12800000607967377, 1.0240000486373901, 0.0, 0.0, 0.0, 0.0, 0.0, 1.6518367917119665E9, 0.0, 2022-05-06 12:33:11.711
92.0, -294.72842585807666, -220.20904929097742, -232.86487074103206, -216.65427438309416, 0.12800000607967377, 0.12800000607967377, 1.0240000486373901, 0.0, 0.0, 0.0, 0.0, 0.0, 1.6518367917119665E9, 0.0, 2022-05-06 12:33:11.711
93.0, -231.5016772071831, -83.09309721551836, -143.53362039942294, -157.9789839782752, 0.12800000607967377, 0.12800000607967377, 1.0240000486373901, 0.0, 0.0, 0.0, 0.0, 0.0, 1.6518367917269576E9, 0.0, 2022-05-06 12:33:11.726
93.0, -189.19218900846317, -63.95228924229741, -101.66170049551874, -124.72005367232487, 0.12800000607967377, 0.12800000607967377, 1.0240000486373901, 0.0, 0.0, 0.0, 0.0, 0.0, 1.6518367917269576E9, 0.0, 2022-05-06 12:33:11.726
94.0, -259.7678410722874, -208.1703113336116, -196.67759876977652, -188.0702190217562, 0.12800000607967377, 0.12800000607967377, 1.0240000486373901, 0.0, 0.0, 0.0, 0.0, 0.0, 1.6518367917279372E9, 0.0, 2022-05-06 12:33:11.727
94.0, -296.9274870320223, -225.86751792393625, -245.46459369175136, -230.88833361444995, 0.12800000607967377, 0.12800000607967377, 1.0240000486373901, 0.0, 0.0, 0.0, 0.0, 0.0, 1.6518367917279372E9, 0.0, 2022-05-06 12:33:11.727
95.0, -223.14300080621615, -75.0336128110066, -135.67235069256276, -154.53079621912912, 0.12800000607967377, 0.12800000607967377, 1.0240000486373901, 0.0, 0.0, 0.0, 0.0, 0.0, 1.6518367917419355E9, 0.0, 2022-05-06 12:33:11.741
95.0, -191.68670227890834, -70.43353586550802, -115.34599443338811, -144.6051017367281, 0.12800000607967377, 0.12800000607967377, 1.0240000486373901, 0.0, 0.0, 0.0, 0.0, 0.0, 1.6518367917419355E9, 0.0, 2022-05-06 12:33:11.741
96.0, -259.01986108114943, -223.12243135645986, -215.7361289439723, -211.47077304450795, 0.12800000607967377, 0.12800000607967377, 1.0240000486373901, 0.0, 0.0, 0.0, 0.0, 0.0, 1.6518367917428775E9, 0.0, 2022-05-06 12:33:11.742
96.0, -301.1273946822621, -225.30653293058276, -234.91433591675013, -214.2345591117628, 0.12800000607967377, 0.12800000607967377, 1.0240000486373901, 0.0, 0.0, 0.0, 0.0, 0.0, 1.6518367917428775E9, 0.0, 2022-05-06 12:33:11.742
97.0, -223.4571524024941, -77.02323958743364, -136.1809770865366, -133.00019217422232, 0.12800000607967377, 0.12800000607967377, 1.0240000486373901, 0.0, 0.0, 0.0, 0.0, 0.0, 1.6518367917560017E9, 0.0, 2022-05-06 12:33:11.756
97.0, -205.8197842114605, -72.89065013639629, -110.78705638740212, -139.41038069827482, 0.12800000607967377, 0.12800000607967377, 1.0240000486373901, 0.0, 0.0, 0.0, 0.0, 0.0, 1.6518367917560017E9, 0.0, 2022-05-06 12:33:11.756
98.0, -263.3020465304144, -208.67893772758543, -194.6879719933495, -194.57016514474526, 0.12800000607967377, 0.12800000607967377, 1.0240000486373901, 0.0, 0.0, 0.0, 0.0, 0.0, 1.651836791788005E9, 0.0, 2022-05-06 12:33:11.788
98.0, -304.2427313453518, -233.59789113234729, -249.8963751392439, -237.74357023322955, 0.12800000607967377, 0.12800000607967377, 1.0240000486373901, 0.0, 0.0, 0.0, 0.0, 0.0, 1.651836791788005E9, 0.0, 2022-05-06 12:33:11.788
99.0, -230.88085381453857, -90.66639462579042, -147.86442454811186, -173.04330099979416, 0.12800000607967377, 0.12800000607967377, 1.0240000486373901, 0.0, 0.0, 0.0, 0.0, 0.0, 1.6518367917889113E9, 0.0, 2022-05-06 12:33:11.788
99.0, -199.98180038062856, -75.72175440285355, -122.14887245278805, -153.49110403144732, 0.12800000607967377, 0.12800000607967377, 1.0240000486373901, 0.0, 0.0, 0.0, 0.0, 0.0, 1.6518367917889113E9, 0.0, 2022-05-06 12:33:11.788
100.0, -274.2225544010289, -218.9561828058213, -212.78534787893295, -213.62495541898534, 0.12800000607967377, 0.12800000607967377, 1.0240000486373901, 0.0, 0.0, 0.0, 0.0, 0.0, 1.6518367917899213E9, 0.0, 2022-05-06 12:33:11.789
100.0, -298.2738510160707, -222.82323936000466, -234.49172722175717, -217.84730246895924, 0.12800000607967377, 0.12800000607967377, 1.0240000486373901, 0.0, 0.0, 0.0, 0.0, 0.0, 1.6518367917899213E9, 0.0, 2022-05-06 12:33:11.789
0.0, -220.35116548929363, -74.19026537099853, -138.70540955662727, -145.48210827633739, 0.12800000607967377, 0.12800000607967377, 1.0240000486373901, 0.0, 0.0, 0.0, 0.0, 0.0, 1.6518367917908912E9, 0.0, 2022-05-06 12:33:11.790
1.0, -202.14907240495086, -78.03114262549207, -117.37302020937204, -141.3270794255659, 0.12800000607967377, 0.12800000607967377, 1.0240000486373901, 0.0, 0.0, 0.0, 0.0, 0.0, 1.6518367918009417E9, 0.0, 2022-05-06 12:33:11.800
1.0, -266.29957634489983, -216.85248908074573, -205.59726016409695, -197.6499727582559, 0.12800000607967377, 0.12800000607967377, 1.0240000486373901, 0.0, 0.0, 0.0, 0.0, 0.0, 1.6518367918009417E9, 0.0, 2022-05-06 12:33:11.800
2.0, -295.9233238939196, -227.98991114879027, -240.95427434518933, -213.918537565507, 0.12800000607967377, 0.12800000607967377, 1.0240000486373901, 0.0, 0.0, 0.0, 0.0, 0.0, 1.6518367918169255E9, 0.0, 2022-05-06 12:33:11.816
2.0, -228.83325858879834, -86.61795292375609, -147.80084624886513, -160.16495550237596, 0.12800000607967377, 0.12800000607967377, 1.0240000486373901, 0.0, 0.0, 0.0, 0.0, 0.0, 1.6518367918169255E9, 0.0, 2022-05-06 12:33:11.816
3.0, -200.73165032174438, -78.32659472199157, -118.23319719918072, -153.7772063780576, 0.12800000607967377, 0.12800000607967377, 1.0240000486373901, 0.0, 0.0, 0.0, 0.0, 0.0, 1.6518367918178985E9, 0.0, 2022-05-06 12:33:11.817
3.0, -273.18847206328064, -222.29404351627454, -211.12857219856232, -204.57252757623792, 0.12800000607967377, 0.12800000607967377, 1.0240000486373901, 0.0, 0.0, 0.0, 0.0, 0.0, 1.6518367918178985E9, 0.0, 2022-05-06 12:33:11.817
4.0, -292.5761134335771, -217.06192347826436, -236.76932629477233, -217.38916472438723, 0.12800000607967377, 0.12800000607967377, 1.0240000486373901, 0.0, 0.0, 0.0, 0.0, 0.0, 1.65183679183093E9, 0.0, 2022-05-06 12:33:11.830
4.0, -223.86667144764215, -81.45689098490402, -134.71119640395045, -145.01462078187615, 0.12800000607967377, 0.12800000607967377, 1.0240000486373901, 0.0, 0.0, 0.0, 0.0, 0.0, 1.65183679183093E9, 0.0, 2022-05-06 12:33:11.830
5.0, -207.69908393919468, -78.8352211159654, -115.81722182780504, -124.69200442265719, 0.12800000607967377, 0.12800000607967377, 1.0240000486373901, 0.0, 0.0, 0.0, 0.0, 0.0, 1.651836791846961E9, 0.0, 2022-05-06 12:33:11.846
5.0, -278.7272638976574, -222.32770261587575, -218.85520550701767, -207.45225054211915, 0.12800000607967377, 0.12800000607967377, 1.0240000486373901, 0.0, 0.0, 0.0, 0.0, 0.0, 1.651836791846961E9, 0.0, 2022-05-06 12:33:11.846
6.0, -308.0667790500447, -230.63776031741872, -249.46628664433956, -242.12860293127596, 0.12800000607967377, 0.12800000607967377, 1.0240000486373901, 0.0, 0.0, 0.0, 0.0, 0.0, 1.6518367918478842E9, 0.0, 2022-05-06 12:33:11.847
6.0, -238.84871067013592, -89.33312029158697, -154.8131586657837, -175.88749491609633, 0.12800000607967377, 0.12800000607967377, 1.0240000486373901, 0.0, 0.0, 0.0, 0.0, 0.0, 1.6518367918478842E9, 0.0, 2022-05-06 12:33:11.847
7.0, -221.00938788149506, -95.79192751506343, -131.33780664391816, -162.60711017344147, 0.12800000607967377, 0.12800000607967377, 1.0240000486373901, 0.0, 0.0, 0.0, 0.0, 0.0, 1.6518367918609395E9, 0.0, 2022-05-06 12:33:11.860
7.0, -280.70941087417305, -235.1293801642023, -219.9584759939462, -212.0298880878836, 0.12800000607967377, 0.12800000607967377, 1.0240000486373901, 0.0, 0.0, 0.0, 0.0, 0.0, 1.6518367918609395E9, 0.0, 2022-05-06 12:33:11.860
8.0, -301.42845662869513, -229.82620202703401, -240.46434745099396, -221.12158488016576, 0.12800000607967377, 0.12800000607967377, 1.0240000486373901, 0.0, 0.0, 0.0, 0.0, 0.0, 1.6518367918769517E9, 0.0, 2022-05-06 12:33:11.876
8.0, -231.45866835769266, -84.36653315043077, -151.70904170256108, -166.16375503130257, 0.12800000607967377, 0.12800000607967377, 1.0240000486373901, 0.0, 0.0, 0.0, 0.0, 0.0, 1.6518367918769517E9, 0.0, 2022-05-06 12:33:11.876
9.0, -210.45913010649383, -83.23708336381242, -123.37181973829865, -142.69214290939271, 0.12800000607967377, 0.12800000607967377, 1.0240000486373901, 0.0, 0.0, 0.0, 0.0, 0.0, 1.6518367918778884E9, 0.0, 2022-05-06 12:33:11.877
9.0, -280.432658277452, -225.1251477827318, -220.6578372856602, -217.1423313273117, 0.12800000607967377, 0.12800000607967377, 1.0240000486373901, 0.0, 0.0, 0.0, 0.0, 0.0, 1.6518367918778884E9, 0.0, 2022-05-06 12:33:11.877
10.0, -309.3607844347134, -223.3449554038234, -243.36650981660932, -226.36118471808732, 0.12800000607967377, 0.12800000607967377, 1.0240000486373901, 0.0, 0.0, 0.0, 0.0, 0.0, 1.6518367918909419E9, 0.0, 2022-05-06 12:33:11.890
10.0, -240.25117315351963, -91.88747196132317, -158.57923792116344, -173.72957264166325, 0.12800000607967377, 0.12800000607967377, 1.0240000486373901, 0.0, 0.0, 0.0, 0.0, 0.0, 1.6518367918909419E9, 0.0, 2022-05-06 12:33:11.890
11.0, -221.87704467121512, -95.74330881563947, -138.3613387607038, -160.8904960937798, 0.12800000607967377, 0.12800000607967377, 1.0240000486373901, 0.0, 0.0, 0.0, 0.0, 0.0, 1.65183679190696E9, 0.0, 2022-05-06 12:33:11.906
11.0, -279.0301957940683, -229.0520427362062, -215.38083844818175, -205.0923736700788, 0.12800000607967377, 0.12800000607967377, 1.0240000486373901, 0.0, 0.0, 0.0, 0.0, 0.0, 1.65183679190696E9, 0.0, 2022-05-06 12:33:11.906
12.0, -302.3297725180164, -229.5718888300471, -241.30582494102418, -223.45902235247195, 0.12800000607967377, 0.12800000607967377, 1.0240000486373901, 0.0, 0.0, 0.0, 0.0, 0.0, 1.6518367919078832E9, 0.0, 2022-05-06 12:33:11.907
12.0, -227.26998040731996, -80.20028459979221, -141.4729355238378, -158.8485107179731, 0.12800000607967377, 0.12800000607967377, 1.0240000486373901, 0.0, 0.0, 0.0, 0.0, 0.0, 1.6518367919078832E9, 0.0, 2022-05-06 12:33:11.907
13.0, -216.5065483348444, -84.08604065375403, -122.97165044303983, -154.6336434679106, 0.12800000607967377, 0.12800000607967377, 1.0240000486373901, 0.0, 0.0, 0.0, 0.0, 0.0, 1.6518367919209836E9, 0.0, 2022-05-06 12:33:11.920
13.0, -284.5802073283121, -229.1305806352757, -216.48036903515458, -212.05606738757342, 0.12800000607967377, 0.12800000607967377, 1.0240000486373901, 0.0, 0.0, 0.0, 0.0, 0.0, 1.6518367919209836E9, 0.0, 2022-05-06 12:33:11.920
14.0, -303.2236086074263, -226.10874147107825, -237.10591729078442, -220.5456402869895, 0.12800000607967377, 0.12800000607967377, 1.0240000486373901, 0.0, 0.0, 0.0, 0.0, 0.0, 1.6518367919369512E9, 0.0, 2022-05-06 12:33:11.936
14.0, -228.46300849318504, -72.7952826875262, -130.97503634821624, -148.67224293854088, 0.12800000607967377, 0.12800000607967377, 1.0240000486373901, 0.0, 0.0, 0.0, 0.0, 0.0, 1.6518367919369512E9, 0.0, 2022-05-06 12:33:11.936
15.0, -203.6861712867394, -78.93993831472471, -114.59801444225013, -132.19798363372684, 0.12800000607967377, 0.12800000607967377, 1.0240000486373901, 0.0, 0.0, 0.0, 0.0, 0.0, 1.6518367919379044E9, 0.0, 2022-05-06 12:33:11.937
15.0, -280.4737971769646, -223.76756409881637, -219.35635210108012, -221.83216587174684, 0.12800000607967377, 0.12800000607967377, 1.0240000486373901, 0.0, 0.0, 0.0, 0.0, 0.0, 1.6518367919379044E9, 0.0, 2022-05-06 12:33:11.937
16.0, -317.2631930410862, -228.62195424130186, -247.18120777141303, -234.4057095227763, 0.12800000607967377, 0.12800000607967377, 1.0240000486373901, 0.0, 0.0, 0.0, 0.0, 0.0, 1.651836791950928E9, 0.0, 2022-05-06 12:33:11.950
16.0, -236.53745249751955, -80.28630229877308, -144.89494398329407, -160.71846069581807, 0.12800000607967377, 0.12800000607967377, 1.0240000486373901, 0.0, 0.0, 0.0, 0.0, 0.0, 1.651836791950928E9, 0.0, 2022-05-06 12:33:11.950
17.0, -210.51896850578487, -79.9085724032484, -116.131373424083, -148.54508634004742, 0.12800000607967377, 0.12800000607967377, 1.0240000486373901, 0.0, 0.0, 0.0, 0.0, 0.0, 1.651836791966936E9, 0.0, 2022-05-06 12:33:11.966
17.0, -277.03308921772987, -220.43531323829666, -209.3184606200084, -204.32569417916238, 0.12800000607967377, 0.12800000607967377, 1.0240000486373901, 0.0, 0.0, 0.0, 0.0, 0.0, 1.651836791966936E9, 0.0, 2022-05-06 12:33:11.966
18.0, -292.2918810369447, -216.43362028570846, -226.12931092083454, -201.74142330978066, 0.12800000607967377, 0.12800000607967377, 1.0240000486373901, 0.0, 0.0, 0.0, 0.0, 0.0, 1.6518367919678783E9, 0.0, 2022-05-06 12:33:11.967
18.0, -237.68934168387204, -88.0615543066524, -155.8865099530667, -171.61278926674277, 0.12800000607967377, 0.12800000607967377, 1.0240000486373901, 0.0, 0.0, 0.0, 0.0, 0.0, 1.6518367919678783E9, 0.0, 2022-05-06 12:33:11.967
19.0, -219.3974910005927, -92.08942655893043, -127.6540051875636, -153.96794127579778, 0.12800000607967377, 0.12800000607967377, 1.0240000486373901, 0.0, 0.0, 0.0, 0.0, 0.0, 1.6518367919809487E9, 0.0, 2022-05-06 12:33:11.980
19.0, -278.5327890999615, -225.17002658220008, -215.90816434193403, -197.92298545502126, 0.12800000607967377, 0.12800000607967377, 1.0240000486373901, 0.0, 0.0, 0.0, 0.0, 0.0, 1.6518367919809487E9, 0.0, 2022-05-06 12:33:11.980
20.0, -303.6948360018432, -218.84211585717276, -237.61454368475825, -227.21388190798461, 0.12800000607967377, 0.12800000607967377, 1.0240000486373901, 0.0, 0.0, 0.0, 0.0, 0.0, 1.6518367919969351E9, 0.0, 2022-05-06 12:33:11.996
20.0, -228.11893769726157, -74.74003066448495, -136.45772968325764, -148.18979584425688, 0.12800000607967377, 0.12800000607967377, 1.0240000486373901, 0.0, 0.0, 0.0, 0.0, 0.0, 1.6518367919969351E9, 0.0, 2022-05-06 12:33:11.996
21.0, -217.86413201875985, -90.74306257488206, -132.37749883159995, -160.71846069581807, 0.12800000607967377, 0.12800000607967377, 1.0240000486373901, 0.0, 0.0, 0.0, 0.0, 0.0, 1.6518367919979336E9, 0.0, 2022-05-06 12:33:11.997
21.0, -283.918245036155, -231.99160410137847, -221.2188222790137, -212.00744868814945, 0.12800000607967377, 0.12800000607967377, 1.0240000486373901, 0.0, 0.0, 0.0, 0.0, 0.0, 1.6518367919979336E9, 0.0, 2022-05-06 12:33:11.997
22.0, -304.4876947924495, -220.24083844060078, -244.5595379024744, -224.86896463576704, 0.12800000607967377, 0.12800000607967377, 1.0240000486373901, 0.0, 0.0, 0.0, 0.0, 0.0, 1.6518367920109265E9, 0.0, 2022-05-06 12:33:12.010
22.0, -234.39074992295355, -80.44711799686775, -143.1783299036324, -166.75839912425727, 0.12800000607967377, 0.12800000607967377, 1.0240000486373901, 0.0, 0.0, 0.0, 0.0, 0.0, 1.6518367920109265E9, 0.0, 2022-05-06 12:33:12.010
23.0, -209.55033441726118, -87.26121571613476, -124.03752193041146, -146.17398976814002, 0.12800000607967377, 0.12800000607967377, 1.0240000486373901, 0.0, 0.0, 0.0, 0.0, 0.0, 1.6518367920269573E9, 0.0, 2022-05-06 12:33:12.026
23.0, -290.2910345606506, -235.9072793549858, -227.71128860209137, -218.93748330604285, 0.12800000607967377, 0.12800000607967377, 1.0240000486373901, 0.0, 0.0, 0.0, 0.0, 0.0, 1.6518367920269573E9, 0.0, 2022-05-06 12:33:12.026
24.0, -301.35365862958133, -219.1600073534064, -238.45602117478848, -216.67858373280615, 0.12800000607967377, 0.12800000607967377, 1.0240000486373901, 0.0, 0.0, 0.0, 0.0, 0.0, 1.651836792027926E9, 0.0, 2022-05-06 12:33:12.027
24.0, -222.83445905987173, -82.76959586935118, -146.9257096592337, -161.9638473810628, 0.12800000607967377, 0.12800000607967377, 1.0240000486373901, 0.0, 0.0, 0.0, 0.0, 0.0, 1.651836792027926E9, 0.0, 2022-05-06 12:33:12.027
25.0, -213.93723706528544, -87.04804141866043, -122.97539034299552, -145.86357807181776, 0.12800000607967377, 0.12800000607967377, 1.0240000486373901, 0.0, 0.0, 0.0, 0.0, 0.0, 1.651836792040948E9, 0.0, 2022-05-06 12:33:12.040
25.0, -296.1103188917041, -228.03105004830286, -208.18527093343437, -189.67276615276933, 0.12800000607967377, 0.12800000607967377, 1.0240000486373901, 0.0, 0.0, 0.0, 0.0, 0.0, 1.651836792040948E9, 0.0, 2022-05-06 12:33:12.040
26.0, -302.53172711562365, -217.84730246895924, -235.9241089047864, -219.72286229673773, 0.12800000607967377, 0.12800000607967377, 1.0240000486373901, 0.0, 0.0, 0.0, 0.0, 0.0, 1.6518367920569437E9, 0.0, 2022-05-06 12:33:12.056
26.0, -239.01326626818627, -84.11221995344386, -149.43518252950162, -173.9764060387388, 0.12800000607967377, 0.12800000607967377, 1.0240000486373901, 0.0, 0.0, 0.0, 0.0, 0.0, 1.6518367920569437E9, 0.0, 2022-05-06 12:33:12.056
27.0, -205.88149256072938, -84.99109644303098, -124.22451692819595, -159.02054611593485, 0.12800000607967377, 0.12800000607967377, 1.0240000486373901, 0.0, 0.0, 0.0, 0.0, 0.0, 1.6518367920578883E9, 0.0, 2022-05-06 12:33:12.057
27.0, -282.9944897470996, -238.80944172060117, -226.30508621875197, -227.5542128039524, 0.12800000607967377, 0.12800000607967377, 1.0240000486373901, 0.0, 0.0, 0.0, 0.0, 0.0, 1.6518367920578883E9, 0.0, 2022-05-06 12:33:12.057
28.0, -314.0468790791929, -228.7154517401941, -244.1481489073485, -236.48883379809558, 0.12800000607967377, 0.12800000607967377, 1.0240000486373901, 0.0, 0.0, 0.0, 0.0, 0.0, 1.6518367920709767E9, 0.0, 2022-05-06 12:33:12.070
28.0, -238.87488996982574, -87.28739501582459, -155.7406538547948, -166.24603283032775, 0.12800000607967377, 0.12800000607967377, 1.0240000486373901, 0.0, 0.0, 0.0, 0.0, 0.0, 1.6518367920709767E9, 0.0, 2022-05-06 12:33:12.070
29.0, -205.0213155709207, -77.26072323461995, -115.45071163214743, -136.39041148405522, 0.12800000607967377, 0.12800000607967377, 1.0240000486373901, 0.0, 0.0, 0.0, 0.0, 0.0, 1.651836792087005E9, 0.0, 2022-05-06 12:33:12.087
29.0, -280.9562442712486, -226.6772062643431, -219.3226930014789, -212.08598658721894, 0.12800000607967377, 0.12800000607967377, 1.0240000486373901, 0.0, 0.0, 0.0, 0.0, 0.0, 1.651836792087005E9, 0.0, 2022-05-06 12:33:12.087
30.0, -301.56309302709997, -217.9034009682946, -229.04269298631698, -211.49134249426425, 0.12800000607967377, 0.12800000607967377, 1.0240000486373901, 0.0, 0.0, 0.0, 0.0, 0.0, 1.6518367920879407E9, 0.0, 2022-05-06 12:33:12.087
30.0, -222.27721396647394, -66.55338966147974, -130.66088475193828, -137.7666946677491, 0.12800000607967377, 0.12800000607967377, 1.0240000486373901, 0.0, 0.0, 0.0, 0.0, 0.0, 1.6518367920879407E9, 0.0, 2022-05-06 12:33:12.087
31.0, -197.97160415444523, -75.13272015983239, -112.41765276808292, -135.68357039242983, 0.12800000607967377, 0.12800000607967377, 1.0240000486373901, 0.0, 0.0, 0.0, 0.0, 0.0, 1.651836792100978E9, 0.0, 2022-05-06 12:33:12.100
31.0, -273.07253516465425, -219.62375494791195, -205.68327786307782, -199.80415513273329, 0.12800000607967377, 0.12800000607967377, 1.0240000486373901, 0.0, 0.0, 0.0, 0.0, 0.0, 1.651836792100978E9, 0.0, 2022-05-06 12:33:12.100
32.0, -300.57575943879783, -218.87203505681828, -234.61140402033925, -208.53682152926922, 0.12800000607967377, 0.12800000607967377, 1.0240000486373901, 0.0, 0.0, 0.0, 0.0, 0.0, 1.6518367921329355E9, 0.0, 2022-05-06 12:33:12.132
32.0, -236.24574030097574, -80.43589829700068, -155.4115426586941, -179.88170806877315, 0.12800000607967377, 0.12800000607967377, 1.0240000486373901, 0.0, 0.0, 0.0, 0.0, 0.0, 1.6518367921329355E9, 0.0, 2022-05-06 12:33:12.132
33.0, -222.97283535823226, -100.90811065444723, -141.12138492800295, -175.6070024194196, 0.12800000607967377, 0.12800000607967377, 1.0240000486373901, 0.0, 0.0, 0.0, 0.0, 0.0, 1.6518367921338708E9, 0.0, 2022-05-06 12:33:12.133
33.0, -278.659945698455, -229.71400502836332, -218.57471301034093, -212.6245321808383, 0.12800000607967377, 0.12800000607967377, 1.0240000486373901, 0.0, 0.0, 0.0, 0.0, 0.0, 1.6518367921338708E9, 0.0, 2022-05-06 12:33:12.133
34.0, -298.12986486777663, -220.24831824051216, -239.4882335625589, -221.60777187440544, 0.12800000607967377, 0.12800000607967377, 1.0240000486373901, 0.0, 0.0, 0.0, 0.0, 0.0, 1.6518367921348908E9, 0.0, 2022-05-06 12:33:12.134
34.0, -228.5565059920773, -73.21041158260778, -142.9913349058479, -162.12466307915747, 0.12800000607967377, 0.12800000607967377, 1.0240000486373901, 0.0, 0.0, 0.0, 0.0, 0.0, 1.6518367921348908E9, 0.0, 2022-05-06 12:33:12.134
35.0, -212.5123351821676, -87.93813760811463, -118.6483260942623, -147.26230065524578, 0.12800000607967377, 0.12800000607967377, 1.0240000486373901, 0.0, 0.0, 0.0, 0.0, 0.0, 1.6518367921359396E9, 0.0, 2022-05-06 12:33:12.135
35.0, -296.52918768674135, -235.3874332611449, -229.67847597878426, -224.74554793722928, 0.12800000607967377, 0.12800000607967377, 1.0240000486373901, 0.0, 0.0, 0.0, 0.0, 0.0, 1.6518367921359396E9, 0.0, 2022-05-06 12:33:12.135
36.0, -301.4733354281634, -224.76985728694126, -236.05874530319124, -227.38591730594635, 0.12800000607967377, 0.12800000607967377, 1.0240000486373901, 0.0, 0.0, 0.0, 0.0, 0.0, 1.6518367921459353E9, 0.0, 2022-05-06 12:33:12.145
36.0, -239.46953406278044, -84.9836166431196, -146.66765656229109, -159.5964907091111, 0.12800000607967377, 0.12800000607967377, 1.0240000486373901, 0.0, 0.0, 0.0, 0.0, 0.0, 1.6518367921459353E9, 0.0, 2022-05-06 12:33:12.145
37.0, -212.7329892795533, -86.82364742131904, -118.79044229257852, -137.72555576823652, 0.12800000607967377, 0.12800000607967377, 1.0240000486373901, 0.0, 0.0, 0.0, 0.0, 0.0, 1.651836792160992E9, 0.0, 2022-05-06 12:33:12.160
37.0, -273.992550553754, -218.35592886293307, -214.97692925296724, -209.90188501309603, 0.12800000607967377, 0.12800000607967377, 1.0240000486373901, 0.0, 0.0, 0.0, 0.0, 0.0, 1.651836792160992E9, 0.0, 2022-05-06 12:33:12.160
38.0, -294.31142701301724, -213.14250832470134, -230.86028436478227, -218.23812201432884, 0.12800000607967377, 0.12800000607967377, 1.0240000486373901, 0.0, 0.0, 0.0, 0.0, 0.0, 1.6518367921769376E9, 0.0, 2022-05-06 12:33:12.176
38.0, -222.5165675636381, -69.28725652908906, -134.8046939028427, -149.86527102440596, 0.12800000607967377, 0.12800000607967377, 1.0240000486373901, 0.0, 0.0, 0.0, 0.0, 0.0, 1.6518367921769376E9, 0.0, 2022-05-06 12:33:12.176
39.0, -224.77920703683048, -103.23432842688635, -137.16083087492734, -165.16894164308906, 0.12800000607967377, 0.12800000607967377, 1.0240000486373901, 0.0, 0.0, 0.0, 0.0, 0.0, 1.6518367921779091E9, 0.0, 2022-05-06 12:33:12.177
39.0, -287.2878948962316, -244.11635975772515, -236.87404349353164, -225.93483612313867, 0.12800000607967377, 0.12800000607967377, 1.0240000486373901, 0.0, 0.0, 0.0, 0.0, 0.0, 1.6518367921779091E9, 0.0, 2022-05-06 12:33:12.177
40.0, -289.85346626583487, -209.70180036546662, -233.3323582354933, -212.60583268105984, 0.12800000607967377, 0.12800000607967377, 1.0240000486373901, 0.0, 0.0, 0.0, 0.0, 0.0, 1.6518367921909573E9, 0.0, 2022-05-06 12:33:12.190
40.0, -228.3657710943371, -62.52177750924602, -128.49548267759383, -143.7393148969859, 0.12800000607967377, 0.12800000607967377, 1.0240000486373901, 0.0, 0.0, 0.0, 0.0, 0.0, 1.6518367921909573E9, 0.0, 2022-05-06 12:33:12.190
41.0, -216.08767953980714, -92.15674475813285, -123.85426683258265, -149.76055382564664, 0.12800000607967377, 0.12800000607967377, 1.0240000486373901, 0.0, 0.0, 0.0, 0.0, 0.0, 1.651836792206946E9, 0.0, 2022-05-06 12:33:12.206
41.0, -279.5837009875104, -221.0523967309855, -213.34633287228644, -208.985609523952, 0.12800000607967377, 0.12800000607967377, 1.0240000486373901, 0.0, 0.0, 0.0, 0.0, 0.0, 1.651836792206946E9, 0.0, 2022-05-06 12:33:12.206
42.0, -285.51892221719027, -207.68599428934976, -219.97717549372464, -198.92527864314616, 0.12800000607967377, 0.12800000607967377, 1.0240000486373901, 0.0, 0.0, 0.0, 0.0, 0.0, 1.6518367922078934E9, 0.0, 2022-05-06 12:33:12.207
42.0, -220.04075379297137, -70.16987291863188, -138.18930336274207, -156.50359344575554, 0.12800000607967377, 0.12800000607967377, 1.0240000486373901, 0.0, 0.0, 0.0, 0.0, 0.0, 1.6518367922078934E9, 0.0, 2022-05-06 12:33:12.207
43.0, -216.51776803471148, -89.36303949123248, -124.49378972500563, -152.27002669591457, 0.12800000607967377, 0.12800000607967377, 1.0240000486373901, 0.0, 0.0, 0.0, 0.0, 0.0, 1.6518367922209544E9, 0.0, 2022-05-06 12:33:12.220
43.0, -288.6828775797039, -233.59976108232513, -221.70874917320907, -207.7252632388845, 0.12800000607967377, 0.12800000607967377, 1.0240000486373901, 0.0, 0.0, 0.0, 0.0, 0.0, 1.6518367922209544E9, 0.0, 2022-05-06 12:33:12.220
44.0, -295.97942239325494, -214.84042290458456, -234.79465911816806, -209.5428546173498, 0.12800000607967377, 0.12800000607967377, 1.0240000486373901, 0.0, 0.0, 0.0, 0.0, 0.0, 1.6518367922369344E9, 0.0, 2022-05-06 12:33:12.236
44.0, -230.71816816646606, -78.23683712305501, -144.72290858533233, -161.7431932836771, 0.12800000607967377, 0.12800000607967377, 1.0240000486373901, 0.0, 0.0, 0.0, 0.0, 0.0, 1.6518367922369344E9, 0.0, 2022-05-06 12:33:12.236
45.0, -213.94097696524113, -94.93549042521045, -125.92617140803486, -155.46016135811806, 0.12800000607967377, 0.12800000607967377, 1.0240000486373901, 0.0, 0.0, 0.0, 0.0, 0.0, 1.6518367922379246E9, 0.0, 2022-05-06 12:33:12.237
45.0, -279.2770291911438, -236.39720624918118, -222.97283535823226, -217.512581422925, 0.12800000607967377, 0.12800000607967377, 1.0240000486373901, 0.0, 0.0, 0.0, 0.0, 0.0, 1.6518367922379246E9, 0.0, 2022-05-06 12:33:12.237
46.0, -301.53691372741014, -212.14769493648782, -232.56941864453256, -218.20820281468332, 0.12800000607967377, 0.12800000607967377, 1.0240000486373901, 0.0, 0.0, 0.0, 0.0, 0.0, 1.6518367922509856E9, 0.0, 2022-05-06 12:33:12.250
46.0, -229.5176602806896, -76.0527355489321, -141.4729355238378, -147.886863947846, 0.12800000607967377, 0.12800000607967377, 1.0240000486373901, 0.0, 0.0, 0.0, 0.0, 0.0, 1.6518367922509856E9, 0.0, 2022-05-06 12:33:12.250
47.0, -212.12338558677584, -91.3190071680583, -125.27168891578913, -152.12043069768697, 0.12800000607967377, 0.12800000607967377, 1.0240000486373901, 0.0, 0.0, 0.0, 0.0, 0.0, 1.6518367922669451E9, 0.0, 2022-05-06 12:33:12.266
47.0, -270.4321657959372, -218.27739096386358, -206.28914165589958, -193.1695726113394, 0.12800000607967377, 0.12800000607967377, 1.0240000486373901, 0.0, 0.0, 0.0, 0.0, 0.0, 1.6518367922669451E9, 0.0, 2022-05-06 12:33:12.266
48.0, -290.90063825342804, -208.3778757811524, -233.78488613013178, -229.98888767510653, 0.12800000607967377, 0.12800000607967377, 1.0240000486373901, 0.0, 0.0, 0.0, 0.0, 0.0, 1.651836792267912E9, 0.0, 2022-05-06 12:33:12.267
48.0, -224.31171954236925, -73.77513647591695, -138.59695245791227, -158.57549802120775, 0.12800000607967377, 0.12800000607967377, 1.0240000486373901, 0.0, 0.0, 0.0, 0.0, 0.0, 1.651836792267912E9, 0.0, 2022-05-06 12:33:12.267
49.0, -210.26091540884227, -94.71483632782474, -129.7333895629272, -148.79565963707864, 0.12800000607967377, 0.12800000607967377, 1.0240000486373901, 0.0, 0.0, 0.0, 0.0, 0.0, 1.651836792297933E9, 0.0, 2022-05-06 12:33:12.297
49.0, -283.170265045017, -233.43146558431908, -223.20470915548503, -204.5052093770355, 0.12800000607967377, 0.12800000607967377, 1.0240000486373901, 0.0, 0.0, 0.0, 0.0, 0.0, 1.651836792297933E9, 0.0, 2022-05-06 12:33:12.297
50.0, -298.16352396737784, -210.300184358377, -235.57255830895156, -221.7012693732977, 0.12800000607967377, 0.12800000607967377, 1.0240000486373901, 0.0, 0.0, 0.0, 0.0, 0.0, 1.651836792298885E9, 0.0, 2022-05-06 12:33:12.298
50.0, -214.83481305465102, -56.54167748009786, -130.5486877532676, -158.75501321908087, 0.12800000607967377, 0.12800000607967377, 1.0240000486373901, 0.0, 0.0, 0.0, 0.0, 0.0, 1.651836792298885E9, 0.0, 2022-05-06 12:33:12.298
51.0, -207.18297774530947, -100.26858776202425, -130.81048075016588, -159.93682160507888, 0.12800000607967377, 0.12800000607967377, 1.0240000486373901, 0.0, 0.0, 0.0, 0.0, 0.0, 1.6518367922998798E9, 0.0, 2022-05-06 12:33:12.299
51.0, -295.5381141984835, -252.1421850626357, -229.30074608325958, -219.03846060484648, 0.12800000607967377, 0.12800000607967377, 1.0240000486373901, 0.0, 0.0, 0.0, 0.0, 0.0, 1.6518367922998798E9, 0.0, 2022-05-06 12:33:12.299
52.0, -288.38368558324873, -198.8560904939659, -222.2173755671829, -208.66023822780699, 0.12800000607967377, 0.12800000607967377, 1.0240000486373901, 0.0, 0.0, 0.0, 0.0, 0.0, 1.6518367923109255E9, 0.0, 2022-05-06 12:33:12.310
52.0, -208.04689463507384, -54.94100029906258, -121.80854155682027, -140.3958443365991, 0.12800000607967377, 0.12800000607967377, 1.0240000486373901, 0.0, 0.0, 0.0, 0.0, 0.0, 1.6518367923109255E9, 0.0, 2022-05-06 12:33:12.310
53.0, -207.212896944955, -100.08907256415114, -115.69006522931159, -123.7981683332473, 0.12800000607967377, 0.12800000607967377, 1.0240000486373901, 0.0, 0.0, 0.0, 0.0, 0.0, 1.6518367923429255E9, 0.0, 2022-05-06 12:33:12.342
53.0, -291.2783681489527, -248.45838360628113, -239.25261986535043, -223.2869869545102, 0.12800000607967377, 0.12800000607967377, 1.0240000486373901, 0.0, 0.0, 0.0, 0.0, 0.0, 1.6518367923429255E9, 0.0, 2022-05-06 12:33:12.342
54.0, -306.2529275715351, -221.14963412983343, -246.8595763752237, -243.1570754190907, 0.12800000607967377, 0.12800000607967377, 1.0240000486373901, 0.0, 0.0, 0.0, 0.0, 0.0, 1.6518367923438888E9, 0.0, 2022-05-06 12:33:12.343
54.0, -213.15185807459056, -70.47654471499845, -134.1053326111287, -147.63629065081477, 0.12800000607967377, 0.12800000607967377, 1.0240000486373901, 0.0, 0.0, 0.0, 0.0, 0.0, 1.6518367923438888E9, 0.0, 2022-05-06 12:33:12.343
55.0, -208.55178112909198, -95.33565972046927, -126.28520180378109, -148.27955344319344, 0.12800000607967377, 0.12800000607967377, 1.0240000486373901, 0.0, 0.0, 0.0, 0.0, 0.0, 1.6518367923449037E9, 0.0, 2022-05-06 12:33:12.344
55.0, -280.8777063721791, -226.06012277165428, -220.9906883817166, -205.63465916365385, 0.12800000607967377, 0.12800000607967377, 1.0240000486373901, 0.0, 0.0, 0.0, 0.0, 0.0, 1.6518367923449037E9, 0.0, 2022-05-06 12:33:12.344
56.0, -298.82174635957927, -216.91232748003677, -234.64132321998477, -221.87704467121512, 0.12800000607967377, 0.12800000607967377, 1.0240000486373901, 0.0, 0.0, 0.0, 0.0, 0.0, 1.6518367923458872E9, 0.0, 2022-05-06 12:33:12.345
56.0, -222.59884536266327, -59.30920344730839, -126.26650230400264, -139.52070774696767, 0.12800000607967377, 0.12800000607967377, 1.0240000486373901, 0.0, 0.0, 0.0, 0.0, 0.0, 1.6518367923458872E9, 0.0, 2022-05-06 12:33:12.345
57.0, -215.4369369475171, -96.19583671027794, -133.47702941857278, -168.23939950671047, 0.12800000607967377, 0.12800000607967377, 1.0240000486373901, 0.0, 0.0, 0.0, 0.0, 0.0, 1.6518367923559327E9, 0.0, 2022-05-06 12:33:12.355
57.0, -279.69963788613677, -230.9818311133422, -215.92686384171247, -204.88667917251587, 0.12800000607967377, 0.12800000607967377, 1.0240000486373901, 0.0, 0.0, 0.0, 0.0, 0.0, 1.6518367923559327E9, 0.0, 2022-05-06 12:33:12.355
58.0, -286.86154630128294, -206.90061529865488, -229.476521381177, -207.05208124686033, 0.12800000607967377, 0.12800000607967377, 1.0240000486373901, 0.0, 0.0, 0.0, 0.0, 0.0, 1.6518367923709493E9, 0.0, 2022-05-06 12:33:12.370
58.0, -224.98864143434912, -70.0875951196067, -139.0681798523292, -163.28403206542134, 0.12800000607967377, 0.12800000607967377, 1.0240000486373901, 0.0, 0.0, 0.0, 0.0, 0.0, 1.6518367923709493E9, 0.0, 2022-05-06 12:33:12.370
59.0, -215.09286615159363, -100.89689095458016, -136.26699478551745, -164.42470155190676, 0.12800000607967377, 0.12800000607967377, 1.0240000486373901, 0.0, 0.0, 0.0, 0.0, 0.0, 1.6518367923869364E9, 0.0, 2022-05-06 12:33:12.386
59.0, -283.4619772415608, -237.7585298330523, -222.02290076948702, -215.37709854822606, 0.12800000607967377, 0.12800000607967377, 1.0240000486373901, 0.0, 0.0, 0.0, 0.0, 0.0, 1.6518367923869364E9, 0.0, 2022-05-06 12:33:12.386
60.0, -294.86493220645934, -214.54497080808505, -232.68909544311464, -210.14871841017157, 0.12800000607967377, 0.12800000607967377, 1.0240000486373901, 0.0, 0.0, 0.0, 0.0, 0.0, 1.651836792387884E9, 0.0, 2022-05-06 12:33:12.387
60.0, -223.5151208518073, -72.57462859014049, -128.52914177719504, -138.42865695990622, 0.12800000607967377, 0.12800000607967377, 1.0240000486373901, 0.0, 0.0, 0.0, 0.0, 0.0, 1.651836792387884E9, 0.0, 2022-05-06 12:33:12.387
61.0, -208.768695326522, -94.72605602769181, -128.57028067670763, -158.68769501987845, 0.12800000607967377, 0.12800000607967377, 1.0240000486373901, 0.0, 0.0, 0.0, 0.0, 0.0, 1.6518367924009647E9, 0.0, 2022-05-06 12:33:12.400
61.0, -281.86130006052554, -237.2050246396102, -233.1079642381519, -230.6658095670864, 0.12800000607967377, 0.12800000607967377, 1.0240000486373901, 0.0, 0.0, 0.0, 0.0, 0.0, 1.6518367924009647E9, 0.0, 2022-05-06 12:33:12.400
62.0, -286.71569020301104, -204.86236982280388, -224.46131554059684, -216.8468792308122, 0.12800000607967377, 0.12800000607967377, 1.0240000486373901, 0.0, 0.0, 0.0, 0.0, 0.0, 1.6518367924169326E9, 0.0, 2022-05-06 12:33:12.416
62.0, -236.53745249751955, -82.9865100667812, -146.11789126880467, -168.65452840179205, 0.12800000607967377, 0.12800000607967377, 1.0240000486373901, 0.0, 0.0, 0.0, 0.0, 0.0, 1.6518367924169326E9, 0.0, 2022-05-06 12:33:12.416
63.0, -218.3951978124678, -102.38163123698905, -135.48909559473395, -158.79241221863776, 0.12800000607967377, 0.12800000607967377, 1.0240000486373901, 0.0, 0.0, 0.0, 0.0, 0.0, 1.651836792417882E9, 0.0, 2022-05-06 12:33:12.417
63.0, -282.56066135223955, -237.76974953291938, -218.05112701654434, -198.3867330495268, 0.12800000607967377, 0.12800000607967377, 1.0240000486373901, 0.0, 0.0, 0.0, 0.0, 0.0, 1.651836792417882E9, 0.0, 2022-05-06 12:33:12.417
64.0, -299.12841815594584, -211.99809893826023, -235.12751021422446, -224.1808230439201, 0.12800000607967377, 0.12800000607967377, 1.0240000486373901, 0.0, 0.0, 0.0, 0.0, 0.0, 1.6518367924310026E9, 0.0, 2022-05-06 12:33:12.431
64.0, -221.97054217010736, -74.62409376585856, -137.72181586828083, -156.15578274987638, 0.12800000607967377, 0.12800000607967377, 1.0240000486373901, 0.0, 0.0, 0.0, 0.0, 0.0, 1.6518367924310026E9, 0.0, 2022-05-06 12:33:12.431
65.0, -202.1677719047293, -87.60154661210254, -121.86464005615562, -137.55726027023047, 0.12800000607967377, 0.12800000607967377, 1.0240000486373901, 0.0, 0.0, 0.0, 0.0, 0.0, 1.6518367924469285E9, 0.0, 2022-05-06 12:33:12.446
65.0, -282.88603264838457, -236.3485875497572, -221.59655217453837, -216.03906084038317, 0.12800000607967377, 0.12800000607967377, 1.0240000486373901, 0.0, 0.0, 0.0, 0.0, 0.0, 1.6518367924469285E9, 0.0, 2022-05-06 12:33:12.446
66.0, -273.1248937640339, -208.7069869772531, -222.41559026483446, -209.4717965181917, 0.12800000607967377, 0.12800000607967377, 1.0240000486373901, 0.0, 0.0, 0.0, 0.0, 0.0, 1.6518367924479008E9, 0.0, 2022-05-06 12:33:12.447
66.0, -214.27382806129754, -58.46398605732247, -120.99324336647987, -134.75607520341873, 0.12800000607967377, 0.12800000607967377, 1.0240000486373901, 0.0, 0.0, 0.0, 0.0, 0.0, 1.6518367924479008E9, 0.0, 2022-05-06 12:33:12.447
67.0, -223.04015355743468, -92.2091033575125, -122.9828701429069, -154.1137973740697, 0.12800000607967377, 0.12800000607967377, 1.0240000486373901, 0.0, 0.0, 0.0, 0.0, 0.0, 1.651836792460937E9, 0.0, 2022-05-06 12:33:12.460
67.0, -291.86179254204035, -241.97339708311483, -234.82831821776927, -231.76908005401492, 0.12800000607967377, 0.12800000607967377, 1.0240000486373901, 0.0, 0.0, 0.0, 0.0, 0.0, 1.651836792460937E9, 0.0, 2022-05-06 12:33:12.460
68.0, -291.86179254204035, -209.84017666382715, -237.86511698178947, -224.91010353527963, 0.12800000607967377, 0.12800000607967377, 1.0240000486373901, 0.0, 0.0, 0.0, 0.0, 0.0, 1.6518367924769335E9, 0.0, 2022-05-06 12:33:12.476
68.0, -222.79706006031483, -72.06226229621097, -136.98505557700992, -156.34277774766088, 0.12800000607967377, 0.12800000607967377, 1.0240000486373901, 0.0, 0.0, 0.0, 0.0, 0.0, 1.6518367924769335E9, 0.0, 2022-05-06 12:33:12.476
69.0, -223.23088845517486, -104.20296251541004, -128.5403614770621, -162.28921867720783, 0.12800000607967377, 0.12800000607967377, 1.0240000486373901, 0.0, 0.0, 0.0, 0.0, 0.0, 1.651836792477883E9, 0.0, 2022-05-06 12:33:12.477
69.0, -275.9372985307127, -226.0189838721417, -206.18068455718458, -194.88618669100106, 0.12800000607967377, 0.12800000607967377, 1.0240000486373901, 0.0, 0.0, 0.0, 0.0, 0.0, 1.651836792477883E9, 0.0, 2022-05-06 12:33:12.477
70.0, -297.063993380405, -208.86406277539209, -237.0012000920251, -221.75736787263304, 0.12800000607967377, 0.12800000607967377, 1.0240000486373901, 0.0, 0.0, 0.0, 0.0, 0.0, 1.6518367924909348E9, 0.0, 2022-05-06 12:33:12.490
70.0, -223.9938280461356, -72.34649469284341, -140.1751902392134, -163.0446784682572, 0.12800000607967377, 0.12800000607967377, 1.0240000486373901, 0.0, 0.0, 0.0, 0.0, 0.0, 1.6518367924909348E9, 0.0, 2022-05-06 12:33:12.490
71.0, -213.9895956646651, -99.86467856680974, -130.74690245091915, -159.1851017139852, 0.12800000607967377, 0.12800000607967377, 1.0240000486373901, 0.0, 0.0, 0.0, 0.0, 0.0, 1.6518367925069416E9, 0.0, 2022-05-06 12:33:12.506
71.0, -289.22890297323465, -247.16063832165673, -232.80129244178534, -226.94834901113063, 0.12800000607967377, 0.12800000607967377, 1.0240000486373901, 0.0, 0.0, 0.0, 0.0, 0.0, 1.6518367925069416E9, 0.0, 2022-05-06 12:33:12.506
72.0, -301.9595224224031, -219.61627514800057, -237.0012000920251, -226.7725737132132, 0.12800000607967377, 0.12800000607967377, 1.0240000486373901, 0.0, 0.0, 0.0, 0.0, 0.0, 1.651836792507881E9, 0.0, 2022-05-06 12:33:12.507
72.0, -222.16501696780324, -70.89915340999141, -131.95863003656268, -152.79361268971115, 0.12800000607967377, 0.12800000607967377, 1.0240000486373901, 0.0, 0.0, 0.0, 0.0, 0.0, 1.651836792507881E9, 0.0, 2022-05-06 12:33:12.507
73.0, -208.47698312997818, -97.7665946916677, -129.6174526643008, -151.38367040641606, 0.12800000607967377, 0.12800000607967377, 1.0240000486373901, 0.0, 0.0, 0.0, 0.0, 0.0, 1.6518367925379715E9, 0.0, 2022-05-06 12:33:12.537
73.0, -282.07821425795555, -238.06894152937457, -227.04184651002288, -216.89549793023616, 0.12800000607967377, 0.12800000607967377, 1.0240000486373901, 0.0, 0.0, 0.0, 0.0, 0.0, 1.6518367925379715E9, 0.0, 2022-05-06 12:33:12.537
74.0, -295.56803339812905, -208.55365107906982, -233.09674453828484, -215.63889154512435, 0.12800000607967377, 0.12800000607967377, 1.0240000486373901, 0.0, 0.0, 0.0, 0.0, 0.0, 1.6518367925388944E9, 0.0, 2022-05-06 12:33:12.538
74.0, -215.22376265004277, -60.29653703561053, -126.05332800652832, -145.3325122781098, 0.12800000607967377, 0.12800000607967377, 1.0240000486373901, 0.0, 0.0, 0.0, 0.0, 0.0, 1.6518367925388944E9, 0.0, 2022-05-06 12:33:12.538
75.0, -210.8032009024173, -97.83391289087012, -121.04934186581522, -138.70914945658296, 0.12800000607967377, 0.12800000607967377, 1.0240000486373901, 0.0, 0.0, 0.0, 0.0, 0.0, 1.651836792539882E9, 0.0, 2022-05-06 12:33:12.539
75.0, -280.0661480817944, -240.49613660061732, -217.2919273255393, -197.82948795612901, 0.12800000607967377, 0.12800000607967377, 1.0240000486373901, 0.0, 0.0, 0.0, 0.0, 0.0, 1.651836792539882E9, 0.0, 2022-05-06 12:33:12.539
76.0, -286.45763710606843, -211.0780835491605, -235.57255830895156, -229.83929167687893, 0.12800000607967377, 0.12800000607967377, 1.0240000486373901, 0.0, 0.0, 0.0, 0.0, 0.0, 1.6518367925509424E9, 0.0, 2022-05-06 12:33:12.550
76.0, -202.85965339653194, -64.5301037854515, -127.22765659261495, -159.1888416139409, 0.12800000607967377, 0.12800000607967377, 1.0240000486373901, 0.0, 0.0, 0.0, 0.0, 0.0, 1.6518367925509424E9, 0.0, 2022-05-06 12:33:12.550
77.0, -223.59365875087678, -106.29730649059638, -136.30813368503004, -168.64330870192498, 0.12800000607967377, 0.12800000607967377, 1.0240000486373901, 0.0, 0.0, 0.0, 0.0, 0.0, 1.6518367925669508E9, 0.0, 2022-05-06 12:33:12.566
77.0, -290.2947744606063, -237.77348943287507, -225.2167753316462, -218.00998811703175, 0.12800000607967377, 0.12800000607967377, 1.0240000486373901, 0.0, 0.0, 0.0, 0.0, 0.0, 1.6518367925669508E9, 0.0, 2022-05-06 12:33:12.566
78.0, -302.0231007216498, -213.84186961641535, -230.9650015635416, -206.24052295647562, 0.12800000607967377, 0.12800000607967377, 1.0240000486373901, 0.0, 0.0, 0.0, 0.0, 0.0, 1.6518367925678825E9, 0.0, 2022-05-06 12:33:12.567
78.0, -223.08877225685865, -78.75668321689591, -145.82991897221655, -158.0706115271896, 0.12800000607967377, 0.12800000607967377, 1.0240000486373901, 0.0, 0.0, 0.0, 0.0, 0.0, 1.6518367925678825E9, 0.0, 2022-05-06 12:33:12.567
79.0, -218.79910700768232, -122.8164445948787, -149.96624832320958, -174.27933793514967, 0.12800000607967377, 0.12800000607967377, 1.0240000486373901, 0.0, 0.0, 0.0, 0.0, 0.0, 1.6518367925979233E9, 0.0, 2022-05-06 12:33:12.597
79.0, -291.1736509501934, -254.07197343977168, -231.32029205933213, -226.12931092083454, 0.12800000607967377, 0.12800000607967377, 1.0240000486373901, 0.0, 0.0, 0.0, 0.0, 0.0, 1.6518367925979233E9, 0.0, 2022-05-06 12:33:12.597
80.0, -305.1795762842521, -223.50577110191807, -245.21776029467583, -221.60777187440544, 0.12800000607967377, 0.12800000607967377, 1.0240000486373901, 0.0, 0.0, 0.0, 0.0, 0.0, 1.6518367925988884E9, 0.0, 2022-05-06 12:33:12.598
80.0, -220.33246598951519, -75.79094255203381, -143.79915329627693, -167.77191201224923, 0.12800000607967377, 0.12800000607967377, 1.0240000486373901, 0.0, 0.0, 0.0, 0.0, 0.0, 1.6518367925988884E9, 0.0, 2022-05-06 12:33:12.598
81.0, -203.8021081853658, -91.8014542623423, -126.08698710612953, -143.9225699948147, 0.12800000607967377, 0.12800000607967377, 1.0240000486373901, 0.0, 0.0, 0.0, 0.0, 0.0, 1.651836792599869E9, 0.0, 2022-05-06 12:33:12.599
81.0, -281.6518656630069, -229.87856062641367, -220.9906883817166, -201.52450911235064, 0.12800000607967377, 0.12800000607967377, 1.0240000486373901, 0.0, 0.0, 0.0, 0.0, 0.0, 1.651836792599869E9, 0.0, 2022-05-06 12:33:12.599
82.0, -286.5773139046505, -196.61589042050764, -225.57206582743675, -215.42197734769434, 0.12800000607967377, 0.12800000607967377, 1.0240000486373901, 0.0, 0.0, 0.0, 0.0, 0.0, 1.651836792610966E9, 0.0, 2022-05-06 12:33:12.610
82.0, -217.04509392846376, -61.28761052386835, -124.41899172589183, -148.79565963707864, 0.12800000607967377, 0.12800000607967377, 1.0240000486373901, 0.0, 0.0, 0.0, 0.0, 0.0, 1.651836792610966E9, 0.0, 2022-05-06 12:33:12.610
83.0, -207.29891464393586, -92.82618685020134, -124.89021912030876, -149.09111173357815, 0.12800000607967377, 0.12800000607967377, 1.0240000486373901, 0.0, 0.0, 0.0, 0.0, 0.0, 1.6518367926269257E9, 0.0, 2022-05-06 12:33:12.626
83.0, -277.9082258073613, -227.8290954506956, -221.76484767254442, -198.33811435010284, 0.12800000607967377, 0.12800000607967377, 1.0240000486373901, 0.0, 0.0, 0.0, 0.0, 0.0, 1.6518367926269257E9, 0.0, 2022-05-06 12:33:12.626
84.0, -293.6158056212589, -204.80253142351285, -229.79441287741065, -218.88886460661888, 0.12800000607967377, 0.12800000607967377, 1.0240000486373901, 0.0, 0.0, 0.0, 0.0, 0.0, 1.6518367926279263E9, 0.0, 2022-05-06 12:33:12.627
84.0, -220.3661250891164, -69.73978442372754, -138.46231605950743, -164.34616365283728, 0.12800000607967377, 0.12800000607967377, 1.0240000486373901, 0.0, 0.0, 0.0, 0.0, 0.0, 1.6518367926279263E9, 0.0, 2022-05-06 12:33:12.627
85.0, -211.8092339904979, -107.27716027898714, -133.7350825155154, -158.48948032222688, 0.12800000607967377, 0.12800000607967377, 1.0240000486373901, 0.0, 0.0, 0.0, 0.0, 0.0, 1.651836792640943E9, 0.0, 2022-05-06 12:33:12.640
85.0, -284.15385873336345, -242.97569027123973, -235.72215430717915, -223.30194655433297, 0.12800000607967377, 0.12800000607967377, 1.0240000486373901, 0.0, 0.0, 0.0, 0.0, 0.0, 1.651836792640943E9, 0.0, 2022-05-06 12:33:12.640
86.0, -280.85152707248926, -200.4866868746467, -222.57640596292913, -214.9133509537205, 0.12800000607967377, 0.12800000607967377, 1.0240000486373901, 0.0, 0.0, 0.0, 0.0, 0.0, 1.65183679265694E9, 0.0, 2022-05-06 12:33:12.656
86.0, -209.05666762311012, -60.94727962790057, -124.88647922035307, -154.69348186720163, 0.12800000607967377, 0.12800000607967377, 1.0240000486373901, 0.0, 0.0, 0.0, 0.0, 0.0, 1.65183679265694E9, 0.0, 2022-05-06 12:33:12.656
87.0, -215.41823744773865, -99.93199676601216, -126.49089630134404, -140.90821063052863, 0.12800000607967377, 0.12800000607967377, 1.0240000486373901, 0.0, 0.0, 0.0, 0.0, 0.0, 1.6518367926578932E9, 0.0, 2022-05-06 12:33:12.657
87.0, -287.1270791981369, -233.63342018192634, -221.15524397976696, -198.44283154886216, 0.12800000607967377, 0.12800000607967377, 1.0240000486373901, 0.0, 0.0, 0.0, 0.0, 0.0, 1.6518367926578932E9, 0.0, 2022-05-06 12:33:12.657
88.0, -286.3940588068217, -201.8180912588723, -226.5855787154287, -212.38517858367413, 0.12800000607967377, 0.12800000607967377, 1.0240000486373901, 0.0, 0.0, 0.0, 0.0, 0.0, 1.651836792670967E9, 0.0, 2022-05-06 12:33:12.670
88.0, -218.694389808923, -65.47255857428536, -134.1763907102868, -157.74898013100028, 0.12800000607967377, 0.12800000607967377, 1.0240000486373901, 0.0, 0.0, 0.0, 0.0, 0.0, 1.651836792670967E9, 0.0, 2022-05-06 12:33:12.670
89.0, -206.75288925040513, -96.64088480500504, -128.37580587901175, -149.3716042302549, 0.12800000607967377, 0.12800000607967377, 1.0240000486373901, 0.0, 0.0, 0.0, 0.0, 0.0, 1.6518367926869292E9, 0.0, 2022-05-06 12:33:12.686
89.0, -301.90342392306775, -250.99777567619458, -238.45602117478848, -231.70924165472388, 0.12800000607967377, 0.12800000607967377, 1.0240000486373901, 0.0, 0.0, 0.0, 0.0, 0.0, 1.6518367926869292E9, 0.0, 2022-05-06 12:33:12.686
90.0, -295.8373061949387, -206.34711010521278, -230.1833624728024, -221.12532478012145, 0.12800000607967377, 0.12800000607967377, 1.0240000486373901, 0.0, 0.0, 0.0, 0.0, 0.0, 1.651836792687904E9, 0.0, 2022-05-06 12:33:12.687
90.0, -214.8422928545624, -65.79792987043038, -135.5040551945567, -154.12127717398107, 0.12800000607967377, 0.12800000607967377, 1.0240000486373901, 0.0, 0.0, 0.0, 0.0, 0.0, 1.651836792687904E9, 0.0, 2022-05-06 12:33:12.687
91.0, -205.9114117603749, -100.48550195945427, -128.64507867582142, -147.64003055077046, 0.12800000607967377, 0.12800000607967377, 1.0240000486373901, 0.0, 0.0, 0.0, 0.0, 0.0, 1.6518367927009375E9, 0.0, 2022-05-06 12:33:12.700
91.0, -279.9876101827249, -239.31058831466362, -225.02604043390602, -214.26634826138616, 0.12800000607967377, 0.12800000607967377, 1.0240000486373901, 0.0, 0.0, 0.0, 0.0, 0.0, 1.6518367927009375E9, 0.0, 2022-05-06 12:33:12.700
92.0, -285.9153516124934, -203.8937357342802, -218.92626360617578, -197.97534405440092, 0.12800000607967377, 0.12800000607967377, 1.0240000486373901, 0.0, 0.0, 0.0, 0.0, 0.0, 1.6518367927169335E9, 0.0, 2022-05-06 12:33:12.716
92.0, -221.69004967343062, -62.435759810265154, -135.14876469876617, -156.4026161469519, 0.12800000607967377, 0.12800000607967377, 1.0240000486373901, 0.0, 0.0, 0.0, 0.0, 0.0, 1.6518367927169335E9, 0.0, 2022-05-06 12:33:12.716
93.0, -216.16621743887663, -104.90606370707974, -138.8101267553866, -163.6318427613005, 0.12800000607967377, 0.12800000607967377, 1.0240000486373901, 0.0, 0.0, 0.0, 0.0, 0.0, 1.6518367927178757E9, 0.0, 2022-05-06 12:33:12.717
93.0, -287.6618848918006, -241.62932628719136, -226.19662912003696, -216.31955333705992, 0.12800000607967377, 0.12800000607967377, 1.0240000486373901, 0.0, 0.0, 0.0, 0.0, 0.0, 1.6518367927178757E9, 0.0, 2022-05-06 12:33:12.717
94.0, -292.00390874035656, -208.0076256855391, -230.90142326429486, -215.0666868519038, 0.12800000607967377, 0.12800000607967377, 1.0240000486373901, 0.0, 0.0, 0.0, 0.0, 0.0, 1.6518367927309587E9, 0.0, 2022-05-06 12:33:12.730
94.0, -207.56818744074553, -58.46024615736678, -129.85306636150926, -151.05829911027104, 0.12800000607967377, 0.12800000607967377, 1.0240000486373901, 0.0, 0.0, 0.0, 0.0, 0.0, 1.6518367927309587E9, 0.0, 2022-05-06 12:33:12.730
95.0, -210.92287770099938, -97.4337435956113, -128.62263927608728, -148.19353574421257, 0.12800000607967377, 0.12800000607967377, 1.0240000486373901, 0.0, 0.0, 0.0, 0.0, 0.0, 1.651836792746949E9, 0.0, 2022-05-06 12:33:12.746
95.0, -285.48526311758906, -240.21564410394058, -219.9883951935917, -209.842046613805, 0.12800000607967377, 0.12800000607967377, 1.0240000486373901, 0.0, 0.0, 0.0, 0.0, 0.0, 1.651836792746949E9, 0.0, 2022-05-06 12:33:12.746
96.0, -282.15301225706935, -196.76174651877955, -211.023854999803, -193.59592120628804, 0.12800000607967377, 0.12800000607967377, 1.0240000486373901, 0.0, 0.0, 0.0, 0.0, 0.0, 1.6518367927479029E9, 0.0, 2022-05-06 12:33:12.747
96.0, -194.02974960114807, -48.60186987416819, -118.03872240148485, -123.11376664135605, 0.12800000607967377, 0.12800000607967377, 1.0240000486373901, 0.0, 0.0, 0.0, 0.0, 0.0, 1.6518367927479029E9, 0.0, 2022-05-06 12:33:12.747
97.0, -208.1029931344092, -96.09485941147432, -125.60080011188984, -149.46510172914714, 0.12800000607967377, 0.12800000607967377, 1.0240000486373901, 0.0, 0.0, 0.0, 0.0, 0.0, 1.6518367927609265E9, 0.0, 2022-05-06 12:33:12.760
97.0, -300.5794993387535, -254.8461327305995, -237.76039978303015, -238.72529397159815, 0.12800000607967377, 0.12800000607967377, 1.0240000486373901, 0.0, 0.0, 0.0, 0.0, 0.0, 1.6518367927609265E9, 0.0, 2022-05-06 12:33:12.760
98.0, -291.6897571440786, -206.3433702052571, -227.56169260386378, -215.97548254113644, 0.12800000607967377, 0.12800000607967377, 1.0240000486373901, 0.0, 0.0, 0.0, 0.0, 0.0, 1.6518367927769332E9, 0.0, 2022-05-06 12:33:12.776
98.0, -229.12123088538647, -78.54350891942158, -146.72001516167074, -164.19656765460968, 0.12800000607967377, 0.12800000607967377, 1.0240000486373901, 0.0, 0.0, 0.0, 0.0, 0.0, 1.6518367927769332E9, 0.0, 2022-05-06 12:33:12.776
99.0, -214.07561336364597, -107.38187747774646, -125.61201981175691, -155.93886855244637, 0.12800000607967377, 0.12800000607967377, 1.0240000486373901, 0.0, 0.0, 0.0, 0.0, 0.0, 1.651836792777896E9, 0.0, 2022-05-06 12:33:12.777
99.0, -284.1650784332305, -244.68482455099002, -233.35479763522744, -228.20121549628675, 0.12800000607967377, 0.12800000607967377, 1.0240000486373901, 0.0, 0.0, 0.0, 0.0, 0.0, 1.651836792777896E9, 0.0, 2022-05-06 12:33:12.777
100.0, -294.1842704145238, -207.05769109679386, -233.56797193270177, -214.9170908536762, 0.12800000607967377, 0.12800000607967377, 1.0240000486373901, 0.0, 0.0, 0.0, 0.0, 0.0, 1.6518367927919335E9, 0.0, 2022-05-06 12:33:12.791
100.0, -218.63829130958766, -61.85233541717753, -129.6885107634589, -148.67598283849657, 0.12800000607967377, 0.12800000607967377, 1.0240000486373901, 0.0, 0.0, 0.0, 0.0, 0.0, 1.6518367927919335E9, 0.0, 2022-05-06 12:33:12.791
0.0, -225.57767567737028, -113.37132725678384, -138.95037300372496, -164.0226623066701, 0.12800000607967377, 0.12800000607967377, 1.0240000486373901, 0.0, 0.0, 0.0, 0.0, 0.0, 1.6518367928069687E9, 0.0, 2022-05-06 12:33:12.806
1.0, -293.0791299776174, -249.57474374305457, -238.62244672281668, -233.07991498848423, 0.12800000607967377, 0.12800000607967377, 1.0240000486373901, 0.0, 0.0, 0.0, 0.0, 0.0, 1.6518367928078928E9, 0.0, 2022-05-06 12:33:12.807
1.0, -294.9004612560384, -206.85386654920876, -231.04166951263323, -223.09812200674787, 0.12800000607967377, 0.12800000607967377, 1.0240000486373901, 0.0, 0.0, 0.0, 0.0, 0.0, 1.6518367928078928E9, 0.0, 2022-05-06 12:33:12.807
2.0, -230.65645981719717, -74.40904951840639, -136.3100036350079, -162.85581352049485, 0.12800000607967377, 0.12800000607967377, 1.0240000486373901, 0.0, 0.0, 0.0, 0.0, 0.0, 1.651836792837937E9, 0.0, 2022-05-06 12:33:12.837
2.0, -227.55982265388593, -122.30594825092703, -142.10310866637155, -164.6135664996691, 0.12800000607967377, 0.12800000607967377, 1.0240000486373901, 0.0, 0.0, 0.0, 0.0, 0.0, 1.651836792837937E9, 0.0, 2022-05-06 12:33:12.837
3.0, -296.69935313472524, -255.29679067526013, -233.0200765891932, -210.21790655935183, 0.12800000607967377, 0.12800000607967377, 1.0240000486373901, 0.0, 0.0, 0.0, 0.0, 0.0, 1.6518367928388863E9, 0.0, 2022-05-06 12:33:12.838
3.0, -304.03703684778884, -209.31472072005272, -236.86469374364242, -216.17930708872154, 0.12800000607967377, 0.12800000607967377, 1.0240000486373901, 0.0, 0.0, 0.0, 0.0, 0.0, 1.6518367928388863E9, 0.0, 2022-05-06 12:33:12.838
4.0, -230.21889152238145, -71.45078865345567, -138.24353191209957, -160.42113864934072, 0.12800000607967377, 0.12800000607967377, 1.0240000486373901, 0.0, 0.0, 0.0, 0.0, 0.0, 1.6518367928399525E9, 0.0, 2022-05-06 12:33:12.839
4.0, -224.94563258485869, -112.83652156312019, -143.4906115499325, -173.99697548849508, 0.12800000607967377, 0.12800000607967377, 1.0240000486373901, 0.0, 0.0, 0.0, 0.0, 0.0, 1.6518367928399525E9, 0.0, 2022-05-06 12:33:12.839
5.0, -297.25285832816735, -254.33189648669213, -238.77204272104427, -234.26546327443793, 0.12800000607967377, 0.12800000607967377, 1.0240000486373901, 0.0, 0.0, 0.0, 0.0, 0.0, 1.6518367928408778E9, 0.0, 2022-05-06 12:33:12.840
5.0, -295.25949165178463, -210.6236857045442, -236.9806306422688, -219.7172524468042, 0.12800000607967377, 0.12800000607967377, 1.0240000486373901, 0.0, 0.0, 0.0, 0.0, 0.0, 1.6518367928408778E9, 0.0, 2022-05-06 12:33:12.840
6.0, -219.80327014578506, -63.98220844194293, -128.8937820228748, -145.77569042285904, 0.12800000607967377, 0.12800000607967377, 1.0240000486373901, 0.0, 0.0, 0.0, 0.0, 0.0, 1.651836792850936E9, 0.0, 2022-05-06 12:33:12.850
6.0, -220.7195456349291, -109.85956119839102, -130.56925720302388, -150.14389357110485, 0.12800000607967377, 0.12800000607967377, 1.0240000486373901, 0.0, 0.0, 0.0, 0.0, 0.0, 1.651836792850936E9, 0.0, 2022-05-06 12:33:12.850
7.0, -275.5202996856533, -237.10217739082873, -222.312743016053, -203.90495543414727, 0.12800000607967377, 0.12800000607967377, 1.0240000486373901, 0.0, 0.0, 0.0, 0.0, 0.0, 1.6518367928659592E9, 0.0, 2022-05-06 12:33:12.865
7.0, -298.91711380844936, -197.8332278560847, -227.44388575525954, -217.6827468709089, 0.12800000607967377, 0.12800000607967377, 1.0240000486373901, 0.0, 0.0, 0.0, 0.0, 0.0, 1.6518367928659592E9, 0.0, 2022-05-06 12:33:12.865
8.0, -227.5373832541518, -63.89619074296206, -128.7479259246029, -150.78715636348352, 0.12800000607967377, 0.12800000607967377, 1.0240000486373901, 0.0, 0.0, 0.0, 0.0, 0.0, 1.651836792881946E9, 0.0, 2022-05-06 12:33:12.881
8.0, -221.0897957305424, -110.66737958882004, -138.28467081161216, -163.30460151517764, 0.12800000607967377, 0.12800000607967377, 1.0240000486373901, 0.0, 0.0, 0.0, 0.0, 0.0, 1.651836792881946E9, 0.0, 2022-05-06 12:33:12.881
9.0, -288.5987298307009, -237.1507960902527, -220.7494648345746, -209.8962751631625, 0.12800000607967377, 0.12800000607967377, 1.0240000486373901, 0.0, 0.0, 0.0, 0.0, 0.0, 1.6518367928828957E9, 0.0, 2022-05-06 12:33:12.882
9.0, -288.9428006266244, -194.99090388976038, -221.6844398234971, -210.300184358377, 0.12800000607967377, 0.12800000607967377, 1.0240000486373901, 0.0, 0.0, 0.0, 0.0, 0.0, 1.6518367928828957E9, 0.0, 2022-05-06 12:33:12.882
10.0, -218.5990223600529, -57.89739121403545, -126.51146575110033, -162.29482852714136, 0.12800000607967377, 0.12800000607967377, 1.0240000486373901, 0.0, 0.0, 0.0, 0.0, 0.0, 1.6518367929129312E9, 0.0, 2022-05-06 12:33:12.912
10.0, -213.05649062572047, -100.0872026141733, -120.58372432133183, -146.80416291067377, 0.12800000607967377, 0.12800000607967377, 1.0240000486373901, 0.0, 0.0, 0.0, 0.0, 0.0, 1.6518367929129312E9, 0.0, 2022-05-06 12:33:12.912
11.0, -294.17118076467887, -250.0796302370727, -231.0865483121015, -209.81025746418163, 0.12800000607967377, 0.12800000607967377, 1.0240000486373901, 0.0, 0.0, 0.0, 0.0, 0.0, 1.6518367929138763E9, 0.0, 2022-05-06 12:33:12.913
11.0, -301.70333927543834, -208.6153594283387, -235.9446783545427, -212.85079612815753, 0.12800000607967377, 0.12800000607967377, 1.0240000486373901, 0.0, 0.0, 0.0, 0.0, 0.0, 1.6518367929138763E9, 0.0, 2022-05-06 12:33:12.913
12.0, -227.18583265831694, -66.13639081642032, -139.64973429543898, -165.4700035895221, 0.12800000607967377, 0.12800000607967377, 1.0240000486373901, 0.0, 0.0, 0.0, 0.0, 0.0, 1.651836792914872E9, 0.0, 2022-05-06 12:33:12.914
12.0, -220.5662097367458, -112.24187747016549, -139.4889185973443, -161.66652533458546, 0.12800000607967377, 0.12800000607967377, 1.0240000486373901, 0.0, 0.0, 0.0, 0.0, 0.0, 1.651836792914872E9, 0.0, 2022-05-06 12:33:12.914
13.0, -292.529364684131, -252.23755251150578, -241.48721008887514, -222.30152331618592, 0.12800000607967377, 0.12800000607967377, 1.0240000486373901, 0.0, 0.0, 0.0, 0.0, 0.0, 1.6518367929259045E9, 0.0, 2022-05-06 12:33:12.925
13.0, -299.7249321988784, -207.1754979453981, -227.3167291567661, -218.85333555703983, 0.12800000607967377, 0.12800000607967377, 1.0240000486373901, 0.0, 0.0, 0.0, 0.0, 0.0, 1.6518367929259045E9, 0.0, 2022-05-06 12:33:12.925
14.0, -219.22358565265313, -62.00006146542728, -125.62884936155751, -144.98657153220847, 0.12800000607967377, 0.12800000607967377, 1.0240000486373901, 0.0, 0.0, 0.0, 0.0, 0.0, 1.651836792957925E9, 0.0, 2022-05-06 12:33:12.957
14.0, -211.81110394047573, -106.10470164287835, -129.88111561117694, -149.59412827761844, 0.12800000607967377, 0.12800000607967377, 1.0240000486373901, 0.0, 0.0, 0.0, 0.0, 0.0, 1.651836792957925E9, 0.0, 2022-05-06 12:33:12.957
15.0, -297.32765632728115, -252.21137321181595, -245.9863097355701, -230.88459371449426, 0.12800000607967377, 0.12800000607967377, 1.0240000486373901, 0.0, 0.0, 0.0, 0.0, 0.0, 1.6518367929588754E9, 0.0, 2022-05-06 12:33:12.958
15.0, -289.9712731144391, -197.504116659984, -229.87482072645798, -220.59612893639132, 0.12800000607967377, 0.12800000607967377, 1.0240000486373901, 0.0, 0.0, 0.0, 0.0, 0.0, 1.6518367929588754E9, 0.0, 2022-05-06 12:33:12.958
16.0, -224.65392038831487, -60.73971518035978, -129.21541341906413, -149.2051786822267, 0.12800000607967377, 0.12800000607967377, 1.0240000486373901, 0.0, 0.0, 0.0, 0.0, 0.0, 1.6518367929598715E9, 0.0, 2022-05-06 12:33:12.959
16.0, -211.62410894269124, -102.56301638484001, -119.84696403006092, -143.677606547717, 0.12800000607967377, 0.12800000607967377, 1.0240000486373901, 0.0, 0.0, 0.0, 0.0, 0.0, 1.6518367929598715E9, 0.0, 2022-05-06 12:33:12.959
17.0, -281.1151900193654, -243.3403305169195, -232.84430129127577, -220.07254294259474, 0.12800000607967377, 0.12800000607967377, 1.0240000486373901, 0.0, 0.0, 0.0, 0.0, 0.0, 1.6518367929608717E9, 0.0, 2022-05-06 12:33:12.960
17.0, -297.4959518252872, -198.02770265378058, -228.81268913904205, -221.17955332947895, 0.12800000607967377, 0.12800000607967377, 1.0240000486373901, 0.0, 0.0, 0.0, 0.0, 0.0, 1.6518367929608717E9, 0.0, 2022-05-06 12:33:12.960
18.0, -225.8693878739141, -68.50000758841634, -134.51111175632104, -159.22437066351995, 0.12800000607967377, 0.12800000607967377, 1.0240000486373901, 0.0, 0.0, 0.0, 0.0, 0.0, 1.6518367929709327E9, 0.0, 2022-05-06 12:33:12.970
18.0, -230.96687151351944, -120.62673317082226, -148.019630396273, -168.3160674558021, 0.12800000607967377, 0.12800000607967377, 1.0240000486373901, 0.0, 0.0, 0.0, 0.0, 0.0, 1.6518367929709327E9, 0.0, 2022-05-06 12:33:12.970
19.0, -298.2439318164252, -249.98613273818046, -229.10066143563017, -204.31634442927316, 0.12800000607967377, 0.12800000607967377, 1.0240000486373901, 0.0, 0.0, 0.0, 0.0, 0.0, 1.651836792985984E9, 0.0, 2022-05-06 12:33:12.985
19.0, -296.43756013782695, -200.93734481930733, -230.81727551529184, -223.7526044989936, 0.12800000607967377, 0.12800000607967377, 1.0240000486373901, 0.0, 0.0, 0.0, 0.0, 0.0, 1.651836792985984E9, 0.0, 2022-05-06 12:33:12.985
20.0, -228.2367445458658, -64.83116573188454, -132.4541667806916, -168.82843374973163, 0.12800000607967377, 0.12800000607967377, 1.0240000486373901, 0.0, 0.0, 0.0, 0.0, 0.0, 1.651836793001928E9, 0.0, 2022-05-06 12:33:13.001
20.0, -211.1902805478312, -101.69535959511995, -128.03360503306612, -153.58086163038388, 0.12800000607967377, 0.12800000607967377, 1.0240000486373901, 0.0, 0.0, 0.0, 0.0, 0.0, 1.651836793001928E9, 0.0, 2022-05-06 12:33:13.001
21.0, -292.2376524875872, -245.35987649299204, -228.0908884475939, -215.4537664973177, 0.12800000607967377, 0.12800000607967377, 1.0240000486373901, 0.0, 0.0, 0.0, 0.0, 0.0, 1.6518367930028794E9, 0.0, 2022-05-06 12:33:13.002
21.0, -295.3006305512972, -201.1692186165601, -218.21381266461685, -192.56931866845116, 0.12800000607967377, 0.12800000607967377, 1.0240000486373901, 0.0, 0.0, 0.0, 0.0, 0.0, 1.6518367930028794E9, 0.0, 2022-05-06 12:33:13.002
22.0, -227.8290954506956, -67.78942659683526, -137.08042302588, -158.25947647495195, 0.12800000607967377, 0.12800000607967377, 1.0240000486373901, 0.0, 0.0, 0.0, 0.0, 0.0, 1.651836793015956E9, 0.0, 2022-05-06 12:33:13.015
22.0, -231.20996501063928, -126.79756809771061, -153.02361653698608, -179.40861072437838, 0.12800000607967377, 0.12800000607967377, 1.0240000486373901, 0.0, 0.0, 0.0, 0.0, 0.0, 1.651836793015956E9, 0.0, 2022-05-06 12:33:13.015
23.0, -292.50318538444117, -243.38894921634346, -229.0857018358074, -216.1568676889874, 0.12800000607967377, 0.12800000607967377, 1.0240000486373901, 0.0, 0.0, 0.0, 0.0, 0.0, 1.6518367930319264E9, 0.0, 2022-05-06 12:33:13.031
23.0, -287.09902994846925, -195.07318168878555, -222.2716041165404, -215.21067300019786, 0.12800000607967377, 0.12800000607967377, 1.0240000486373901, 0.0, 0.0, 0.0, 0.0, 0.0, 1.6518367930319264E9, 0.0, 2022-05-06 12:33:13.031
24.0, -211.10800274880603, -54.42676405515522, -114.442808594089, -139.02143110288307, 0.12800000607967377, 0.12800000607967377, 1.0240000486373901, 0.0, 0.0, 0.0, 0.0, 0.0, 1.6518367930328891E9, 0.0, 2022-05-06 12:33:13.032
24.0, -214.09618281340227, -107.46602522674948, -121.82911100657657, -125.58023066213354, 0.12800000607967377, 0.12800000607967377, 1.0240000486373901, 0.0, 0.0, 0.0, 0.0, 0.0, 1.6518367930328891E9, 0.0, 2022-05-06 12:33:13.032
25.0, -310.66413956927136, -265.36460135597736, -258.67579028522596, -245.97135013574734, 0.12800000607967377, 0.12800000607967377, 1.0240000486373901, 0.0, 0.0, 0.0, 0.0, 0.0, 1.6518367930459278E9, 0.0, 2022-05-06 12:33:13.045
25.0, -281.8145513110794, -196.43450527265668, -225.36450137989596, -217.06566337822005, 0.12800000607967377, 0.12800000607967377, 1.0240000486373901, 0.0, 0.0, 0.0, 0.0, 0.0, 1.6518367930459278E9, 0.0, 2022-05-06 12:33:13.045
26.0, -204.99326632125303, -51.55078098922968, -120.02647922793403, -158.2370370752178, 0.12800000607967377, 0.12800000607967377, 1.0240000486373901, 0.0, 0.0, 0.0, 0.0, 0.0, 1.651836793062E9, 0.0, 2022-05-06 12:33:13.062
26.0, -232.49275069544092, -126.34130030311644, -143.65142724802718, -172.05596741149202, 0.12800000607967377, 0.12800000607967377, 1.0240000486373901, 0.0, 0.0, 0.0, 0.0, 0.0, 1.651836793062E9, 0.0, 2022-05-06 12:33:13.062
27.0, -295.96633274341, -251.27639822289348, -229.85238132672384, -217.0881027779542, 0.12800000607967377, 0.12800000607967377, 1.0240000486373901, 0.0, 0.0, 0.0, 0.0, 0.0, 1.65183679306288E9, 0.0, 2022-05-06 12:33:13.062
27.0, -293.8532892684452, -199.67325863428414, -222.5333971134387, -204.3761828285642, 0.12800000607967377, 0.12800000607967377, 1.0240000486373901, 0.0, 0.0, 0.0, 0.0, 0.0, 1.65183679306288E9, 0.0, 2022-05-06 12:33:13.062
28.0, -228.3826006441377, -62.04494026489556, -136.16414753673598, -152.29059614567086, 0.12800000607967377, 0.12800000607967377, 1.0240000486373901, 0.0, 0.0, 0.0, 0.0, 0.0, 1.651836793075924E9, 0.0, 2022-05-06 12:33:13.075
28.0, -213.09388962527737, -108.57677551358938, -135.44234684528783, -149.40713327983394, 0.12800000607967377, 0.12800000607967377, 1.0240000486373901, 0.0, 0.0, 0.0, 0.0, 0.0, 1.651836793075924E9, 0.0, 2022-05-06 12:33:13.075
29.0, -287.14016884798184, -241.3768830401823, -226.44533246709034, -217.8660019687377, 0.12800000607967377, 0.12800000607967377, 1.0240000486373901, 0.0, 0.0, 0.0, 0.0, 0.0, 1.6518367930919302E9, 0.0, 2022-05-06 12:33:13.091
29.0, -284.3726428807713, -190.17017284687608, -214.14854141278192, -200.76343947136775, 0.12800000607967377, 0.12800000607967377, 1.0240000486373901, 0.0, 0.0, 0.0, 0.0, 0.0, 1.6518367930919302E9, 0.0, 2022-05-06 12:33:13.091
30.0, -215.96239289129153, -57.2129895221442, -122.62570969713852, -146.96123870881274, 0.12800000607967377, 0.12800000607967377, 1.0240000486373901, 0.0, 0.0, 0.0, 0.0, 0.0, 1.6518367930928636E9, 0.0, 2022-05-06 12:33:13.092
30.0, -220.50263143749908, -116.1687724236399, -139.9003075924702, -152.9787377375178, 0.12800000607967377, 0.12800000607967377, 1.0240000486373901, 0.0, 0.0, 0.0, 0.0, 0.0, 1.6518367930928636E9, 0.0, 2022-05-06 12:33:13.092
31.0, -290.50233890814707, -253.17626740038395, -242.81113467318937, -220.6410077358596, 0.12800000607967377, 0.12800000607967377, 1.0240000486373901, 0.0, 0.0, 0.0, 0.0, 0.0, 1.6518367931059427E9, 0.0, 2022-05-06 12:33:13.105
31.0, -302.06610957114026, -208.88837212510407, -234.81522856792435, -225.050349783618, 0.12800000607967377, 0.12800000607967377, 1.0240000486373901, 0.0, 0.0, 0.0, 0.0, 0.0, 1.6518367931059427E9, 0.0, 2022-05-06 12:33:13.105
32.0, -220.3044167398475, -53.15145817026496, -122.91742189368233, -152.15595974726602, 0.12800000607967377, 0.12800000607967377, 1.0240000486373901, 0.0, 0.0, 0.0, 0.0, 0.0, 1.6518367931220243E9, 0.0, 2022-05-06 12:33:13.122
32.0, -208.2993378820829, -101.76641769427806, -126.17113485513255, -154.10070772422478, 0.12800000607967377, 0.12800000607967377, 1.0240000486373901, 0.0, 0.0, 0.0, 0.0, 0.0, 1.6518367931220243E9, 0.0, 2022-05-06 12:33:13.122
33.0, -290.2592454110272, -247.59259676653892, -226.1984990700148, -209.51854526763782, 0.12800000607967377, 0.12800000607967377, 1.0240000486373901, 0.0, 0.0, 0.0, 0.0, 0.0, 1.6518367931229029E9, 0.0, 2022-05-06 12:33:13.122
33.0, -306.0117040243931, -206.25174265634269, -237.4256787369959, -219.09642905415967, 0.12800000607967377, 0.12800000607967377, 1.0240000486373901, 0.0, 0.0, 0.0, 0.0, 0.0, 1.6518367931229029E9, 0.0, 2022-05-06 12:33:13.122
34.0, -214.46643290901557, -52.74380907509476, -120.64730262057856, -138.47166580939665, 0.12800000607967377, 0.12800000607967377, 1.0240000486373901, 0.0, 0.0, 0.0, 0.0, 0.0, 1.6518367931359348E9, 0.0, 2022-05-06 12:33:13.135
34.0, -219.8593686451204, -119.02605598978698, -145.22966502932832, -167.26889546820894, 0.12800000607967377, 0.12800000607967377, 1.0240000486373901, 0.0, 0.0, 0.0, 0.0, 0.0, 1.6518367931359348E9, 0.0, 2022-05-06 12:33:13.135
35.0, -291.456013396848, -245.10556329600513, -227.06989575969055, -215.58840289572254, 0.12800000607967377, 0.12800000607967377, 1.0240000486373901, 0.0, 0.0, 0.0, 0.0, 0.0, 1.6518367931519687E9, 0.0, 2022-05-06 12:33:13.151
35.0, -292.7200995818712, -194.04470920097083, -229.78132322756574, -217.77624436980113, 0.12800000607967377, 0.12800000607967377, 1.0240000486373901, 0.0, 0.0, 0.0, 0.0, 0.0, 1.6518367931519687E9, 0.0, 2022-05-06 12:33:13.151
36.0, -215.39392809802666, -55.62353204097599, -123.07075779186562, -148.65541338874027, 0.12800000607967377, 0.12800000607967377, 1.0240000486373901, 0.0, 0.0, 0.0, 0.0, 0.0, 1.651836793152901E9, 0.0, 2022-05-06 12:33:13.152
36.0, -216.62809508340433, -109.52297020237893, -130.06811060896143, -145.7495111231692, 0.12800000607967377, 0.12800000607967377, 1.0240000486373901, 0.0, 0.0, 0.0, 0.0, 0.0, 1.651836793152901E9, 0.0, 2022-05-06 12:33:13.152
37.0, -271.772919930052, -237.9623543806374, -219.4143205503933, -200.3034317768179, 0.12800000607967377, 0.12800000607967377, 1.0240000486373901, 0.0, 0.0, 0.0, 0.0, 0.0, 1.6518367931659355E9, 0.0, 2022-05-06 12:33:13.165
37.0, -284.5222388789989, -190.2711501456797, -227.3840473559685, -215.81653679301962, 0.12800000607967377, 0.12800000607967377, 1.0240000486373901, 0.0, 0.0, 0.0, 0.0, 0.0, 1.6518367931659355E9, 0.0, 2022-05-06 12:33:13.165
38.0, -221.06361643085256, -58.26016150973737, -132.44294708082452, -152.21205824660137, 0.12800000607967377, 0.12800000607967377, 1.0240000486373901, 0.0, 0.0, 0.0, 0.0, 0.0, 1.6518367931819727E9, 0.0, 2022-05-06 12:33:13.181
38.0, -227.11103465920314, -115.82844152767211, -136.92708712769672, -158.88777966750786, 0.12800000607967377, 0.12800000607967377, 1.0240000486373901, 0.0, 0.0, 0.0, 0.0, 0.0, 1.6518367931819727E9, 0.0, 2022-05-06 12:33:13.181
39.0, -296.4226005380042, -247.33454366959631, -223.88724089739844, -209.64944176608697, 0.12800000607967377, 0.12800000607967377, 1.0240000486373901, 0.0, 0.0, 0.0, 0.0, 0.0, 1.6518367931829543E9, 0.0, 2022-05-06 12:33:13.182
39.0, -280.0455786320381, -184.7547977110371, -213.35194272221997, -195.05261223902926, 0.12800000607967377, 0.12800000607967377, 1.0240000486373901, 0.0, 0.0, 0.0, 0.0, 0.0, 1.6518367931829543E9, 0.0, 2022-05-06 12:33:13.182
40.0, -206.59020360233262, -51.55452088918537, -125.68868776084855, -155.44333180831745, 0.12800000607967377, 0.12800000607967377, 1.0240000486373901, 0.0, 0.0, 0.0, 0.0, 0.0, 1.6518367931959293E9, 0.0, 2022-05-06 12:33:13.195
40.0, -222.24916471680626, -122.76595594547689, -146.6396073126234, -169.83446683781222, 0.12800000607967377, 0.12800000607967377, 1.0240000486373901, 0.0, 0.0, 0.0, 0.0, 0.0, 1.6518367931959293E9, 0.0, 2022-05-06 12:33:13.195
41.0, -290.91372790327296, -243.92375491000712, -234.14952637581155, -224.9044936853461, 0.12800000607967377, 0.12800000607967377, 1.0240000486373901, 0.0, 0.0, 0.0, 0.0, 0.0, 1.6518367932119355E9, 0.0, 2022-05-06 12:33:13.211
41.0, -292.40220808563754, -193.99235060159117, -225.1662866822444, -211.75500544114038, 0.12800000607967377, 0.12800000607967377, 1.0240000486373901, 0.0, 0.0, 0.0, 0.0, 0.0, 1.6518367932119355E9, 0.0, 2022-05-06 12:33:13.211
42.0, -224.68757948791608, -59.85709879081696, -125.6699882610701, -142.2340051648207, 0.12800000607967377, 0.12800000607967377, 1.0240000486373901, 0.0, 0.0, 0.0, 0.0, 0.0, 1.6518367932128856E9, 0.0, 2022-05-06 12:33:13.212
42.0, -233.62968028197065, -131.2106500454247, -157.32450148602948, -185.05211975751445, 0.12800000607967377, 0.12800000607967377, 1.0240000486373901, 0.0, 0.0, 0.0, 0.0, 0.0, 1.6518367932128856E9, 0.0, 2022-05-06 12:33:13.212
43.0, -296.62081523565575, -251.788764516823, -234.41131937270984, -230.091734923888, 0.12800000607967377, 0.12800000607967377, 1.0240000486373901, 0.0, 0.0, 0.0, 0.0, 0.0, 1.6518367932429929E9, 0.0, 2022-05-06 12:33:13.242
43.0, -285.32257746951655, -188.00477077253163, -216.51589808473364, -208.4489338803105, 0.12800000607967377, 0.12800000607967377, 1.0240000486373901, 0.0, 0.0, 0.0, 0.0, 0.0, 1.6518367932429929E9, 0.0, 2022-05-06 12:33:13.242
44.0, -216.36256218655035, -55.53003454208374, -123.84491708269343, -145.74203132325783, 0.12800000607967377, 0.12800000607967377, 1.0240000486373901, 0.0, 0.0, 0.0, 0.0, 0.0, 1.651836793243933E9, 0.0, 2022-05-06 12:33:13.243
44.0, -222.59697541268542, -119.34394748602062, -140.96617907984182, -156.36708709737286, 0.12800000607967377, 0.12800000607967377, 1.0240000486373901, 0.0, 0.0, 0.0, 0.0, 0.0, 1.651836793243933E9, 0.0, 2022-05-06 12:33:13.243
45.0, -290.7790915048681, -251.54941091965884, -230.25629052193835, -215.57718319585547, 0.12800000607967377, 0.12800000607967377, 1.0240000486373901, 0.0, 0.0, 0.0, 0.0, 0.0, 1.6518367932448769E9, 0.0, 2022-05-06 12:33:13.244
45.0, -277.69318155990914, -188.03842987213284, -214.27943791123107, -201.61613666126505, 0.12800000607967377, 0.12800000607967377, 1.0240000486373901, 0.0, 0.0, 0.0, 0.0, 0.0, 1.6518367932448769E9, 0.0, 2022-05-06 12:33:13.244
46.0, -205.30741791753098, -54.87181214988232, -121.80667160684243, -141.8974141688086, 0.12800000607967377, 0.12800000607967377, 1.0240000486373901, 0.0, 0.0, 0.0, 0.0, 0.0, 1.6518367932559688E9, 0.0, 2022-05-06 12:33:13.255
46.0, -233.44642518414184, -122.21619065199047, -143.1241013542749, -165.6495187873952, 0.12800000607967377, 0.12800000607967377, 1.0240000486373901, 0.0, 0.0, 0.0, 0.0, 0.0, 1.6518367932559688E9, 0.0, 2022-05-06 12:33:13.255
47.0, -285.5619310666807, -244.3426237050444, -222.80640981020406, -209.6045629666187, 0.12800000607967377, 0.12800000607967377, 1.0240000486373901, 0.0, 0.0, 0.0, 0.0, 0.0, 1.6518367932719412E9, 0.0, 2022-05-06 12:33:13.271
47.0, -272.58073832048103, -169.31275079399347, -200.2996918768622, -188.0328200221993, 0.12800000607967377, 0.12800000607967377, 1.0240000486373901, 0.0, 0.0, 0.0, 0.0, 0.0, 1.6518367932719412E9, 0.0, 2022-05-06 12:33:13.271
48.0, -205.25505931815132, -43.0948671894148, -110.80388593720272, -128.05978433275595, 0.12800000607967377, 0.12800000607967377, 1.0240000486373901, 0.0, 0.0, 0.0, 0.0, 0.0, 1.6518367932729075E9, 0.0, 2022-05-06 12:33:13.272
48.0, -225.6038549770601, -127.02944189496338, -140.02372429100797, -170.3580528316088, 0.12800000607967377, 0.12800000607967377, 1.0240000486373901, 0.0, 0.0, 0.0, 0.0, 0.0, 1.6518367932729075E9, 0.0, 2022-05-06 12:33:13.272
49.0, -304.48208494251594, -263.7190453754738, -256.9890954052098, -244.23977645626292, 0.12800000607967377, 0.12800000607967377, 1.0240000486373901, 0.0, 0.0, 0.0, 0.0, 0.0, 1.6518367932859926E9, 0.0, 2022-05-06 12:33:13.285
49.0, -288.98767942609265, -195.9819773780182, -222.54087691335008, -219.7172524468042, 0.12800000607967377, 0.12800000607967377, 1.0240000486373901, 0.0, 0.0, 0.0, 0.0, 0.0, 1.6518367932859926E9, 0.0, 2022-05-06 12:33:13.285
50.0, -214.64594810688868, -59.378391596488655, -125.43811446381733, -152.06620214832947, 0.12800000607967377, 0.12800000607967377, 1.008000047877431, 0.0, 0.0, 0.0, 0.0, 0.0, 1.651836793301927E9, 0.0, 2022-05-06 12:33:13.301
50.0, -231.47549790749326, -120.08444767724723, -139.66095399530604, -158.6858250699006, 0.12800000607967377, 0.12800000607967377, 1.008000047877431, 0.0, 0.0, 0.0, 0.0, 0.0, 1.651836793301927E9, 0.0, 2022-05-06 12:33:13.301
51.0, -291.81130389263853, -248.57993035484105, -230.74995731608942, -224.2687106928788, 0.12800000607967377, 0.12800000607967377, 1.008000047877431, 0.0, 0.0, 0.0, 0.0, 0.0, 1.6518367933028848E9, 0.0, 2022-05-06 12:33:13.302
51.0, -279.226540541742, -182.36126173939556, -216.62809508340433, -211.048164349515, 0.12800000607967377, 0.12800000607967377, 1.008000047877431, 0.0, 0.0, 0.0, 0.0, 0.0, 1.6518367933028848E9, 0.0, 2022-05-06 12:33:13.302
52.0, -203.9311347338371, -50.76166209857911, -123.82247768295929, -152.99743723729625, 0.12800000607967377, 0.12800000607967377, 1.008000047877431, 0.0, 0.0, 0.0, 0.0, 0.0, 1.6518367933159456E9, 0.0, 2022-05-06 12:33:13.315
52.0, -226.4640319668688, -119.0185761898756, -145.1997458296828, -162.44068462541327, 0.12800000607967377, 0.12800000607967377, 1.008000047877431, 0.0, 0.0, 0.0, 0.0, 0.0, 1.6518367933159456E9, 0.0, 2022-05-06 12:33:13.315
53.0, -298.02701761899516, -253.47919929679483, -239.10489381710067, -226.00028437236324, 0.12800000607967377, 0.12800000607967377, 1.008000047877431, 0.0, 0.0, 0.0, 0.0, 0.0, 1.651836793331922E9, 0.0, 2022-05-06 12:33:13.331
53.0, -289.91143471514806, -191.52775653079152, -217.55933017237112, -211.69516704184934, 0.12800000607967377, 0.12800000607967377, 1.008000047877431, 0.0, 0.0, 0.0, 0.0, 0.0, 1.651836793331922E9, 0.0, 2022-05-06 12:33:13.331
54.0, -214.0812232135795, -60.22734888643026, -118.75865314295515, -147.1594534064643, 0.12800000607967377, 0.12800000607967377, 1.008000047877431, 0.0, 0.0, 0.0, 0.0, 0.0, 1.6518367933329053E9, 0.0, 2022-05-06 12:33:13.332
54.0, -216.87492848047987, -109.50801060255617, -130.87966889934614, -147.51848380221054, 0.12800000607967377, 0.12800000607967377, 1.008000047877431, 0.0, 0.0, 0.0, 0.0, 0.0, 1.6518367933329053E9, 0.0, 2022-05-06 12:33:13.332
55.0, -282.1249630074017, -240.17637515440583, -222.80266991024837, -199.90326248155907, 0.12800000607967377, 0.12800000607967377, 1.008000047877431, 0.0, 0.0, 0.0, 0.0, 0.0, 1.6518367933459303E9, 0.0, 2022-05-06 12:33:13.345
55.0, -271.881377028767, -177.8958211923018, -205.62530941376463, -190.55725249229, 0.12800000607967377, 0.12800000607967377, 1.008000047877431, 0.0, 0.0, 0.0, 0.0, 0.0, 1.6518367933459303E9, 0.0, 2022-05-06 12:33:13.345
56.0, -198.63917629653588, -41.613866806961596, -114.38671009475365, -132.91417447524145, 0.12800000607967377, 0.12800000607967377, 1.008000047877431, 0.0, 0.0, 0.0, 0.0, 0.0, 1.6518367933619256E9, 0.0, 2022-05-06 12:33:13.361
56.0, -218.6364213596098, -113.41994595620781, -137.48433222109452, -162.40328562585637, 0.12800000607967377, 0.12800000607967377, 1.008000047877431, 0.0, 0.0, 0.0, 0.0, 0.0, 1.6518367933619256E9, 0.0, 2022-05-06 12:33:13.361
57.0, -291.4485335969366, -252.21885301172733, -235.33133476180956, -226.389233967755, 0.12800000607967377, 0.12800000607967377, 1.008000047877431, 0.0, 0.0, 0.0, 0.0, 0.0, 1.651836793362878E9, 0.0, 2022-05-06 12:33:13.362
57.0, -291.407394697424, -196.17645217571408, -225.51409737812355, -211.60914934286848, 0.12800000607967377, 0.12800000607967377, 1.008000047877431, 0.0, 0.0, 0.0, 0.0, 0.0, 1.651836793362878E9, 0.0, 2022-05-06 12:33:13.362
58.0, -213.69227361818776, -58.578053005971014, -126.91911484627053, -145.2371448292397, 0.12800000607967377, 0.12800000607967377, 1.008000047877431, 0.0, 0.0, 0.0, 0.0, 0.0, 1.6518367933759315E9, 0.0, 2022-05-06 12:33:13.375
58.0, -220.11742174206302, -120.83990746829659, -139.24582510022447, -157.37686008540913, 0.12800000607967377, 0.12800000607967377, 1.008000047877431, 0.0, 0.0, 0.0, 0.0, 0.0, 1.6518367933759315E9, 0.0, 2022-05-06 12:33:13.375
59.0, -294.2048398642801, -251.8635625159368, -240.14084610482678, -217.98193886736408, 0.12800000607967377, 0.12800000607967377, 1.008000047877431, 0.0, 0.0, 0.0, 0.0, 0.0, 1.6518367933919244E9, 0.0, 2022-05-06 12:33:13.391
59.0, -297.0808229302056, -191.00791043695062, -225.21490538166836, -226.40045366762206, 0.12800000607967377, 0.12800000607967377, 1.008000047877431, 0.0, 0.0, 0.0, 0.0, 0.0, 1.6518367933919244E9, 0.0, 2022-05-06 12:33:13.391
60.0, -220.80556333390996, -63.61195834632963, -131.29479779442772, -167.3960520667024, 0.12800000607967377, 0.12800000607967377, 1.0240000486373901, 0.0, 0.0, 0.0, 0.0, 0.0, 1.651836793392902E9, 0.0, 2022-05-06 12:33:13.392
60.0, -229.5756287300028, -127.30993439164013, -152.85532103898004, -175.16756417462602, 0.12800000607967377, 0.12800000607967377, 1.0240000486373901, 0.0, 0.0, 0.0, 0.0, 0.0, 1.651836793392902E9, 0.0, 2022-05-06 12:33:13.392
61.0, -288.6772677297704, -252.17397421225905, -238.9104190194048, -221.5348438252695, 0.12800000607967377, 0.12800000607967377, 1.0240000486373901, 0.0, 0.0, 0.0, 0.0, 0.0, 1.651836793422972E9, 0.0, 2022-05-06 12:33:13.422
61.0, -284.35768328094855, -189.32495545689017, -220.65970723563805, -214.84416280454025, 0.12800000607967377, 0.12800000607967377, 1.0240000486373901, 0.0, 0.0, 0.0, 0.0, 0.0, 1.651836793422972E9, 0.0, 2022-05-06 12:33:13.422
62.0, -212.98543252656236, -53.297314268536866, -116.45487477025017, -144.47046533832327, 0.12800000607967377, 0.12800000607967377, 1.0240000486373901, 0.0, 0.0, 0.0, 0.0, 0.0, 1.6518367934238944E9, 0.0, 2022-05-06 12:33:13.423
62.0, -219.77335094613954, -124.2432164279744, -143.09792205458507, -162.56784122390673, 0.12800000607967377, 0.12800000607967377, 1.0240000486373901, 0.0, 0.0, 0.0, 0.0, 0.0, 1.6518367934238944E9, 0.0, 2022-05-06 12:33:13.423
63.0, -292.36480908608064, -251.42599422112107, -239.8042551088147, -220.24457834055647, 0.12800000607967377, 0.12800000607967377, 1.0240000486373901, 0.0, 0.0, 0.0, 0.0, 0.0, 1.651836793424877E9, 0.0, 2022-05-06 12:33:13.424
63.0, -285.0383450728841, -184.36958801560104, -213.3781220219098, -208.21706008305773, 0.12800000607967377, 0.12800000607967377, 1.0240000486373901, 0.0, 0.0, 0.0, 0.0, 0.0, 1.651836793424877E9, 0.0, 2022-05-06 12:33:13.424
