%OpenBCI Raw EEG Data
%Number of channels = 4
%Sample Rate = 200 Hz
%Board = OpenBCI_GUI$BoardGanglionBLE
Sample Index, EXG Channel 0, EXG Channel 1, EXG Channel 2, EXG Channel 3, Accel Channel 0, Accel Channel 1, Accel Channel 2, Other, Other, Other, Other, Other, Timestamp, Other, Timestamp (Formatted)
16.0, -16.276044607162476, -4.805771443061531, -23.153720625676215, -11.107502868399024, 0.0, 0.0, 0.0, 0.0, 0.0, 0.0, 0.0, 0.0, 1.651836816963843E9, 0.0, 2022-05-06 12:33:36.963
16.0, -204.1106499317102, 228.52284689247608, 221.00190808158368, 217.16851062700152, 0.0, 0.0, 0.0, 0.0, 0.0, 0.0, 0.0, 0.0, 1.651836816963843E9, 0.0, 2022-05-06 12:33:36.963
0.0, -214.54123090812936, -86.60112337395549, -125.6363291614689, -163.03345876839012, 0.0, 0.0, 0.0, 0.0, 0.0, 0.0, 0.0, 0.0, 1.6518368169888306E9, 0.0, 2022-05-06 12:33:36.988
1.0, -290.16948781209067, -228.15259679686278, -214.44773340923712, -212.3963982835412, 0.0, 0.12800000607967377, 0.0, 0.0, 0.0, 0.0, 0.0, 0.0, 1.651836817001827E9, 0.0, 2022-05-06 12:33:37.001
1.0, -310.6417001695372, -243.2318734182045, -258.89644438261166, -229.08757178578526, 0.0, 0.12800000607967377, 0.0, 0.0, 0.0, 0.0, 0.0, 0.0, 1.651836817001827E9, 0.0, 2022-05-06 12:33:37.001
2.0, -245.59362024022266, -105.4950979501009, -163.1662252168171, -183.25135792884976, 0.12800000607967377, 0.12800000607967377, 0.0, 0.0, 0.0, 0.0, 0.0, 0.0, 1.6518368170188208E9, 0.0, 2022-05-06 12:33:37.018
2.0, -226.73330476367846, -89.73889943677932, -130.8908885992132, -159.06168501544744, 0.12800000607967377, 0.12800000607967377, 0.0, 0.0, 0.0, 0.0, 0.0, 0.0, 1.6518368170188208E9, 0.0, 2022-05-06 12:33:37.018
3.0, -279.3424774403684, -216.8431393308565, -208.84910317556933, -208.2151901330799, 0.12800000607967377, 0.12800000607967377, 0.0, 0.0, 0.0, 0.0, 0.0, 0.0, 1.6518368170198207E9, 0.0, 2022-05-06 12:33:37.019
3.0, -306.8008229150437, -238.83375107031316, -247.6954440153204, -225.08587883319706, 0.12800000607967377, 0.12800000607967377, 0.0, 0.0, 0.0, 0.0, 0.0, 0.0, 1.6518368170198207E9, 0.0, 2022-05-06 12:33:37.019
4.0, -243.81716776126996, -100.80152350571007, -159.6133202589117, -166.7845784239471, 0.12800000607967377, 0.12800000607967377, 0.0, 0.0, 0.0, 0.0, 0.0, 0.0, 1.651836817031945E9, 0.0, 2022-05-06 12:33:37.031
4.0, -213.61373571911827, -76.91852238867432, -116.45113487029448, -134.958029801026, 0.12800000607967377, 0.12800000607967377, 0.0, 0.0, 0.0, 0.0, 0.0, 0.0, 1.651836817031945E9, 0.0, 2022-05-06 12:33:37.031
5.0, -278.20180795388296, -209.18008432164788, -205.50189271522686, -203.618853087537, 0.12800000607967377, 0.12800000607967377, 0.0, 0.0, 0.0, 0.0, 0.0, 0.0, 1.651836817046874E9, 0.0, 2022-05-06 12:33:37.046
5.0, -310.6828390690498, -233.21268143691123, -255.4744359231554, -246.0442781848833, 0.12800000607967377, 0.12800000607967377, 0.0, 0.0, 0.0, 0.0, 0.0, 0.0, 1.651836817046874E9, 0.0, 2022-05-06 12:33:37.046
6.0, -248.55562100512907, -104.61248156055808, -156.67749879369512, -180.57732946053147, 0.12800000607967377, 0.12800000607967377, 0.0, 0.0, 0.0, 0.0, 0.0, 0.0, 1.651836817047948E9, 0.0, 2022-05-06 12:33:37.047
6.0, -214.20090001216158, -88.81140424776822, -129.39118871698156, -159.13274311460555, 0.12800000607967377, 0.12800000607967377, 0.0, 0.0, 0.0, 0.0, 0.0, 0.0, 1.651836817047948E9, 0.0, 2022-05-06 12:33:37.047
7.0, -281.17876831861213, -218.50365491118282, -212.51420513214543, -209.57277381699532, 0.12800000607967377, 0.12800000607967377, 0.0, 0.0, 0.0, 0.0, 0.0, 0.0, 1.651836817077871E9, 0.0, 2022-05-06 12:33:37.077
7.0, -312.07408185256645, -245.49825279135257, -248.23398960893974, -236.42525549884886, 0.12800000607967377, 0.12800000607967377, 0.0, 0.0, 0.0, 0.0, 0.0, 0.0, 1.651836817077871E9, 0.0, 2022-05-06 12:33:37.077
8.0, -257.2209692024626, -108.04570971988142, -160.98960344260558, -182.0845091426745, 0.12800000607967377, 0.12800000607967377, 0.0, 0.0, 0.0, 0.0, 0.0, 0.0, 1.6518368170788827E9, 0.0, 2022-05-06 12:33:37.078
8.0, -215.62954179523513, -84.57409759797156, -124.94444766966626, -155.68829525541514, 0.12800000607967377, 0.12800000607967377, 0.0, 0.0, 0.0, 0.0, 0.0, 0.0, 1.6518368170788827E9, 0.0, 2022-05-06 12:33:37.078
9.0, -260.9870484578423, -209.09406662266701, -202.13224285515025, -196.52426287159324, 0.12800000607967377, 0.12800000607967377, 0.0, 0.0, 0.0, 0.0, 0.0, 0.0, 1.6518368170798368E9, 0.0, 2022-05-06 12:33:37.079
9.0, -305.8284489265643, -229.19976878445596, -242.7999149733223, -220.22774879075587, 0.12800000607967377, 0.12800000607967377, 0.0, 0.0, 0.0, 0.0, 0.0, 0.0, 1.6518368170798368E9, 0.0, 2022-05-06 12:33:37.079
10.0, -250.37321238359436, -98.81563662923872, -148.14678699476644, -152.15782969724387, 0.12800000607967377, 0.12800000607967377, 0.5120000243186951, 0.0, 0.0, 0.0, 0.0, 0.0, 1.6518368170918732E9, 0.0, 2022-05-06 12:33:37.091
10.0, -208.7817849763669, -75.62451700400561, -118.12287015048787, -157.80881853029132, 0.12800000607967377, 0.12800000607967377, 0.5120000243186951, 0.0, 0.0, 0.0, 0.0, 0.0, 1.6518368170918732E9, 0.0, 2022-05-06 12:33:37.091
11.0, -276.32437817612663, -212.5459942817688, -207.25964569440112, -202.27248910348862, 0.12800000607967377, 0.06400000303983688, 0.5120000243186951, 0.0, 0.0, 0.0, 0.0, 0.0, 1.6518368171068883E9, 0.0, 2022-05-06 12:33:37.106
11.0, -307.44408570742235, -227.79730630107224, -238.4691108246334, -213.05462067574263, 0.12800000607967377, 0.06400000303983688, 0.5120000243186951, 0.0, 0.0, 0.0, 0.0, 0.0, 1.6518368171068883E9, 0.0, 2022-05-06 12:33:37.106
12.0, -245.9489107360132, -94.6007693791762, -163.64119251118973, -177.3759750984609, 0.09600000455975533, 0.06400000303983688, 0.5120000243186951, 0.0, 0.0, 0.0, 0.0, 0.0, 1.6518368171078222E9, 0.0, 2022-05-06 12:33:37.107
12.0, -215.29669069917873, -87.19950736686587, -125.64754886133596, -152.41214289423078, 0.09600000455975533, 0.06400000303983688, 0.5120000243186951, 0.0, 0.0, 0.0, 0.0, 0.0, 1.6518368171078222E9, 0.0, 2022-05-06 12:33:37.107
13.0, -266.91104998765513, -208.97812972404063, -190.87514398852363, -165.46065383963287, 0.09600000455975533, 0.06400000303983688, 0.5120000243186951, 0.0, 0.0, 0.0, 0.0, 0.0, 1.651836817121898E9, 0.0, 2022-05-06 12:33:37.121
13.0, -307.9826313010417, -232.27396654803306, -255.7287491201423, -234.21497462503612, 0.09600000455975533, 0.06400000303983688, 0.5120000243186951, 0.0, 0.0, 0.0, 0.0, 0.0, 1.651836817121898E9, 0.0, 2022-05-06 12:33:37.121
14.0, -247.4373909183778, -97.25235844776034, -148.74517098767683, -183.96567882038653, 0.09600000455975533, 0.06400000303983688, 0.5120000243186951, 0.0, 0.0, 0.0, 0.0, 0.0, 1.6518368171368744E9, 0.0, 2022-05-06 12:33:37.136
14.0, -212.01679843803868, -94.09962278511375, -129.18175431946293, -156.90750264097005, 0.09600000455975533, 0.06400000303983688, 0.5120000243186951, 0.0, 0.0, 0.0, 0.0, 0.0, 1.6518368171368744E9, 0.0, 2022-05-06 12:33:37.136
15.0, -294.28711766330525, -244.80263139959425, -239.3966060136445, -228.09275839757174, 0.09600000455975533, 0.06400000303983688, 0.5120000243186951, 0.0, 0.0, 0.0, 0.0, 0.0, 1.6518368171378336E9, 0.0, 2022-05-06 12:33:37.137
15.0, -319.1649321685545, -235.12377031426877, -248.63789880415425, -239.4882335625589, 0.09600000455975533, 0.06400000303983688, 0.5120000243186951, 0.0, 0.0, 0.0, 0.0, 0.0, 1.6518368171378336E9, 0.0, 2022-05-06 12:33:37.137
16.0, -242.54934167629108, -81.32412453647703, -147.98597129667178, -166.3806692287326, 0.09600000455975533, 0.06400000303983688, 0.5120000243186951, 0.0, 0.0, 0.0, 0.0, 0.0, 1.65183681715194E9, 0.0, 2022-05-06 12:33:37.151
16.0, -220.76442443439737, -90.75989212468266, -128.10466313222423, -157.19921483751386, 0.09600000455975533, 0.06400000303983688, 0.5120000243186951, 0.0, 0.0, 0.0, 0.0, 0.0, 1.65183681715194E9, 0.0, 2022-05-06 12:33:37.151
17.0, -288.2583989347331, -236.31305850017816, -221.98737171990797, -217.98380881734192, 0.09600000455975533, 0.06400000303983688, 0.5120000243186951, 0.0, 0.0, 0.0, 0.0, 0.0, 1.651836817166866E9, 0.0, 2022-05-06 12:33:37.166
17.0, -291.2764981989749, -212.6207922808826, -225.9367060731165, -202.63899929914623, 0.09600000455975533, 0.06400000303983688, 0.5120000243186951, 0.0, 0.0, 0.0, 0.0, 0.0, 1.651836817166866E9, 0.0, 2022-05-06 12:33:37.166
18.0, -220.31563643971458, -67.05266630556434, -135.35632914630696, -150.4000767180696, 0.09600000455975533, 0.06400000303983688, 0.5120000243186951, 0.0, 0.0, 0.0, 0.0, 0.0, 1.6518368171678236E9, 0.0, 2022-05-06 12:33:37.167
18.0, -226.72582496376708, -102.53683708515018, -143.73370504705235, -168.01500550936908, 0.09600000455975533, 0.06400000303983688, 0.5120000243186951, 0.0, 0.0, 0.0, 0.0, 0.0, 1.6518368171678236E9, 0.0, 2022-05-06 12:33:37.167
19.0, -294.66484755882993, -252.9743128027767, -240.3203613026999, -224.9213232351467, 0.09600000455975533, 0.06400000303983688, 0.5120000243186951, 0.0, 0.0, 0.0, 0.0, 0.0, 1.6518368171819549E9, 0.0, 2022-05-06 12:33:37.181
19.0, -292.98937237868086, -204.7969215735793, -223.34121550386772, -202.48566340096295, 0.09600000455975533, 0.06400000303983688, 0.5120000243186951, 0.0, 0.0, 0.0, 0.0, 0.0, 1.6518368171819549E9, 0.0, 2022-05-06 12:33:37.181
20.0, -203.88625593436882, -44.28415537532419, -113.54897250467911, -135.6237319931388, 0.09600000455975533, 0.06400000303983688, 0.7680000364780426, 0.0, 0.0, 0.0, 0.0, 0.0, 1.6518368171968734E9, 0.0, 2022-05-06 12:33:37.196
20.0, -202.2668792535551, -83.60920340940356, -112.9618082116358, -135.2160828979686, 0.09600000455975533, 0.06400000303983688, 0.7680000364780426, 0.0, 0.0, 0.0, 0.0, 0.0, 1.6518368171968734E9, 0.0, 2022-05-06 12:33:37.196
21.0, -302.02871057158336, -261.1684336056933, -240.9860634948127, -229.85799117665738, 0.09600000455975533, 0.09600000455975533, 0.7680000364780426, 0.0, 0.0, 0.0, 0.0, 0.0, 1.6518368171978304E9, 0.0, 2022-05-06 12:33:37.197
21.0, -305.3198225325905, -217.01517472881824, -234.1308268760331, -214.98440905287862, 0.09600000455975533, 0.09600000455975533, 0.7680000364780426, 0.0, 0.0, 0.0, 0.0, 0.0, 1.6518368171978304E9, 0.0, 2022-05-06 12:33:37.197
22.0, -227.55234285397455, -67.0302269058302, -142.43969966238365, -161.84043068252504, 0.11200000531971455, 0.09600000455975533, 0.7680000364780426, 0.0, 0.0, 0.0, 0.0, 0.0, 1.6518368172118993E9, 0.0, 2022-05-06 12:33:37.211
22.0, -228.91740633780137, -113.02351656090468, -147.7914964989759, -168.84152339957654, 0.11200000531971455, 0.09600000455975533, 0.7680000364780426, 0.0, 0.0, 0.0, 0.0, 0.0, 1.6518368172118993E9, 0.0, 2022-05-06 12:33:37.211
23.0, -300.66364708775654, -250.86874912772328, -239.0562751176767, -220.08937249239534, 0.11200000531971455, 0.09600000455975533, 0.7680000364780426, 0.0, 0.0, 0.0, 0.0, 0.0, 1.6518368172268949E9, 0.0, 2022-05-06 12:33:37.226
23.0, -312.2311576507054, -225.29905313067138, -250.36573258368298, -239.24887996539474, 0.11200000531971455, 0.09600000455975533, 0.7680000364780426, 0.0, 0.0, 0.0, 0.0, 0.0, 1.6518368172268949E9, 0.0, 2022-05-06 12:33:37.226
24.0, -228.54341634223238, -68.5860252873972, -133.77061156509444, -158.64655612036586, 0.11200000531971455, 0.09600000455975533, 0.7680000364780426, 0.0, 0.0, 0.0, 0.0, 0.0, 1.6518368172278292E9, 0.0, 2022-05-06 12:33:37.227
24.0, -212.50298543227836, -104.492804761976, -139.3430624990724, -169.7054402893409, 0.11200000531971455, 0.09600000455975533, 0.7680000364780426, 0.0, 0.0, 0.0, 0.0, 0.0, 1.6518368172278292E9, 0.0, 2022-05-06 12:33:37.227
25.0, -303.0235239597969, -252.20015351194888, -233.59976108232513, -224.76424743700773, 0.11200000531971455, 0.09600000455975533, 0.7680000364780426, 0.0, 0.0, 0.0, 0.0, 0.0, 1.651836817241892E9, 0.0, 2022-05-06 12:33:37.241
25.0, -308.6371137932874, -219.00854140520096, -240.55971489986405, -214.16163106262684, 0.11200000531971455, 0.09600000455975533, 0.7680000364780426, 0.0, 0.0, 0.0, 0.0, 0.0, 1.651836817241892E9, 0.0, 2022-05-06 12:33:37.241
26.0, -222.98218510812148, -55.94142353720963, -134.97859925078228, -152.12791049759835, 0.11200000531971455, 0.09600000455975533, 0.7680000364780426, 0.0, 0.0, 0.0, 0.0, 0.0, 1.6518368172569036E9, 0.0, 2022-05-06 12:33:37.256
26.0, -214.54497080808505, -102.16658698953688, -132.39058848144487, -162.35279697645456, 0.11200000531971455, 0.09600000455975533, 0.7680000364780426, 0.0, 0.0, 0.0, 0.0, 0.0, 1.6518368172569036E9, 0.0, 2022-05-06 12:33:37.256
27.0, -298.6740203113295, -254.84800268057734, -231.78964950377122, -217.81925321929157, 0.11200000531971455, 0.09600000455975533, 0.7680000364780426, 0.0, 0.0, 0.0, 0.0, 0.0, 1.651836817257856E9, 0.0, 2022-05-06 12:33:37.257
27.0, -300.2298186928965, -212.4375371830538, -238.18487842800096, -223.17105005588382, 0.11200000531971455, 0.09600000455975533, 0.7680000364780426, 0.0, 0.0, 0.0, 0.0, 0.0, 1.651836817257856E9, 0.0, 2022-05-06 12:33:37.257
28.0, -216.17556718876585, -58.44341660756618, -126.01405905699357, -148.09255844540894, 0.11200000531971455, 0.09600000455975533, 0.7680000364780426, 0.0, 0.0, 0.0, 0.0, 0.0, 1.651836817271885E9, 0.0, 2022-05-06 12:33:37.271
28.0, -206.86321629909799, -95.35248927026987, -126.72837994853035, -148.28703324310482, 0.11200000531971455, 0.09600000455975533, 0.7680000364780426, 0.0, 0.0, 0.0, 0.0, 0.0, 1.651836817271885E9, 0.0, 2022-05-06 12:33:37.271
29.0, -301.8940741731785, -252.94065370317549, -236.688918445725, -227.13908390887082, 0.11200000531971455, 0.09600000455975533, 0.7680000364780426, 0.0, 0.0, 0.0, 0.0, 0.0, 1.6518368172868824E9, 0.0, 2022-05-06 12:33:37.286
29.0, -306.1912192222662, -208.3573063313961, -236.314928450156, -219.22545560263097, 0.11200000531971455, 0.09600000455975533, 0.7680000364780426, 0.0, 0.0, 0.0, 0.0, 0.0, 1.6518368172868824E9, 0.0, 2022-05-06 12:33:37.286
30.0, -216.7851708815433, -53.18511726986617, -124.43208137573674, -135.64243149291724, 0.11200000531971455, 0.09600000455975533, 0.8960000425577164, 0.0, 0.0, 0.0, 0.0, 0.0, 1.6518368172878695E9, 0.0, 2022-05-06 12:33:37.287
30.0, -213.1537280245684, -96.28746425919235, -127.46140033984557, -140.94186973012984, 0.11200000531971455, 0.09600000455975533, 0.8960000425577164, 0.0, 0.0, 0.0, 0.0, 0.0, 1.6518368172878695E9, 0.0, 2022-05-06 12:33:37.287
31.0, -296.4188606380485, -251.72518621757627, -231.51289690705016, -208.05063453502953, 0.11200000531971455, 0.11200000531971455, 0.8960000425577164, 0.0, 0.0, 0.0, 0.0, 0.0, 1.6518368173178728E9, 0.0, 2022-05-06 12:33:37.317
31.0, -299.3771215029992, -214.6253786571324, -243.37211966654286, -234.5927045205608, 0.11200000531971455, 0.11200000531971455, 0.8960000425577164, 0.0, 0.0, 0.0, 0.0, 0.0, 1.6518368173178728E9, 0.0, 2022-05-06 12:33:37.317
32.0, -221.29923012806103, -63.95228924229741, -140.8951209806837, -164.70145414862782, 0.12800000607967377, 0.11200000531971455, 0.8960000425577164, 0.0, 0.0, 0.0, 0.0, 0.0, 1.6518368173188424E9, 0.0, 2022-05-06 12:33:37.318
32.0, -235.00970336562023, -124.33671392686665, -152.25319714611396, -184.36584811564535, 0.12800000607967377, 0.11200000531971455, 0.8960000425577164, 0.0, 0.0, 0.0, 0.0, 0.0, 1.6518368173188424E9, 0.0, 2022-05-06 12:33:37.318
33.0, -310.14803337538615, -265.0205305600539, -246.2069638329558, -243.05235822033137, 0.12800000607967377, 0.11200000531971455, 0.8960000425577164, 0.0, 0.0, 0.0, 0.0, 0.0, 1.651836817319838E9, 0.0, 2022-05-06 12:33:37.319
33.0, -306.21739852195606, -219.68920319713652, -244.08644055807963, -226.7763136131689, 0.12800000607967377, 0.11200000531971455, 0.8960000425577164, 0.0, 0.0, 0.0, 0.0, 0.0, 1.651836817319838E9, 0.0, 2022-05-06 12:33:37.319
34.0, -223.9022004972212, -67.14990370441228, -140.88764118077233, -162.19572117831558, 0.12800000607967377, 0.11200000531971455, 0.8960000425577164, 0.0, 0.0, 0.0, 0.0, 0.0, 1.6518368173318682E9, 0.0, 2022-05-06 12:33:37.331
34.0, -217.85104236891493, -101.55324339680374, -134.61956885503605, -154.110057474114, 0.12800000607967377, 0.11200000531971455, 0.8960000425577164, 0.0, 0.0, 0.0, 0.0, 0.0, 1.6518368173318682E9, 0.0, 2022-05-06 12:33:37.331
35.0, -292.9407536792569, -250.12824893649668, -236.30744865024462, -220.23522859066725, 0.12800000607967377, 0.11200000531971455, 0.8960000425577164, 0.0, 0.0, 0.0, 0.0, 0.0, 1.6518368173469007E9, 0.0, 2022-05-06 12:33:37.346
35.0, -298.5393839129247, -213.19299697410315, -240.29044210305437, -220.53442058712244, 0.12800000607967377, 0.11200000531971455, 0.8960000425577164, 0.0, 0.0, 0.0, 0.0, 0.0, 1.6518368173469007E9, 0.0, 2022-05-06 12:33:37.346
36.0, -213.27340482315049, -53.22625616937876, -119.21866083750501, -142.1386377159506, 0.12800000607967377, 0.11200000531971455, 0.8960000425577164, 0.0, 0.0, 0.0, 0.0, 0.0, 1.6518368173478668E9, 0.0, 2022-05-06 12:33:37.347
36.0, -202.3341974527575, -98.30327033530921, -126.73959964839742, -135.56389359384775, 0.12800000607967377, 0.11200000531971455, 0.8960000425577164, 0.0, 0.0, 0.0, 0.0, 0.0, 1.6518368173478668E9, 0.0, 2022-05-06 12:33:37.347
37.0, -290.65567480633035, -249.83279683999717, -233.8316348795779, -218.56723321042955, 0.12800000607967377, 0.11200000531971455, 0.8960000425577164, 0.0, 0.0, 0.0, 0.0, 0.0, 1.6518368173619237E9, 0.0, 2022-05-06 12:33:37.361
37.0, -299.0592300067656, -210.73962260317057, -242.59048057580367, -227.7748669013381, 0.12800000607967377, 0.11200000531971455, 0.8960000425577164, 0.0, 0.0, 0.0, 0.0, 0.0, 1.6518368173619237E9, 0.0, 2022-05-06 12:33:37.361
38.0, -216.18678688863292, -45.39490566216409, -122.45367429917678, -140.93812983017415, 0.12800000607967377, 0.11200000531971455, 0.8960000425577164, 0.0, 0.0, 0.0, 0.0, 0.0, 1.6518368173768911E9, 0.0, 2022-05-06 12:33:37.376
38.0, -221.0112578314729, -105.6783530479297, -137.7872641175054, -161.24578658957034, 0.12800000607967377, 0.11200000531971455, 0.8960000425577164, 0.0, 0.0, 0.0, 0.0, 0.0, 1.6518368173768911E9, 0.0, 2022-05-06 12:33:37.376
39.0, -293.06791027775034, -250.53589803166687, -230.66767951706424, -224.2144821435213, 0.12800000607967377, 0.11200000531971455, 0.8960000425577164, 0.0, 0.0, 0.0, 0.0, 0.0, 1.651836817377823E9, 0.0, 2022-05-06 12:33:37.377
39.0, -278.16814885428175, -205.62717936374247, -224.4220465910621, -195.56684848293662, 0.12800000607967377, 0.11200000531971455, 0.8960000425577164, 0.0, 0.0, 0.0, 0.0, 0.0, 1.651836817377823E9, 0.0, 2022-05-06 12:33:37.377
40.0, -219.33952255127952, -59.12407839950174, -133.36670236987993, -156.45123484637588, 0.12800000607967377, 0.11200000531971455, 0.944000044837594, 0.0, 0.0, 0.0, 0.0, 0.0, 1.6518368173918977E9, 0.0, 2022-05-06 12:33:37.391
40.0, -219.74343174649402, -102.58919568452984, -125.1127431676723, -153.95298167597502, 0.12800000607967377, 0.11200000531971455, 0.944000044837594, 0.0, 0.0, 0.0, 0.0, 0.0, 1.6518368173918977E9, 0.0, 2022-05-06 12:33:37.391
41.0, -294.88550165621564, -254.24213888775557, -236.27378955064341, -213.88487846590579, 0.12800000607967377, 0.12800000607967377, 0.944000044837594, 0.0, 0.0, 0.0, 0.0, 0.0, 1.6518368174068916E9, 0.0, 2022-05-06 12:33:37.406
41.0, -293.4232007735409, -204.21723708044738, -236.3111885502003, -216.74964183196425, 0.12800000607967377, 0.12800000607967377, 0.944000044837594, 0.0, 0.0, 0.0, 0.0, 0.0, 1.6518368174068916E9, 0.0, 2022-05-06 12:33:37.406
42.0, -210.90978805115446, -45.686617858707905, -119.31589823635295, -148.6647631386295, 0.12800000607967377, 0.12800000607967377, 0.944000044837594, 0.0, 0.0, 0.0, 0.0, 0.0, 1.65183681740782E9, 0.0, 2022-05-06 12:33:37.407
42.0, -219.1974063529633, -103.2324584769085, -136.16788743669167, -153.87070387694985, 0.12800000607967377, 0.12800000607967377, 0.944000044837594, 0.0, 0.0, 0.0, 0.0, 0.0, 1.65183681740782E9, 0.0, 2022-05-06 12:33:37.407
43.0, -299.2798841041513, -254.61612888332456, -250.07402038713917, -251.10436282493174, 0.12800000607967377, 0.12800000607967377, 0.944000044837594, 0.0, 0.0, 0.0, 0.0, 0.0, 1.651836817421886E9, 0.0, 2022-05-06 12:33:37.421
43.0, -296.4899187372066, -216.01288154069334, -244.4342512539588, -237.27047288883477, 0.12800000607967377, 0.12800000607967377, 0.944000044837594, 0.0, 0.0, 0.0, 0.0, 0.0, 1.651836817421886E9, 0.0, 2022-05-06 12:33:37.421
44.0, -237.6164136347361, -74.48758741747588, -145.65601362427697, -172.080276761204, 0.12800000607967377, 0.12800000607967377, 0.944000044837594, 0.0, 0.0, 0.0, 0.0, 0.0, 1.65183681743687E9, 0.0, 2022-05-06 12:33:37.436
44.0, -223.7563443989493, -108.11676781903952, -134.40265465760604, -160.68480159621686, 0.12800000607967377, 0.12800000607967377, 0.944000044837594, 0.0, 0.0, 0.0, 0.0, 0.0, 1.65183681743687E9, 0.0, 2022-05-06 12:33:37.436
45.0, -303.9360595489852, -261.2619311045855, -241.6854247865267, -227.57291230373085, 0.12800000607967377, 0.12800000607967377, 0.944000044837594, 0.0, 0.0, 0.0, 0.0, 0.0, 1.6518368174378347E9, 0.0, 2022-05-06 12:33:37.437
45.0, -294.7546051577665, -216.04280074033886, -234.867587167304, -213.47722937073559, 0.12800000607967377, 0.12800000607967377, 0.944000044837594, 0.0, 0.0, 0.0, 0.0, 0.0, 1.6518368174378347E9, 0.0, 2022-05-06 12:33:37.437
46.0, -211.72882614145055, -54.05651395954192, -127.25196594232693, -142.82677930779755, 0.12800000607967377, 0.12800000607967377, 0.944000044837594, 0.0, 0.0, 0.0, 0.0, 0.0, 1.6518368174519136E9, 0.0, 2022-05-06 12:33:37.451
46.0, -217.4172139740549, -102.61537498421967, -130.87966889934614, -154.1137973740697, 0.12800000607967377, 0.12800000607967377, 0.944000044837594, 0.0, 0.0, 0.0, 0.0, 0.0, 1.6518368174519136E9, 0.0, 2022-05-06 12:33:37.451
47.0, -292.2675716872327, -251.32875682227314, -232.96771798981354, -214.97318935301155, 0.12800000607967377, 0.12800000607967377, 0.944000044837594, 0.0, 0.0, 0.0, 0.0, 0.0, 1.6518368174668815E9, 0.0, 2022-05-06 12:33:37.466
47.0, -291.6355285947211, -204.23593658022583, -232.17859909916297, -211.56614049337804, 0.12800000607967377, 0.12800000607967377, 0.944000044837594, 0.0, 0.0, 0.0, 0.0, 0.0, 1.6518368174668815E9, 0.0, 2022-05-06 12:33:37.466
48.0, -201.69467456033453, -41.53532890789211, -116.84382436564192, -130.19339725747705, 0.12800000607967377, 0.12800000607967377, 0.944000044837594, 0.0, 0.0, 0.0, 0.0, 0.0, 1.6518368174678433E9, 0.0, 2022-05-06 12:33:37.467
48.0, -202.03126555634663, -94.48109258059412, -122.97352039301768, -141.7384684206918, 0.12800000607967377, 0.12800000607967377, 0.944000044837594, 0.0, 0.0, 0.0, 0.0, 0.0, 1.6518368174678433E9, 0.0, 2022-05-06 12:33:37.467
49.0, -287.1551284478046, -247.07275067269802, -227.48876455472782, -219.1020389040932, 0.12800000607967377, 0.12800000607967377, 0.944000044837594, 0.0, 0.0, 0.0, 0.0, 0.0, 1.6518368174818797E9, 0.0, 2022-05-06 12:33:37.481
49.0, -284.9747667736374, -205.87027286086231, -228.20682534622028, -207.6168061401695, 0.12800000607967377, 0.12800000607967377, 0.944000044837594, 0.0, 0.0, 0.0, 0.0, 0.0, 1.6518368174818797E9, 0.0, 2022-05-06 12:33:37.481
50.0, -222.73161181109026, -60.50410148315132, -130.71885320125148, -156.7429470429197, 0.12800000607967377, 0.12800000607967377, 0.9760000463575125, 0.0, 0.0, 0.0, 0.0, 0.0, 1.6518368174968817E9, 0.0, 2022-05-06 12:33:37.496
50.0, -222.70917241135612, -114.201585046947, -139.16728720115498, -163.0783375678584, 0.12800000607967377, 0.12800000607967377, 0.9760000463575125, 0.0, 0.0, 0.0, 0.0, 0.0, 1.6518368174968817E9, 0.0, 2022-05-06 12:33:37.496
51.0, -298.8722350089811, -255.9774524671957, -233.58854138245806, -208.22640983294696, 0.12800000607967377, 0.12800000607967377, 0.9760000463575125, 0.0, 0.0, 0.0, 0.0, 0.0, 1.6518368174978244E9, 0.0, 2022-05-06 12:33:37.497
51.0, -285.2365597705357, -204.98017667140812, -229.17545943474397, -218.89634440653026, 0.12800000607967377, 0.12800000607967377, 0.9760000463575125, 0.0, 0.0, 0.0, 0.0, 0.0, 1.6518368174978244E9, 0.0, 2022-05-06 12:33:37.497
52.0, -207.43542099231854, -51.337606691755354, -131.47805289225653, -154.09135797433555, 0.12800000607967377, 0.12800000607967377, 0.9760000463575125, 0.0, 0.0, 0.0, 0.0, 0.0, 1.6518368175118933E9, 0.0, 2022-05-06 12:33:37.511
52.0, -220.00522474339232, -108.03822991997004, -129.80257771210745, -155.0412925630808, 0.12800000607967377, 0.12800000607967377, 0.9760000463575125, 0.0, 0.0, 0.0, 0.0, 0.0, 1.6518368175118933E9, 0.0, 2022-05-06 12:33:37.511
53.0, -298.25889141624793, -256.9760057553649, -245.5038626412861, -232.1505498494953, 0.12800000607967377, 0.12800000607967377, 0.9760000463575125, 0.0, 0.0, 0.0, 0.0, 0.0, 1.6518368175268905E9, 0.0, 2022-05-06 12:33:37.526
53.0, -291.3737355978228, -210.75832210294902, -231.4642782076262, -226.61175801511854, 0.12800000607967377, 0.12800000607967377, 0.9760000463575125, 0.0, 0.0, 0.0, 0.0, 0.0, 1.6518368175268905E9, 0.0, 2022-05-06 12:33:37.526
54.0, -226.73330476367846, -55.25702184531838, -132.06147728534415, -150.2916196193546, 0.12800000607967377, 0.12800000607967377, 0.9760000463575125, 0.0, 0.0, 0.0, 0.0, 0.0, 1.651836817527835E9, 0.0, 2022-05-06 12:33:37.527
54.0, -220.1211616420187, -111.97260467335582, -138.2323122122325, -159.64510940853506, 0.12800000607967377, 0.12800000607967377, 0.9760000463575125, 0.0, 0.0, 0.0, 0.0, 0.0, 1.651836817527835E9, 0.0, 2022-05-06 12:33:37.527
55.0, -292.65278138266876, -253.89058829192072, -229.80750252725556, -207.429811142385, 0.12800000607967377, 0.12800000607967377, 0.9760000463575125, 0.0, 0.0, 0.0, 0.0, 0.0, 1.651836817541908E9, 0.0, 2022-05-06 12:33:37.541
55.0, -289.3429699218832, -208.66023822780699, -234.5347360712476, -215.50051524676383, 0.12800000607967377, 0.12800000607967377, 0.9760000463575125, 0.0, 0.0, 0.0, 0.0, 0.0, 1.651836817541908E9, 0.0, 2022-05-06 12:33:37.541
56.0, -214.77310470538214, -50.64198529999703, -129.0807770206593, -156.148302949965, 0.12800000607967377, 0.12800000607967377, 0.9760000463575125, 0.0, 0.0, 0.0, 0.0, 0.0, 1.6518368175568728E9, 0.0, 2022-05-06 12:33:37.556
56.0, -213.38934172177687, -100.12460161373019, -130.83852999983355, -155.49008055776358, 0.12800000607967377, 0.12800000607967377, 0.9760000463575125, 0.0, 0.0, 0.0, 0.0, 0.0, 1.6518368175568728E9, 0.0, 2022-05-06 12:33:37.556
57.0, -298.0195378190838, -253.7110730940476, -237.51917623588815, -217.76315471995622, 0.12800000607967377, 0.12800000607967377, 0.9760000463575125, 0.0, 0.0, 0.0, 0.0, 0.0, 1.651836817557858E9, 0.0, 2022-05-06 12:33:37.557
57.0, -293.65507457079366, -205.3167676674202, -234.74043056881055, -222.26973416656256, 0.12800000607967377, 0.12800000607967377, 0.9760000463575125, 0.0, 0.0, 0.0, 0.0, 0.0, 1.651836817557858E9, 0.0, 2022-05-06 12:33:37.557
58.0, -219.17870685318485, -60.38816458452493, -132.9702729745768, -160.04527870379388, 0.12800000607967377, 0.12800000607967377, 0.9760000463575125, 0.0, 0.0, 0.0, 0.0, 0.0, 1.6518368175719073E9, 0.0, 2022-05-06 12:33:37.571
58.0, -220.64848753577098, -114.95330493804067, -135.7153595420532, -153.76598667819053, 0.12800000607967377, 0.12800000607967377, 0.9760000463575125, 0.0, 0.0, 0.0, 0.0, 0.0, 1.6518368175719073E9, 0.0, 2022-05-06 12:33:37.571
59.0, -295.050057254266, -257.637968047522, -234.60205427045003, -219.91359719447792, 0.12800000607967377, 0.12800000607967377, 0.9760000463575125, 0.0, 0.0, 0.0, 0.0, 0.0, 1.6518368175868957E9, 0.0, 2022-05-06 12:33:37.586
59.0, -289.76183871692047, -204.45659067761153, -226.9016002616845, -209.59895311668515, 0.12800000607967377, 0.12800000607967377, 0.9760000463575125, 0.0, 0.0, 0.0, 0.0, 0.0, 1.6518368175868957E9, 0.0, 2022-05-06 12:33:37.586
60.0, -220.76442443439737, -64.51701413560659, -135.54332414409146, -146.08049226924777, 0.12800000607967377, 0.12800000607967377, 1.008000047877431, 0.0, 0.0, 0.0, 0.0, 0.0, 1.6518368175878532E9, 0.0, 2022-05-06 12:33:37.587
60.0, -216.13816818920895, -98.92409372795373, -131.96049998654053, -165.58033063821495, 0.12800000607967377, 0.12800000607967377, 1.008000047877431, 0.0, 0.0, 0.0, 0.0, 0.0, 1.6518368175878532E9, 0.0, 2022-05-06 12:33:37.587
61.0, -290.57713690726086, -238.27650597691536, -227.37656755605713, -219.59196579828858, 0.12800000607967377, 0.12800000607967377, 1.008000047877431, 0.0, 0.0, 0.0, 0.0, 0.0, 1.6518368176019428E9, 0.0, 2022-05-06 12:33:37.601
61.0, -292.7238394818269, -213.08827977534384, -227.91885304963216, -202.5380220003426, 0.12800000607967377, 0.12800000607967377, 1.008000047877431, 0.0, 0.0, 0.0, 0.0, 0.0, 1.6518368176019428E9, 0.0, 2022-05-06 12:33:37.601
62.0, -221.77045752247795, -72.4418621417135, -135.53584434418008, -157.1842552376911, 0.12800000607967377, 0.12800000607967377, 1.008000047877431, 0.0, 0.0, 0.0, 0.0, 0.0, 1.65183681761687E9, 0.0, 2022-05-06 12:33:37.616
62.0, -218.42698696209118, -106.07478244323283, -140.91382048046216, -168.83404359966516, 0.12800000607967377, 0.12800000607967377, 1.008000047877431, 0.0, 0.0, 0.0, 0.0, 0.0, 1.65183681761687E9, 0.0, 2022-05-06 12:33:37.616
63.0, -279.28263904107735, -242.97382032126188, -231.75225050421432, -228.15633669681847, 0.12800000607967377, 0.12800000607967377, 1.008000047877431, 0.0, 0.0, 0.0, 0.0, 0.0, 1.6518368176178243E9, 0.0, 2022-05-06 12:33:37.617
63.0, -306.62130771717057, -232.6329969437793, -247.9160981127061, -226.70899541396648, 0.12800000607967377, 0.12800000607967377, 1.008000047877431, 0.0, 0.0, 0.0, 0.0, 0.0, 1.6518368176178243E9, 0.0, 2022-05-06 12:33:37.617
64.0, -224.0480565954931, -76.47721419390291, -145.81308942241594, -157.72280083131045, 0.12800000607967377, 0.12800000607967377, 1.008000047877431, 0.0, 0.0, 0.0, 0.0, 0.0, 1.6518368176319149E9, 0.0, 2022-05-06 12:33:37.631
64.0, -208.64340867800638, -96.17526726052165, -127.99246613355353, -151.02837991062552, 0.12800000607967377, 0.12800000607967377, 1.008000047877431, 0.0, 0.0, 0.0, 0.0, 0.0, 1.6518368176319149E9, 0.0, 2022-05-06 12:33:37.631
65.0, -276.42161557497457, -224.218222043477, -212.3459096341394, -197.7247707573697, 0.12800000607967377, 0.12800000607967377, 1.008000047877431, 0.0, 0.0, 0.0, 0.0, 0.0, 1.6518368176468687E9, 0.0, 2022-05-06 12:33:37.646
65.0, -288.5314116314985, -205.45888386573642, -228.36016124440357, -218.9898419054225, 0.12800000607967377, 0.12800000607967377, 1.008000047877431, 0.0, 0.0, 0.0, 0.0, 0.0, 1.6518368176468687E9, 0.0, 2022-05-06 12:33:37.646
66.0, -226.6435471647419, -60.0291341887787, -127.53245843900368, -146.01691397000104, 0.12800000607967377, 0.12800000607967377, 1.008000047877431, 0.0, 0.0, 0.0, 0.0, 0.0, 1.65183681764784E9, 0.0, 2022-05-06 12:33:37.647
66.0, -208.14600198389962, -94.87752197589725, -128.2617389303632, -154.36437067110091, 0.12800000607967377, 0.12800000607967377, 1.008000047877431, 0.0, 0.0, 0.0, 0.0, 0.0, 1.65183681764784E9, 0.0, 2022-05-06 12:33:37.647
67.0, -288.02278523752466, -244.43612120393664, -235.4248322607018, -219.31521320156753, 0.12800000607967377, 0.12800000607967377, 1.008000047877431, 0.0, 0.0, 0.0, 0.0, 0.0, 1.6518368176619608E9, 0.0, 2022-05-06 12:33:37.661
67.0, -311.73375095659867, -224.79416663665324, -247.48600961780176, -239.2974986648187, 0.12800000607967377, 0.12800000607967377, 1.008000047877431, 0.0, 0.0, 0.0, 0.0, 0.0, 1.6518368176619608E9, 0.0, 2022-05-06 12:33:37.661
68.0, -223.66658680001274, -68.69448238611221, -138.09393591387197, -163.73282006010413, 0.12800000607967377, 0.12800000607967377, 1.008000047877431, 0.0, 0.0, 0.0, 0.0, 0.0, 1.6518368176928833E9, 0.0, 2022-05-06 12:33:37.692
68.0, -206.8594763991423, -95.27769127115607, -123.82621758291498, -147.76718714926392, 0.12800000607967377, 0.12800000607967377, 1.008000047877431, 0.0, 0.0, 0.0, 0.0, 0.0, 1.6518368176928833E9, 0.0, 2022-05-06 12:33:37.692
69.0, -281.7060942123644, -232.6329969437793, -220.87662143306807, -206.9137049484998, 0.12800000607967377, 0.12800000607967377, 1.008000047877431, 0.0, 0.0, 0.0, 0.0, 0.0, 1.6518368176938567E9, 0.0, 2022-05-06 12:33:37.693
69.0, -296.85268903290853, -212.45997658278793, -235.0957210646011, -219.53212739899755, 0.12800000607967377, 0.12800000607967377, 1.008000047877431, 0.0, 0.0, 0.0, 0.0, 0.0, 1.6518368176938567E9, 0.0, 2022-05-06 12:33:37.693
70.0, -226.35557486815378, -74.09489792212844, -139.87412829278037, -165.374636140652, 0.12800000607967377, 0.12800000607967377, 1.008000047877431, 0.0, 0.0, 0.0, 0.0, 0.0, 1.6518368176948428E9, 0.0, 2022-05-06 12:33:37.694
70.0, -209.974813062232, -97.8993611400947, -131.20504019549116, -155.23950726073235, 0.12800000607967377, 0.12800000607967377, 1.008000047877431, 0.0, 0.0, 0.0, 0.0, 0.0, 1.6518368176948428E9, 0.0, 2022-05-06 12:33:37.694
71.0, -275.64745628414676, -231.1145975617692, -210.77141175279394, -200.92238521948457, 0.12800000607967377, 0.12800000607967377, 1.008000047877431, 0.0, 0.0, 0.0, 0.0, 0.0, 1.6518368177068777E9, 0.0, 2022-05-06 12:33:37.706
71.0, -285.84242356335744, -201.33003431465477, -216.0147514906712, -198.60738714691252, 0.12800000607967377, 0.12800000607967377, 1.008000047877431, 0.0, 0.0, 0.0, 0.0, 0.0, 1.6518368177068777E9, 0.0, 2022-05-06 12:33:37.706
72.0, -213.7820312171243, -62.172096863389015, -132.44294708082452, -147.4754749527201, 0.12800000607967377, 0.12800000607967377, 1.008000047877431, 0.0, 0.0, 0.0, 0.0, 0.0, 1.6518368177078261E9, 0.0, 2022-05-06 12:33:37.707
72.0, -213.1612078244798, -105.6446939483285, -135.7452787416987, -158.75875311903656, 0.12800000607967377, 0.12800000607967377, 1.008000047877431, 0.0, 0.0, 0.0, 0.0, 0.0, 1.6518368177078261E9, 0.0, 2022-05-06 12:33:37.707
73.0, -273.23896071268246, -230.2207614723593, -218.8608153569512, -208.4657634301111, 0.12800000607967377, 0.12800000607967377, 1.008000047877431, 0.0, 0.0, 0.0, 0.0, 0.0, 1.6518368177219305E9, 0.0, 2022-05-06 12:33:37.721
73.0, -281.38820271613076, -206.3975987546146, -224.55668298946694, -199.81163493264467, 0.12800000607967377, 0.12800000607967377, 1.008000047877431, 0.0, 0.0, 0.0, 0.0, 0.0, 1.6518368177219305E9, 0.0, 2022-05-06 12:33:37.721
74.0, -209.29041137034073, -60.02539428882301, -126.09633685601875, -147.09026525728405, 0.12800000607967377, 0.12800000607967377, 1.008000047877431, 0.0, 0.0, 0.0, 0.0, 0.0, 1.6518368177368724E9, 0.0, 2022-05-06 12:33:37.736
74.0, -201.26832596538588, -90.3410233296454, -117.30383206019178, -143.32792590186, 0.12800000607967377, 0.12800000607967377, 1.008000047877431, 0.0, 0.0, 0.0, 0.0, 0.0, 1.6518368177368724E9, 0.0, 2022-05-06 12:33:37.736
75.0, -284.72045357665047, -235.65857600793242, -227.7916964511387, -218.97488230559975, 0.12800000607967377, 0.12800000607967377, 1.008000047877431, 0.0, 0.0, 0.0, 0.0, 0.0, 1.6518368177378404E9, 0.0, 2022-05-06 12:33:37.737
75.0, -294.350695962552, -217.2171293264255, -238.835621020291, -214.07187346369028, 0.12800000607967377, 0.12800000607967377, 1.008000047877431, 0.0, 0.0, 0.0, 0.0, 0.0, 1.6518368177378404E9, 0.0, 2022-05-06 12:33:37.737
76.0, -223.32999580400065, -73.75830692611635, -133.2657250710763, -161.08497089147568, 0.12800000607967377, 0.12800000607967377, 1.008000047877431, 0.0, 0.0, 0.0, 0.0, 0.0, 1.651836817751896E9, 0.0, 2022-05-06 12:33:37.751
76.0, -202.12476305523887, -96.10420916136354, -125.84950345894322, -152.16156959719956, 0.12800000607967377, 0.12800000607967377, 1.008000047877431, 0.0, 0.0, 0.0, 0.0, 0.0, 1.651836817751896E9, 0.0, 2022-05-06 12:33:37.751
77.0, -284.5895570782013, -234.24489382468164, -222.98592500807717, -209.78594811446965, 0.12800000607967377, 0.12800000607967377, 1.008000047877431, 0.0, 0.0, 0.0, 0.0, 0.0, 1.6518368177668777E9, 0.0, 2022-05-06 12:33:37.766
77.0, -300.65616728784516, -218.60837210994214, -238.36813352582976, -233.0032470393926, 0.12800000607967377, 0.12800000607967377, 1.008000047877431, 0.0, 0.0, 0.0, 0.0, 0.0, 1.6518368177668777E9, 0.0, 2022-05-06 12:33:37.766
78.0, -224.37716779159382, -71.72380135022104, -143.51305094966665, -157.58068463299423, 0.12800000607967377, 0.12800000607967377, 1.008000047877431, 0.0, 0.0, 0.0, 0.0, 0.0, 1.651836817767838E9, 0.0, 2022-05-06 12:33:37.767
78.0, -210.81255065230653, -103.18009987752885, -133.27694477094337, -157.6330432323739, 0.12800000607967377, 0.12800000607967377, 1.008000047877431, 0.0, 0.0, 0.0, 0.0, 0.0, 1.651836817767838E9, 0.0, 2022-05-06 12:33:37.767
79.0, -281.7547129117884, -232.08323165029287, -210.68165415385738, -205.88149256072938, 0.12800000607967377, 0.12800000607967377, 1.008000047877431, 0.0, 0.0, 0.0, 0.0, 0.0, 1.651836817781876E9, 0.0, 2022-05-06 12:33:37.781
79.0, -283.06367789627984, -204.49398967716843, -226.85298156226054, -216.15499773900956, 0.12800000607967377, 0.12800000607967377, 1.008000047877431, 0.0, 0.0, 0.0, 0.0, 0.0, 1.651836817781876E9, 0.0, 2022-05-06 12:33:37.781
80.0, -228.56585574196652, -71.0319198584184, -142.58555576065555, -160.4865868985653, 0.12800000607967377, 0.12800000607967377, 1.0240000486373901, 0.0, 0.0, 0.0, 0.0, 0.0, 1.6518368177968853E9, 0.0, 2022-05-06 12:33:37.796
80.0, -222.45111931441352, -104.4965446619317, -139.21590590057895, -166.1487954314798, 0.12800000607967377, 0.12800000607967377, 1.0240000486373901, 0.0, 0.0, 0.0, 0.0, 0.0, 1.6518368177968853E9, 0.0, 2022-05-06 12:33:37.796
81.0, -289.98249281430617, -245.4122350923717, -224.84091538609937, -220.96824898198247, 0.12800000607967377, 0.12800000607967377, 1.0240000486373901, 0.0, 0.0, 0.0, 0.0, 0.0, 1.651836817797819E9, 0.0, 2022-05-06 12:33:37.797
81.0, -296.0186913427897, -216.065240140073, -234.21310467505828, -218.65325090941042, 0.12800000607967377, 0.12800000607967377, 1.0240000486373901, 0.0, 0.0, 0.0, 0.0, 0.0, 1.651836817797819E9, 0.0, 2022-05-06 12:33:37.797
82.0, -213.33324322244152, -65.23133502714336, -131.1152825965546, -148.54508634004742, 0.12800000607967377, 0.12800000607967377, 1.0240000486373901, 0.0, 0.0, 0.0, 0.0, 0.0, 1.6518368178118796E9, 0.0, 2022-05-06 12:33:37.811
82.0, -211.20524014765397, -99.72817221842706, -131.91562118707225, -148.28703324310482, 0.12800000607967377, 0.12800000607967377, 1.0240000486373901, 0.0, 0.0, 0.0, 0.0, 0.0, 1.6518368178118796E9, 0.0, 2022-05-06 12:33:37.811
83.0, -289.3055709223263, -244.91108849830925, -232.61990729393438, -217.64347792137414, 0.12800000607967377, 0.12800000607967377, 1.0240000486373901, 0.0, 0.0, 0.0, 0.0, 0.0, 1.6518368178268728E9, 0.0, 2022-05-06 12:33:37.826
83.0, -289.99371251417324, -206.0984067581594, -226.04516317183152, -204.2845552796498, 0.12800000607967377, 0.12800000607967377, 1.0240000486373901, 0.0, 0.0, 0.0, 0.0, 0.0, 1.6518368178268728E9, 0.0, 2022-05-06 12:33:37.826
84.0, -223.4908115020953, -67.14616380445659, -131.25739879487082, -136.6559443809092, 0.12800000607967377, 0.12800000607967377, 1.0240000486373901, 0.0, 0.0, 0.0, 0.0, 0.0, 1.6518368178278325E9, 0.0, 2022-05-06 12:33:37.827
84.0, -212.05419743759558, -104.29085016436875, -136.77001132955775, -156.50359344575554, 0.12800000607967377, 0.12800000607967377, 1.0240000486373901, 0.0, 0.0, 0.0, 0.0, 0.0, 1.6518368178278325E9, 0.0, 2022-05-06 12:33:37.827
85.0, -296.99854513118044, -253.31838359870017, -237.496736836154, -230.08986497391015, 0.12800000607967377, 0.12800000607967377, 1.0240000486373901, 0.0, 0.0, 0.0, 0.0, 0.0, 1.651836817841898E9, 0.0, 2022-05-06 12:33:37.841
85.0, -311.93196565425023, -226.5519196158275, -245.3954055425711, -222.45298926439136, 0.12800000607967377, 0.12800000607967377, 1.0240000486373901, 0.0, 0.0, 0.0, 0.0, 0.0, 1.651836817841898E9, 0.0, 2022-05-06 12:33:37.841
86.0, -231.24736401019618, -74.43148891814053, -138.7110194065608, -155.8191917538643, 0.12800000607967377, 0.12800000607967377, 1.0240000486373901, 0.0, 0.0, 0.0, 0.0, 0.0, 1.651836817856877E9, 0.0, 2022-05-06 12:33:37.856
86.0, -227.945032349322, -113.69295865297318, -153.52102323109284, -181.65442064777017, 0.12800000607967377, 0.12800000607967377, 1.0240000486373901, 0.0, 0.0, 0.0, 0.0, 0.0, 1.651836817856877E9, 0.0, 2022-05-06 12:33:37.856
87.0, -300.35697529139, -251.2651785230264, -240.52979570021853, -231.9598149517551, 0.12800000607967377, 0.12800000607967377, 1.0240000486373901, 0.0, 0.0, 0.0, 0.0, 0.0, 1.6518368178578162E9, 0.0, 2022-05-06 12:33:37.857
87.0, -299.10036890627816, -214.6253786571324, -238.36065372591838, -220.97572878189385, 0.12800000607967377, 0.12800000607967377, 1.0240000486373901, 0.0, 0.0, 0.0, 0.0, 0.0, 1.6518368178578162E9, 0.0, 2022-05-06 12:33:37.857
88.0, -221.35532862739637, -76.06208529882133, -140.29673698777333, -152.09051149804145, 0.12800000607967377, 0.12800000607967377, 1.0240000486373901, 0.0, 0.0, 0.0, 0.0, 0.0, 1.651836817871906E9, 0.0, 2022-05-06 12:33:37.871
88.0, -226.55378956580535, -109.48183130286634, -136.01829143846408, -158.30996512435377, 0.12800000607967377, 0.12800000607967377, 1.0240000486373901, 0.0, 0.0, 0.0, 0.0, 0.0, 1.651836817871906E9, 0.0, 2022-05-06 12:33:37.871
89.0, -294.0103650665842, -245.87598268687725, -231.0154902129434, -210.26839520875365, 0.12800000607967377, 0.12800000607967377, 1.0240000486373901, 0.0, 0.0, 0.0, 0.0, 0.0, 1.651836817886872E9, 0.0, 2022-05-06 12:33:37.886
89.0, -305.95560552505776, -214.22520936187357, -242.90463217208162, -233.7400073306635, 0.12800000607967377, 0.12800000607967377, 1.0240000486373901, 0.0, 0.0, 0.0, 0.0, 0.0, 1.651836817886872E9, 0.0, 2022-05-06 12:33:37.886
90.0, -233.25943018635735, -77.50568668171763, -148.53947649011388, -179.18608667701483, 0.12800000607967377, 0.12800000607967377, 1.0240000486373901, 0.0, 0.0, 0.0, 0.0, 0.0, 1.651836817887814E9, 0.0, 2022-05-06 12:33:37.887
90.0, -217.37233517458662, -99.01385132689029, -131.92684088693932, -159.0766446152702, 0.12800000607967377, 0.12800000607967377, 1.0240000486373901, 0.0, 0.0, 0.0, 0.0, 0.0, 1.651836817887814E9, 0.0, 2022-05-06 12:33:37.887
91.0, -293.22124617593363, -239.27131936512887, -229.74018432805315, -214.4720427589491, 0.12800000607967377, 0.12800000607967377, 1.0240000486373901, 0.0, 0.0, 0.0, 0.0, 0.0, 1.651836817901874E9, 0.0, 2022-05-06 12:33:37.901
91.0, -299.77355089830235, -211.0275948997587, -238.4242320251651, -224.22944174334407, 0.12800000607967377, 0.12800000607967377, 1.0240000486373901, 0.0, 0.0, 0.0, 0.0, 0.0, 1.651836817901874E9, 0.0, 2022-05-06 12:33:37.901
92.0, -219.92668684432283, -61.15484407544136, -126.75081934826449, -155.83041145373136, 0.12800000607967377, 0.12800000607967377, 1.0240000486373901, 0.0, 0.0, 0.0, 0.0, 0.0, 1.651836817916872E9, 0.0, 2022-05-06 12:33:37.916
92.0, -214.36919551016763, -97.11024224944413, -128.33279702952132, -150.9573218114674, 0.12800000607967377, 0.12800000607967377, 1.0240000486373901, 0.0, 0.0, 0.0, 0.0, 0.0, 1.651836817916872E9, 0.0, 2022-05-06 12:33:37.916
93.0, -284.593296978157, -237.65194268431515, -225.4916579783894, -210.3955518072471, 0.12800000607967377, 0.12800000607967377, 1.0240000486373901, 0.0, 0.0, 0.0, 0.0, 0.0, 1.651836817917817E9, 0.0, 2022-05-06 12:33:37.917
93.0, -295.6783604468219, -214.93205045349896, -235.7202843572013, -211.49134249426425, 0.12800000607967377, 0.12800000607967377, 1.0240000486373901, 0.0, 0.0, 0.0, 0.0, 0.0, 1.651836817917817E9, 0.0, 2022-05-06 12:33:37.917
94.0, -234.9124659667723, -75.68061550334096, -141.58326257253066, -166.92295472230762, 0.12800000607967377, 0.12800000607967377, 1.0240000486373901, 0.0, 0.0, 0.0, 0.0, 0.0, 1.6518368179319353E9, 0.0, 2022-05-06 12:33:37.931
94.0, -219.73595194658265, -108.69645231217146, -137.87328181648627, -165.0081259449944, 0.12800000607967377, 0.12800000607967377, 1.0240000486373901, 0.0, 0.0, 0.0, 0.0, 0.0, 1.6518368179319353E9, 0.0, 2022-05-06 12:33:37.931
95.0, -275.05281219119206, -234.97043441608548, -215.76417819363996, -191.6436934294179, 0.12800000607967377, 0.12800000607967377, 1.0240000486373901, 0.0, 0.0, 0.0, 0.0, 0.0, 1.651836817946869E9, 0.0, 2022-05-06 12:33:37.946
95.0, -285.61802956601605, -193.54730250686407, -214.29439751105383, -181.7516580466181, 0.12800000607967377, 0.12800000607967377, 1.0240000486373901, 0.0, 0.0, 0.0, 0.0, 0.0, 1.651836817946869E9, 0.0, 2022-05-06 12:33:37.946
96.0, -214.28317781118676, -55.96386293694377, -126.81065774755552, -163.13069616723806, 0.12800000607967377, 0.12800000607967377, 1.0240000486373901, 0.0, 0.0, 0.0, 0.0, 0.0, 1.6518368179478247E9, 0.0, 2022-05-06 12:33:37.947
96.0, -224.71001888765022, -105.98502484429628, -143.5654095490463, -173.9315272392705, 0.12800000607967377, 0.12800000607967377, 1.0240000486373901, 0.0, 0.0, 0.0, 0.0, 0.0, 1.6518368179478247E9, 0.0, 2022-05-06 12:33:37.947
97.0, -298.6740203113295, -246.84835667535663, -232.829341691453, -229.0352131864056, 0.12800000607967377, 0.12800000607967377, 1.0240000486373901, 0.0, 0.0, 0.0, 0.0, 0.0, 1.6518368179618924E9, 0.0, 2022-05-06 12:33:37.961
97.0, -306.423093019519, -218.50365491118282, -239.65839901054278, -221.3684182772413, 0.12800000607967377, 0.12800000607967377, 1.0240000486373901, 0.0, 0.0, 0.0, 0.0, 0.0, 1.6518368179618924E9, 0.0, 2022-05-06 12:33:37.961
98.0, -231.03418971272185, -72.737314238213, -135.96219293912873, -164.80243144743145, 0.12800000607967377, 0.12800000607967377, 1.0240000486373901, 0.0, 0.0, 0.0, 0.0, 0.0, 1.651836817976879E9, 0.0, 2022-05-06 12:33:37.976
98.0, -205.21018051868305, -97.45805294532329, -128.81524412380531, -151.98953419923782, 0.12800000607967377, 0.12800000607967377, 1.0240000486373901, 0.0, 0.0, 0.0, 0.0, 0.0, 1.651836817976879E9, 0.0, 2022-05-06 12:33:37.976
99.0, -286.4931661556475, -238.95716776885092, -224.48936479026452, -207.38119244296104, 0.12800000607967377, 0.12800000607967377, 1.0240000486373901, 0.0, 0.0, 0.0, 0.0, 0.0, 1.6518368179778411E9, 0.0, 2022-05-06 12:33:37.977
99.0, -304.4970445423387, -213.07332017552108, -235.3126352620311, -223.12991115637124, 0.12800000607967377, 0.12800000607967377, 1.0240000486373901, 0.0, 0.0, 0.0, 0.0, 0.0, 1.6518368179778411E9, 0.0, 2022-05-06 12:33:37.977
100.0, -234.97604426601902, -68.2943130908534, -139.72827219450846, -152.63653689157218, 0.12800000607967377, 0.12800000607967377, 1.0240000486373901, 0.0, 0.0, 0.0, 0.0, 0.0, 1.6518368179918883E9, 0.0, 2022-05-06 12:33:37.991
100.0, -220.0875025424175, -103.47181207407266, -134.98233915073797, -163.71038066037, 0.12800000607967377, 0.12800000607967377, 1.0240000486373901, 0.0, 0.0, 0.0, 0.0, 0.0, 1.6518368179918883E9, 0.0, 2022-05-06 12:33:37.991
0.0, -296.2767444397323, -244.14627895737067, -227.01566721033305, -219.8219696455635, 0.12800000607967377, 0.12800000607967377, 1.0240000486373901, 0.0, 0.0, 0.0, 0.0, 0.0, 1.6518368179928925E9, 0.0, 2022-05-06 12:33:37.992
1.0, -310.85113456705585, -219.62001504795626, -245.62166948989034, -227.4551054551266, 0.12800000607967377, 0.12800000607967377, 1.0240000486373901, 0.0, 0.0, 0.0, 0.0, 0.0, 1.6518368180068743E9, 0.0, 2022-05-06 12:33:38.006
1.0, -219.04033055482432, -71.50501720281318, -140.37714483682066, -158.05004207743332, 0.12800000607967377, 0.12800000607967377, 1.0240000486373901, 0.0, 0.0, 0.0, 0.0, 0.0, 1.6518368180068743E9, 0.0, 2022-05-06 12:33:38.006
2.0, -219.17870685318485, -113.74718720233068, -144.04598669335246, -168.21509015699849, 0.12800000607967377, 0.12800000607967377, 1.0240000486373901, 0.0, 0.0, 0.0, 0.0, 0.0, 1.6518368180219316E9, 0.0, 2022-05-06 12:33:38.021
2.0, -305.0542896357365, -253.82140014274046, -237.87633668165654, -227.3466483564116, 0.12800000607967377, 0.12800000607967377, 1.0240000486373901, 0.0, 0.0, 0.0, 0.0, 0.0, 1.6518368180219316E9, 0.0, 2022-05-06 12:33:38.021
3.0, -297.77644432196394, -204.28642522962764, -230.56857216823846, -214.1223621130921, 0.12800000607967377, 0.12800000607967377, 1.0240000486373901, 0.0, 0.0, 0.0, 0.0, 0.0, 1.651836818022847E9, 0.0, 2022-05-06 12:33:38.022
3.0, -233.5698418826796, -71.48631770303473, -143.64955729804933, -161.43465153733268, 0.12800000607967377, 0.12800000607967377, 1.0240000486373901, 0.0, 0.0, 0.0, 0.0, 0.0, 1.651836818022847E9, 0.0, 2022-05-06 12:33:38.022
4.0, -214.66464760666713, -94.28848773287609, -127.76994208618999, -145.59243532503024, 0.12800000607967377, 0.12800000607967377, 1.0240000486373901, 0.0, 0.0, 0.0, 0.0, 0.0, 1.6518368180368752E9, 0.0, 2022-05-06 12:33:38.036
4.0, -284.3015847816132, -238.82440132042393, -229.1474101850763, -207.38680229289457, 0.12800000607967377, 0.12800000607967377, 1.0240000486373901, 0.0, 0.0, 0.0, 0.0, 0.0, 1.6518368180368752E9, 0.0, 2022-05-06 12:33:38.036
5.0, -303.5396301536821, -210.28896465850994, -234.34587112348527, -224.14155409438536, 0.12800000607967377, 0.12800000607967377, 1.0240000486373901, 0.0, 0.0, 0.0, 0.0, 0.0, 1.651836818068883E9, 0.0, 2022-05-06 12:33:38.068
5.0, -221.73679842287675, -67.20787215372548, -126.4684569016099, -144.50786433788016, 0.12800000607967377, 0.12800000607967377, 1.0240000486373901, 0.0, 0.0, 0.0, 0.0, 0.0, 1.651836818068883E9, 0.0, 2022-05-06 12:33:38.068
6.0, -211.9345206390135, -99.5467870705761, -125.94113100785762, -134.94120025122538, 0.12800000607967377, 0.12800000607967377, 1.0240000486373901, 0.0, 0.0, 0.0, 0.0, 0.0, 1.6518368180698311E9, 0.0, 2022-05-06 12:33:38.069
6.0, -285.98827966162935, -236.9432316427119, -227.7711270013824, -208.1160827842541, 0.12800000607967377, 0.12800000607967377, 1.0240000486373901, 0.0, 0.0, 0.0, 0.0, 0.0, 1.6518368180698311E9, 0.0, 2022-05-06 12:33:38.069
7.0, -302.6083950647153, -206.38824900472537, -232.40112314652652, -229.58684842986986, 0.12800000607967377, 0.12800000607967377, 1.0240000486373901, 0.0, 0.0, 0.0, 0.0, 0.0, 1.6518368180708423E9, 0.0, 2022-05-06 12:33:38.070
7.0, -228.17690614657477, -62.30112341186032, -136.03512098826468, -158.9064791672863, 0.12800000607967377, 0.12800000607967377, 1.0240000486373901, 0.0, 0.0, 0.0, 0.0, 0.0, 1.6518368180708423E9, 0.0, 2022-05-06 12:33:38.070
8.0, -223.07194270705804, -107.00414758222178, -140.6613772334531, -170.9564368245192, 0.12800000607967377, 0.12800000607967377, 1.0240000486373901, 0.0, 0.0, 0.0, 0.0, 0.0, 1.6518368180718377E9, 0.0, 2022-05-06 12:33:38.071
8.0, -285.99575946154073, -244.63620585156605, -229.9627083754167, -223.03080380754545, 0.12800000607967377, 0.12800000607967377, 1.0240000486373901, 0.0, 0.0, 0.0, 0.0, 0.0, 1.6518368180718377E9, 0.0, 2022-05-06 12:33:38.071
9.0, -302.5335970656015, -207.68973418930545, -229.0352131864056, -213.5277180201374, 0.12800000607967377, 0.12800000607967377, 1.0240000486373901, 0.0, 0.0, 0.0, 0.0, 0.0, 1.651836818081872E9, 0.0, 2022-05-06 12:33:38.081
9.0, -226.34061526833102, -69.30595602886751, -141.57017292268574, -152.8740205387585, 0.12800000607967377, 0.12800000607967377, 1.0240000486373901, 0.0, 0.0, 0.0, 0.0, 0.0, 1.651836818081872E9, 0.0, 2022-05-06 12:33:38.081
10.0, -232.54884919477627, -117.16545576183125, -150.04104632232338, -171.839053214062, 0.12800000607967377, 0.12800000607967377, 1.0240000486373901, 0.0, 0.0, 0.0, 0.0, 0.0, 1.6518368180969596E9, 0.0, 2022-05-06 12:33:38.096
10.0, -302.6869329637848, -250.0964597868733, -237.37892998754978, -227.44014585530385, 0.12800000607967377, 0.12800000607967377, 1.0240000486373901, 0.0, 0.0, 0.0, 0.0, 0.0, 1.6518368180969596E9, 0.0, 2022-05-06 12:33:38.096
11.0, -300.28965709218755, -204.08447063202038, -225.31401273049414, -215.47246599709615, 0.12800000607967377, 0.12800000607967377, 1.0240000486373901, 0.0, 0.0, 0.0, 0.0, 0.0, 1.6518368181119337E9, 0.0, 2022-05-06 12:33:38.111
11.0, -228.96602503722534, -67.36494795186445, -132.03342803567648, -146.0561829195358, 0.12800000607967377, 0.12800000607967377, 1.0240000486373901, 0.0, 0.0, 0.0, 0.0, 0.0, 1.6518368181119337E9, 0.0, 2022-05-06 12:33:38.111
12.0, -225.07278918335214, -114.41662929439917, -148.33939184248447, -169.77462843852118, 0.12800000607967377, 0.12800000607967377, 1.0240000486373901, 0.0, 0.0, 0.0, 0.0, 0.0, 1.6518368181128821E9, 0.0, 2022-05-06 12:33:38.112
12.0, -292.80611728085205, -245.97882993565872, -233.3323582354933, -222.22298541711643, 0.12800000607967377, 0.12800000607967377, 1.0240000486373901, 0.0, 0.0, 0.0, 0.0, 0.0, 1.6518368181128821E9, 0.0, 2022-05-06 12:33:38.112
13.0, -303.11328155873343, -212.65632133046165, -226.34248521830887, -213.54267761996016, 0.12800000607967377, 0.12800000607967377, 1.0240000486373901, 0.0, 0.0, 0.0, 0.0, 0.0, 1.6518368181268823E9, 0.0, 2022-05-06 12:33:38.126
13.0, -230.6078411177732, -75.17011915938929, -146.4021236654371, -169.0939666465856, 0.12800000607967377, 0.12800000607967377, 1.0240000486373901, 0.0, 0.0, 0.0, 0.0, 0.0, 1.6518368181268823E9, 0.0, 2022-05-06 12:33:38.126
14.0, -225.85068837413564, -112.45692171761766, -141.68610982131213, -166.86124637303874, 0.12800000607967377, 0.12800000607967377, 1.0240000486373901, 0.0, 0.0, 0.0, 0.0, 0.0, 1.6518368181418867E9, 0.0, 2022-05-06 12:33:38.141
14.0, -294.36939546233043, -245.81427433760837, -232.4422620460391, -218.02307776687667, 0.12800000607967377, 0.12800000607967377, 1.0240000486373901, 0.0, 0.0, 0.0, 0.0, 0.0, 1.6518368181418867E9, 0.0, 2022-05-06 12:33:38.141
15.0, -292.47326618479565, -201.1486491668038, -230.04124627448618, -204.33130402909592, 0.12800000607967377, 0.12800000607967377, 1.0240000486373901, 0.0, 0.0, 0.0, 0.0, 0.0, 1.651836818142811E9, 0.0, 2022-05-06 12:33:38.142
15.0, -232.2758364980109, -75.78346275212243, -139.83111944328994, -170.11495933448896, 0.12800000607967377, 0.12800000607967377, 1.0240000486373901, 0.0, 0.0, 0.0, 0.0, 0.0, 1.651836818142811E9, 0.0, 2022-05-06 12:33:38.142
16.0, -223.85732169775292, -108.08123876946047, -138.79516715556383, -162.86703322036192, 0.12800000607967377, 0.12800000607967377, 1.0240000486373901, 0.0, 0.0, 0.0, 0.0, 0.0, 1.6518368181568785E9, 0.0, 2022-05-06 12:33:38.156
16.0, -296.7517117341049, -244.1313193575479, -232.98828743956983, -219.3058634516783, 0.12800000607967377, 0.12800000607967377, 1.0240000486373901, 0.0, 0.0, 0.0, 0.0, 0.0, 1.6518368181568785E9, 0.0, 2022-05-06 12:33:38.156
17.0, -301.972612072248, -211.06312394933775, -232.93592884019017, -223.2028392055072, 0.12800000607967377, 0.12800000607967377, 1.0240000486373901, 0.0, 0.0, 0.0, 0.0, 0.0, 1.651836818171939E9, 0.0, 2022-05-06 12:33:38.171
17.0, -225.28222358087078, -69.94921882124618, -132.31018063239753, -154.45225832005963, 0.12800000607967377, 0.12800000607967377, 1.0240000486373901, 0.0, 0.0, 0.0, 0.0, 0.0, 1.651836818171939E9, 0.0, 2022-05-06 12:33:38.171
18.0, -211.530611443799, -99.10921877576038, -121.4644707608968, -151.29952265741304, 0.12800000607967377, 0.12800000607967377, 1.0240000486373901, 0.0, 0.0, 0.0, 0.0, 0.0, 1.6518368181728928E9, 0.0, 2022-05-06 12:33:38.172
18.0, -281.64625581307337, -239.25822971528396, -224.64083073846996, -200.4792070747353, 0.12800000607967377, 0.12800000607967377, 1.0240000486373901, 0.0, 0.0, 0.0, 0.0, 0.0, 1.6518368181728928E9, 0.0, 2022-05-06 12:33:38.172
19.0, -295.31933005107567, -203.87129633454606, -231.54468605667353, -203.32527094101533, 0.12800000607967377, 0.12800000607967377, 1.0240000486373901, 0.0, 0.0, 0.0, 0.0, 0.0, 1.6518368181868696E9, 0.0, 2022-05-06 12:33:38.186
19.0, -221.88265452114865, -67.99325114442036, -140.48560193553567, -163.36443991446868, 0.12800000607967377, 0.12800000607967377, 1.0240000486373901, 0.0, 0.0, 0.0, 0.0, 0.0, 1.6518368181868696E9, 0.0, 2022-05-06 12:33:38.186
20.0, -228.65187344094738, -110.6243707393296, -131.21812984533608, -169.83072693785653, 0.12800000607967377, 0.12800000607967377, 1.0240000486373901, 0.0, 0.0, 0.0, 0.0, 0.0, 1.6518368182018783E9, 0.0, 2022-05-06 12:33:38.201
20.0, -295.3866482502781, -254.18791033839807, -239.21896076574922, -225.55897617759183, 0.12800000607967377, 0.12800000607967377, 1.0240000486373901, 0.0, 0.0, 0.0, 0.0, 0.0, 1.6518368182018783E9, 0.0, 2022-05-06 12:33:38.201
21.0, -285.3861557687633, -200.1837549782358, -231.3352516591549, -219.39188115065917, 0.12800000607967377, 0.12800000607967377, 1.0240000486373901, 0.0, 0.0, 0.0, 0.0, 0.0, 1.6518368182028306E9, 0.0, 2022-05-06 12:33:38.202
21.0, -211.50817204406485, -64.99759127991274, -135.36941879615188, -159.55722175957635, 0.12800000607967377, 0.12800000607967377, 1.0240000486373901, 0.0, 0.0, 0.0, 0.0, 0.0, 1.6518368182028306E9, 0.0, 2022-05-06 12:33:38.202
22.0, -223.16918010590598, -107.1799228801392, -136.21837608609349, -160.37625984987244, 0.12800000607967377, 0.12800000607967377, 1.0240000486373901, 0.0, 0.0, 0.0, 0.0, 0.0, 1.6518368182169156E9, 0.0, 2022-05-06 12:33:38.216
22.0, -294.6124889594503, -242.74755637394264, -229.82807197701186, -220.3118965397589, 0.12800000607967377, 0.12800000607967377, 1.0240000486373901, 0.0, 0.0, 0.0, 0.0, 0.0, 1.6518368182169156E9, 0.0, 2022-05-06 12:33:38.216
23.0, -299.76981099834666, -210.77141175279394, -234.2635933244601, -216.3027237872593, 0.12800000607967377, 0.12800000607967377, 1.0240000486373901, 0.0, 0.0, 0.0, 0.0, 0.0, 1.6518368182319171E9, 0.0, 2022-05-06 12:33:38.231
23.0, -222.3838011152111, -67.20787215372548, -139.60672544594854, -146.30301631661132, 0.12800000607967377, 0.12800000607967377, 1.0240000486373901, 0.0, 0.0, 0.0, 0.0, 0.0, 1.6518368182319171E9, 0.0, 2022-05-06 12:33:38.231
24.0, -219.1562674534507, -108.4776681647636, -136.83545957878232, -166.1731047811918, 0.12800000607967377, 0.12800000607967377, 1.0240000486373901, 0.0, 0.0, 0.0, 0.0, 0.0, 1.651836818232912E9, 0.0, 2022-05-06 12:33:38.232
24.0, -297.73156552249566, -244.74466295028105, -230.54987266846, -222.21550561720505, 0.12800000607967377, 0.12800000607967377, 1.0240000486373901, 0.0, 0.0, 0.0, 0.0, 0.0, 1.651836818232912E9, 0.0, 2022-05-06 12:33:38.232
25.0, -296.33284293906763, -202.5174525505863, -230.64337016735226, -219.6087953480892, 0.12800000607967377, 0.12800000607967377, 1.0240000486373901, 0.0, 0.0, 0.0, 0.0, 0.0, 1.6518368182469196E9, 0.0, 2022-05-06 12:33:38.246
25.0, -230.65271991724148, -75.14019995974377, -143.2568678027019, -163.44671771349385, 0.12800000607967377, 0.12800000607967377, 1.0240000486373901, 0.0, 0.0, 0.0, 0.0, 0.0, 1.6518368182469196E9, 0.0, 2022-05-06 12:33:38.246
26.0, -215.0423775021918, -107.26594057912007, -133.3648324199021, -151.22846455825493, 0.12800000607967377, 0.12800000607967377, 1.0240000486373901, 0.0, 0.0, 0.0, 0.0, 0.0, 1.6518368182618887E9, 0.0, 2022-05-06 12:33:38.261
26.0, -288.6024697306566, -238.85432052006945, -225.32149253040552, -216.3027237872593, 0.12800000607967377, 0.12800000607967377, 1.0240000486373901, 0.0, 0.0, 0.0, 0.0, 0.0, 1.6518368182618887E9, 0.0, 2022-05-06 12:33:38.261
27.0, -295.7905574454926, -204.05081153241917, -225.96849522273988, -207.5999765903689, 0.12800000607967377, 0.12800000607967377, 1.0240000486373901, 0.0, 0.0, 0.0, 0.0, 0.0, 1.6518368182628324E9, 0.0, 2022-05-06 12:33:38.262
27.0, -208.24697928270325, -55.887194987852126, -129.81940726190805, -152.02506324881688, 0.12800000607967377, 0.12800000607967377, 1.0240000486373901, 0.0, 0.0, 0.0, 0.0, 0.0, 1.6518368182628324E9, 0.0, 2022-05-06 12:33:38.262
28.0, -220.32685613958165, -105.49696790007874, -135.0627469997853, -165.45878388965502, 0.12800000607967377, 0.12800000607967377, 1.0240000486373901, 0.0, 0.0, 0.0, 0.0, 0.0, 1.65183681827687E9, 0.0, 2022-05-06 12:33:38.276
28.0, -292.8996147797443, -236.5430623474531, -225.6618234263733, -212.68624053010717, 0.12800000607967377, 0.12800000607967377, 1.0240000486373901, 0.0, 0.0, 0.0, 0.0, 0.0, 1.65183681827687E9, 0.0, 2022-05-06 12:33:38.276
29.0, -293.2586451754905, -200.83823747048154, -221.97428207006305, -206.4518273039721, 0.12800000607967377, 0.12800000607967377, 1.0240000486373901, 0.0, 0.0, 0.0, 0.0, 0.0, 1.6518368183089085E9, 0.0, 2022-05-06 12:33:38.308
29.0, -224.20887229358777, -70.42792601557449, -140.16771043930203, -156.9093725909479, 0.12800000607967377, 0.12800000607967377, 1.0240000486373901, 0.0, 0.0, 0.0, 0.0, 0.0, 1.6518368183089085E9, 0.0, 2022-05-06 12:33:38.308
30.0, -221.51988422544673, -111.87349732453004, -132.89360502548516, -156.04919560113922, 0.12800000607967377, 0.12800000607967377, 1.0240000486373901, 0.0, 0.0, 0.0, 0.0, 0.0, 1.6518368183098629E9, 0.0, 2022-05-06 12:33:38.309
30.0, -294.4180141617544, -252.31796036055312, -235.40052291098982, -221.8639550213702, 0.12800000607967377, 0.12800000607967377, 1.0240000486373901, 0.0, 0.0, 0.0, 0.0, 0.0, 1.6518368183098629E9, 0.0, 2022-05-06 12:33:38.309
31.0, -294.1263019652106, -199.97432058071718, -231.4811077574268, -220.13612124184147, 0.12800000607967377, 0.12800000607967377, 1.0240000486373901, 0.0, 0.0, 0.0, 0.0, 0.0, 1.6518368183108225E9, 0.0, 2022-05-06 12:33:38.310
31.0, -220.14734094170853, -57.34575597057119, -125.69429761078209, -144.9753518323414, 0.12800000607967377, 0.12800000607967377, 1.0240000486373901, 0.0, 0.0, 0.0, 0.0, 0.0, 1.6518368183108225E9, 0.0, 2022-05-06 12:33:38.310
32.0, -205.90954181039706, -108.98629455873743, -143.53736029937863, -171.2892879205756, 0.12800000607967377, 0.12800000607967377, 1.0240000486373901, 0.0, 0.0, 0.0, 0.0, 0.0, 1.6518368183219025E9, 0.0, 2022-05-06 12:33:38.321
32.0, -293.03051127819344, -247.7253632149659, -229.74579417798668, -221.96119242021814, 0.12800000607967377, 0.12800000607967377, 1.0240000486373901, 0.0, 0.0, 0.0, 0.0, 0.0, 1.6518368183219025E9, 0.0, 2022-05-06 12:33:38.321
33.0, -290.03111151373014, -197.40126941120252, -215.98296234104782, -200.10147717921063, 0.12800000607967377, 0.12800000607967377, 1.0240000486373901, 0.0, 0.0, 0.0, 0.0, 0.0, 1.6518368183228407E9, 0.0, 2022-05-06 12:33:38.322
33.0, -219.6798534472473, -64.5301037854515, -134.72241610381752, -153.52850303100422, 0.12800000607967377, 0.12800000607967377, 1.0240000486373901, 0.0, 0.0, 0.0, 0.0, 0.0, 1.6518368183228407E9, 0.0, 2022-05-06 12:33:38.322
34.0, -210.83499005204067, -107.47163507668301, -130.5823468528688, -154.96088471403345, 0.12800000607967377, 0.12800000607967377, 1.0240000486373901, 0.0, 0.0, 0.0, 0.0, 0.0, 1.6518368183368688E9, 0.0, 2022-05-06 12:33:38.336
34.0, -290.1133893127553, -246.6594917275943, -233.65398963168263, -224.56042288942263, 0.12800000607967377, 0.12800000607967377, 1.0240000486373901, 0.0, 0.0, 0.0, 0.0, 0.0, 1.6518368183368688E9, 0.0, 2022-05-06 12:33:38.336
35.0, -294.5376909603365, -201.69841446029022, -230.8902035644278, -220.11742174206302, 0.12800000607967377, 0.12800000607967377, 1.0240000486373901, 0.0, 0.0, 0.0, 0.0, 0.0, 1.6518368183519075E9, 0.0, 2022-05-06 12:33:38.351
35.0, -228.7565906397067, -70.91037310985848, -134.75607520341873, -159.53104245988652, 0.12800000607967377, 0.12800000607967377, 1.0240000486373901, 0.0, 0.0, 0.0, 0.0, 0.0, 1.6518368183519075E9, 0.0, 2022-05-06 12:33:38.351
36.0, -218.3783682626672, -114.61110409209505, -142.41165041271597, -164.59486699989066, 0.12800000607967377, 0.12800000607967377, 1.0240000486373901, 0.0, 0.0, 0.0, 0.0, 0.0, 1.6518368183528204E9, 0.0, 2022-05-06 12:33:38.352
36.0, -286.5679641547613, -252.86398575408384, -236.2195610012859, -220.00148484343663, 0.12800000607967377, 0.12800000607967377, 1.0240000486373901, 0.0, 0.0, 0.0, 0.0, 0.0, 1.6518368183528204E9, 0.0, 2022-05-06 12:33:38.352
37.0, -295.40160785010085, -199.1852016900666, -218.32039981335402, -208.99495927384123, 0.12800000607967377, 0.12800000607967377, 1.0240000486373901, 0.0, 0.0, 0.0, 0.0, 0.0, 1.6518368183668723E9, 0.0, 2022-05-06 12:33:38.366
37.0, -214.20837981207296, -58.93147355178371, -123.48775663692504, -136.14544803695753, 0.12800000607967377, 0.12800000607967377, 1.0240000486373901, 0.0, 0.0, 0.0, 0.0, 0.0, 1.6518368183668723E9, 0.0, 2022-05-06 12:33:38.366
38.0, -214.87034210423008, -107.24724107934162, -139.71144264470786, -155.23389741079882, 0.12800000607967377, 0.12800000607967377, 1.0240000486373901, 0.0, 0.0, 0.0, 0.0, 0.0, 1.6518368183819098E9, 0.0, 2022-05-06 12:33:38.381
38.0, -297.1294416296296, -250.94541707681492, -238.17552867811173, -230.48068451927975, 0.12800000607967377, 0.12800000607967377, 1.0240000486373901, 0.0, 0.0, 0.0, 0.0, 0.0, 1.6518368183819098E9, 0.0, 2022-05-06 12:33:38.381
39.0, -286.4931661556475, -201.2234471659176, -222.79332016035914, -217.05444367835298, 0.12800000607967377, 0.12800000607967377, 1.0240000486373901, 0.0, 0.0, 0.0, 0.0, 0.0, 1.6518368183828535E9, 0.0, 2022-05-06 12:33:38.382
39.0, -215.66694079479203, -65.6782530718483, -128.30848767980933, -157.37686008540913, 0.12800000607967377, 0.12800000607967377, 1.0240000486373901, 0.0, 0.0, 0.0, 0.0, 0.0, 1.6518368183828535E9, 0.0, 2022-05-06 12:33:38.382
40.0, -223.66658680001274, -119.1139436387457, -133.36857231985778, -146.0861021191813, 0.12800000607967377, 0.12800000607967377, 1.0240000486373901, 0.0, 0.0, 0.0, 0.0, 0.0, 1.651836818396865E9, 0.0, 2022-05-06 12:33:38.396
40.0, -286.40340855671093, -251.99632896436378, -243.40390881616622, -231.66623280523345, 0.12800000607967377, 0.12800000607967377, 1.0240000486373901, 0.0, 0.0, 0.0, 0.0, 0.0, 1.651836818396865E9, 0.0, 2022-05-06 12:33:38.396
41.0, -296.46747933747247, -204.88480922253802, -231.297852659598, -226.11248137103394, 0.12800000607967377, 0.12800000607967377, 1.0240000486373901, 0.0, 0.0, 0.0, 0.0, 0.0, 1.6518368184118752E9, 0.0, 2022-05-06 12:33:38.411
41.0, -222.66803351184353, -63.02292410330847, -126.18422450497746, -150.73853766405955, 0.12800000607967377, 0.12800000607967377, 1.0240000486373901, 0.0, 0.0, 0.0, 0.0, 0.0, 1.6518368184118752E9, 0.0, 2022-05-06 12:33:38.411
42.0, -206.82955719949678, -102.13853773986921, -119.52720258384943, -142.30132336402312, 0.12800000607967377, 0.12800000607967377, 1.0240000486373901, 0.0, 0.0, 0.0, 0.0, 0.0, 1.6518368184128509E9, 0.0, 2022-05-06 12:33:38.412
42.0, -287.7909114402719, -245.90029203658924, -229.08009198587388, -212.70120012992993, 0.12800000607967377, 0.12800000607967377, 1.0240000486373901, 0.0, 0.0, 0.0, 0.0, 0.0, 1.6518368184128509E9, 0.0, 2022-05-06 12:33:38.412
43.0, -290.58087680721655, -200.49042677460238, -221.68630977347493, -208.7481258767657, 0.12800000607967377, 0.12800000607967377, 1.0240000486373901, 0.0, 0.0, 0.0, 0.0, 0.0, 1.6518368184269068E9, 0.0, 2022-05-06 12:33:38.426
43.0, -204.92220822209492, -62.1590072135441, -124.9500575195998, -151.2060251585208, 0.12800000607967377, 0.12800000607967377, 1.0240000486373901, 0.0, 0.0, 0.0, 0.0, 0.0, 1.6518368184269068E9, 0.0, 2022-05-06 12:33:38.426
44.0, -212.3421697341837, -112.53545961668715, -136.8092802790925, -159.284209062811, 0.12800000607967377, 0.12800000607967377, 1.0240000486373901, 0.0, 0.0, 0.0, 0.0, 0.0, 1.6518368184418724E9, 0.0, 2022-05-06 12:33:38.441
44.0, -293.5989760714583, -243.85082686087117, -228.8818772882223, -218.96553255571052, 0.12800000607967377, 0.12800000607967377, 1.0240000486373901, 0.0, 0.0, 0.0, 0.0, 0.0, 1.6518368184418724E9, 0.0, 2022-05-06 12:33:38.441
45.0, -288.9689799263142, -190.8527045887895, -222.33331246580929, -203.8974756342359, 0.12800000607967377, 0.12800000607967377, 1.0240000486373901, 0.0, 0.0, 0.0, 0.0, 0.0, 1.6518368184428186E9, 0.0, 2022-05-06 12:33:38.442
45.0, -222.94852600852028, -63.72602529497817, -137.56100017018616, -161.75254303356633, 0.12800000607967377, 0.12800000607967377, 1.0240000486373901, 0.0, 0.0, 0.0, 0.0, 0.0, 1.6518368184428186E9, 0.0, 2022-05-06 12:33:38.442
46.0, -218.59154256014153, -117.56936495704576, -138.1743437629193, -168.57038065278903, 0.12800000607967377, 0.12800000607967377, 1.0240000486373901, 0.0, 0.0, 0.0, 0.0, 0.0, 1.6518368184568696E9, 0.0, 2022-05-06 12:33:38.456
46.0, -287.36456284532323, -251.00899537606165, -236.79550559446216, -218.62894155969843, 0.12800000607967377, 0.12800000607967377, 1.0240000486373901, 0.0, 0.0, 0.0, 0.0, 0.0, 1.6518368184568696E9, 0.0, 2022-05-06 12:33:38.456
47.0, -299.28736390406266, -206.04791810875759, -232.79007274191827, -219.35074225114658, 0.12800000607967377, 0.12800000607967377, 1.0240000486373901, 0.0, 0.0, 0.0, 0.0, 0.0, 1.651836818471939E9, 0.0, 2022-05-06 12:33:38.471
47.0, -220.4203536384739, -65.80540967034176, -133.03572122380137, -154.88982661487535, 0.12800000607967377, 0.12800000607967377, 1.0240000486373901, 0.0, 0.0, 0.0, 0.0, 0.0, 1.651836818471939E9, 0.0, 2022-05-06 12:33:38.471
48.0, -207.4915194916539, -102.95009603025392, -129.29956116806716, -133.35548267001286, 0.12800000607967377, 0.12800000607967377, 1.0240000486373901, 0.0, 0.0, 0.0, 0.0, 0.0, 1.6518368184868846E9, 0.0, 2022-05-06 12:33:38.486
48.0, -280.4120888276957, -237.92682533105835, -219.13195810373873, -199.15902239037678, 0.12800000607967377, 0.12800000607967377, 1.0240000486373901, 0.0, 0.0, 0.0, 0.0, 0.0, 1.6518368184868846E9, 0.0, 2022-05-06 12:33:38.486
49.0, -282.5513116023503, -191.1107576857321, -220.30628668982536, -213.06397042563185, 0.12800000607967377, 0.12800000607967377, 1.0240000486373901, 0.0, 0.0, 0.0, 0.0, 0.0, 1.6518368184878287E9, 0.0, 2022-05-06 12:33:38.487
49.0, -214.21211971202865, -61.4559060218744, -129.63241226412356, -154.58689471846446, 0.12800000607967377, 0.12800000607967377, 1.0240000486373901, 0.0, 0.0, 0.0, 0.0, 0.0, 1.6518368184878287E9, 0.0, 2022-05-06 12:33:38.487
50.0, -225.43555947905406, -124.84721027081832, -149.7792533254251, -171.38652531942353, 0.12800000607967377, 0.12800000607967377, 1.0240000486373901, 0.0, 0.0, 0.0, 0.0, 0.0, 1.6518368185018787E9, 0.0, 2022-05-06 12:33:38.501
50.0, -290.9062481033616, -252.60593265714124, -225.4748284285888, -215.42384729767218, 0.12800000607967377, 0.12800000607967377, 1.0240000486373901, 0.0, 0.0, 0.0, 0.0, 0.0, 1.6518368185018787E9, 0.0, 2022-05-06 12:33:38.501
51.0, -282.88042279845104, -194.63748334394768, -219.75652139633894, -205.95816050982103, 0.12800000607967377, 0.12800000607967377, 1.0240000486373901, 0.0, 0.0, 0.0, 0.0, 0.0, 1.65183681850288E9, 0.0, 2022-05-06 12:33:38.502
51.0, -208.03006508527324, -55.35986909409985, -122.69863774627447, -149.93071927363053, 0.12800000607967377, 0.12800000607967377, 1.0240000486373901, 0.0, 0.0, 0.0, 0.0, 0.0, 1.65183681850288E9, 0.0, 2022-05-06 12:33:38.502
52.0, -205.87214281084016, -110.06338574597612, -132.34383973199874, -150.94797206157818, 0.12800000607967377, 0.12800000607967377, 1.0240000486373901, 0.0, 0.0, 0.0, 0.0, 0.0, 1.651836818516878E9, 0.0, 2022-05-06 12:33:38.516
52.0, -280.456967627164, -243.8396071610041, -233.05934553872794, -229.00342403678223, 0.12800000607967377, 0.12800000607967377, 1.0240000486373901, 0.0, 0.0, 0.0, 0.0, 0.0, 1.651836818516878E9, 0.0, 2022-05-06 12:33:38.516
53.0, -310.0881949760951, -211.3398765460588, -234.05415892694145, -231.3520812089555, 0.12800000607967377, 0.12800000607967377, 1.0240000486373901, 0.0, 0.0, 0.0, 0.0, 0.0, 1.6518368185318928E9, 0.0, 2022-05-06 12:33:38.531
53.0, -214.91148100374267, -62.398360810708255, -127.96441688388586, -143.6813464476727, 0.12800000607967377, 0.12800000607967377, 1.0240000486373901, 0.0, 0.0, 0.0, 0.0, 0.0, 1.6518368185318928E9, 0.0, 2022-05-06 12:33:38.531
54.0, -219.09642905415967, -125.1538820671849, -147.24734105542302, -170.3954518311657, 0.12800000607967377, 0.12800000607967377, 1.0240000486373901, 0.0, 0.0, 0.0, 0.0, 0.0, 1.6518368185328455E9, 0.0, 2022-05-06 12:33:38.532
54.0, -306.22113842191175, -261.9669022462331, -246.43696768023074, -239.1647322163917, 0.12800000607967377, 0.12800000607967377, 1.0240000486373901, 0.0, 0.0, 0.0, 0.0, 0.0, 1.6518368185328455E9, 0.0, 2022-05-06 12:33:38.532
55.0, -281.6761750127189, -195.72953413100913, -225.39255062956363, -214.0064252144657, 0.12800000607967377, 0.12800000607967377, 1.0240000486373901, 0.0, 0.0, 0.0, 0.0, 0.0, 1.6518368185468807E9, 0.0, 2022-05-06 12:33:38.546
55.0, -205.0792840202339, -55.70767978997901, -116.09771432448179, -136.12674853717908, 0.12800000607967377, 0.12800000607967377, 1.0240000486373901, 0.0, 0.0, 0.0, 0.0, 0.0, 1.6518368185468807E9, 0.0, 2022-05-06 12:33:38.546
56.0, -219.309603351634, -112.14277012133971, -136.48016908299178, -155.51812980743125, 0.12800000607967377, 0.12800000607967377, 1.0240000486373901, 0.0, 0.0, 0.0, 0.0, 0.0, 1.6518368185618863E9, 0.0, 2022-05-06 12:33:38.561
56.0, -279.4808537387289, -237.19006503978744, -228.04039979819208, -220.4614925379865, 0.12800000607967377, 0.12800000607967377, 1.0240000486373901, 0.0, 0.0, 0.0, 0.0, 0.0, 1.6518368185618863E9, 0.0, 2022-05-06 12:33:38.561
57.0, -284.35394338099286, -187.05296623380855, -210.37685230746865, -192.41972267022356, 0.12800000607967377, 0.12800000607967377, 1.0240000486373901, 0.0, 0.0, 0.0, 0.0, 0.0, 1.6518368185628183E9, 0.0, 2022-05-06 12:33:38.562
57.0, -224.11911469465122, -58.14983446104452, -129.38183896709234, -158.56988817127421, 0.12800000607967377, 0.12800000607967377, 1.0240000486373901, 0.0, 0.0, 0.0, 0.0, 0.0, 1.6518368185628183E9, 0.0, 2022-05-06 12:33:38.562
58.0, -223.61422820063308, -117.03081936342642, -139.03826065268368, -169.8419466377236, 0.12800000607967377, 0.12800000607967377, 1.0240000486373901, 0.0, 0.0, 0.0, 0.0, 0.0, 1.6518368185768816E9, 0.0, 2022-05-06 12:33:38.576
58.0, -289.17093452392146, -243.74610966211185, -227.72250830195844, -208.7518657767214, 0.12800000607967377, 0.12800000607967377, 1.0240000486373901, 0.0, 0.0, 0.0, 0.0, 0.0, 1.6518368185768816E9, 0.0, 2022-05-06 12:33:38.576
59.0, -291.5569906956516, -198.2577065010555, -228.63878379110247, -222.36136171547696, 0.12800000607967377, 0.12800000607967377, 1.0240000486373901, 0.0, 0.0, 0.0, 0.0, 0.0, 1.651836818591876E9, 0.0, 2022-05-06 12:33:38.591
59.0, -216.73655218211934, -60.737845230381936, -129.93534416053444, -163.56265461212024, 0.12800000607967377, 0.12800000607967377, 1.0240000486373901, 0.0, 0.0, 0.0, 0.0, 0.0, 1.651836818591876E9, 0.0, 2022-05-06 12:33:38.591
60.0, -209.46618666825816, -98.45847618347034, -123.81312793307006, -146.81912251049653, 0.12800000607967377, 0.12800000607967377, 1.0240000486373901, 0.0, 0.0, 0.0, 0.0, 0.0, 1.6518368185928228E9, 0.0, 2022-05-06 12:33:38.592
60.0, -285.9695801618509, -245.45524394186214, -230.56857216823846, -214.03634441411123, 0.12800000607967377, 0.12800000607967377, 1.0240000486373901, 0.0, 0.0, 0.0, 0.0, 0.0, 1.6518368185928228E9, 0.0, 2022-05-06 12:33:38.592
61.0, -285.2178602707572, -192.920869264286, -220.9607691820711, -213.25470532337204, 0.12800000607967377, 0.12800000607967377, 1.0240000486373901, 0.0, 0.0, 0.0, 0.0, 0.0, 1.6518368186069007E9, 0.0, 2022-05-06 12:33:38.606
61.0, -211.1528815482743, -55.46084639290348, -124.75184282194823, -146.71066541178152, 0.12800000607967377, 0.12800000607967377, 1.0240000486373901, 0.0, 0.0, 0.0, 0.0, 0.0, 1.6518368186069007E9, 0.0, 2022-05-06 12:33:38.606
62.0, -209.69058066559955, -109.20320875616744, -136.08747958764434, -152.88898013858125, 0.12800000607967377, 0.12800000607967377, 1.0240000486373901, 0.0, 0.0, 0.0, 0.0, 0.0, 1.6518368186219308E9, 0.0, 2022-05-06 12:33:38.621
62.0, -290.9623466026969, -256.4355902117677, -234.60018432047218, -222.96348560834303, 0.12800000607967377, 0.12800000607967377, 1.0240000486373901, 0.0, 0.0, 0.0, 0.0, 0.0, 1.6518368186219308E9, 0.0, 2022-05-06 12:33:38.621
63.0, -288.62116923043504, -193.65388965560123, -223.23088845517486, -209.09967647260055, 0.12800000607967377, 0.12800000607967377, 1.0240000486373901, 0.0, 0.0, 0.0, 0.0, 0.0, 1.6518368186228352E9, 0.0, 2022-05-06 12:33:38.622
63.0, -212.43566723307595, -56.313543582800776, -120.49209677241743, -146.84530181018636, 0.12800000607967377, 0.12800000607967377, 1.0240000486373901, 0.0, 0.0, 0.0, 0.0, 0.0, 1.6518368186228352E9, 0.0, 2022-05-06 12:33:38.622
64.0, -213.0415310258977, -104.90606370707974, -122.80335494503379, -133.28816447081044, 0.12800000607967377, 0.12800000607967377, 1.0240000486373901, 0.0, 0.0, 0.0, 0.0, 0.0, 1.651836818636876E9, 0.0, 2022-05-06 12:33:38.636
64.0, -276.87788336956874, -234.44497847231105, -220.3960442887619, -206.97915319772437, 0.12800000607967377, 0.12800000607967377, 1.0240000486373901, 0.0, 0.0, 0.0, 0.0, 0.0, 1.651836818636876E9, 0.0, 2022-05-06 12:33:38.636
65.0, -260.448502864223, -174.64023828087375, -200.01358953025192, -192.87973036477342, 0.12800000607967377, 0.12800000607967377, 1.0240000486373901, 0.0, 0.0, 0.0, 0.0, 0.0, 1.6518368186518729E9, 0.0, 2022-05-06 12:33:38.651
65.0, -211.9345206390135, -57.177460472565144, -134.93559040129185, -167.16043836949393, 0.12800000607967377, 0.12800000607967377, 1.0240000486373901, 0.0, 0.0, 0.0, 0.0, 0.0, 1.6518368186518729E9, 0.0, 2022-05-06 12:33:38.651
66.0, -222.9373063086532, -112.37838381854817, -138.48475545924157, -155.71634450508282, 0.12800000607967377, 0.12800000607967377, 1.0240000486373901, 0.0, 0.0, 0.0, 0.0, 0.0, 1.651836818652877E9, 0.0, 2022-05-06 12:33:38.652
66.0, -295.36420885054395, -253.53716774610803, -242.03510543238372, -231.2398842102848, 0.12800000607967377, 0.12800000607967377, 1.0240000486373901, 0.0, 0.0, 0.0, 0.0, 0.0, 1.651836818652877E9, 0.0, 2022-05-06 12:33:38.652
67.0, -290.816490504425, -193.90820285258815, -221.6601304737851, -218.10909546585754, 0.12800000607967377, 0.12800000607967377, 1.0240000486373901, 0.0, 0.0, 0.0, 0.0, 0.0, 1.6518368186668813E9, 0.0, 2022-05-06 12:33:38.666
67.0, -221.28053062828258, -63.950419292319566, -138.12946496345103, -165.34658689098433, 0.12800000607967377, 0.12800000607967377, 1.0240000486373901, 0.0, 0.0, 0.0, 0.0, 0.0, 1.6518368186668813E9, 0.0, 2022-05-06 12:33:38.666
68.0, -223.15048060612753, -128.01490553328767, -151.46220830548555, -177.2170293503441, 0.12800000607967377, 0.12800000607967377, 1.0240000486373901, 0.0, 0.0, 0.0, 0.0, 0.0, 1.65183681868187E9, 0.0, 2022-05-06 12:33:38.681
68.0, -287.87692913925275, -242.27258907957003, -227.45323550514877, -213.59129631938413, 0.12800000607967377, 0.12800000607967377, 1.0240000486373901, 0.0, 0.0, 0.0, 0.0, 0.0, 1.65183681868187E9, 0.0, 2022-05-06 12:33:38.681
69.0, -277.5996840610169, -180.15285081556067, -208.15909163374454, -185.28399355476722, 0.12800000607967377, 0.12800000607967377, 1.0240000486373901, 0.0, 0.0, 0.0, 0.0, 0.0, 1.6518368186828232E9, 0.0, 2022-05-06 12:33:38.682
69.0, -213.06771032558754, -53.21690641948953, -126.14682550542057, -158.82420136826113, 0.12800000607967377, 0.12800000607967377, 1.0240000486373901, 0.0, 0.0, 0.0, 0.0, 0.0, 1.6518368186828232E9, 0.0, 2022-05-06 12:33:38.682
70.0, -221.17955332947895, -115.57225838070735, -139.2102960506454, -170.49268923001364, 0.12800000607967377, 0.12800000607967377, 1.0240000486373901, 0.0, 0.0, 0.0, 0.0, 0.0, 1.6518368187128713E9, 0.0, 2022-05-06 12:33:38.712
70.0, -288.7146667293273, -252.74056905554608, -233.61285073217005, -227.6121812532656, 0.12800000607967377, 0.12800000607967377, 1.0240000486373901, 0.0, 0.0, 0.0, 0.0, 0.0, 1.6518368187128713E9, 0.0, 2022-05-06 12:33:38.712
71.0, -288.1574216359295, -193.35469765914604, -224.80538633652031, -208.6733278776519, 0.12800000607967377, 0.12800000607967377, 1.0240000486373901, 0.0, 0.0, 0.0, 0.0, 0.0, 1.6518368187138305E9, 0.0, 2022-05-06 12:33:38.713
71.0, -208.7481258767657, -52.17347433185205, -124.04874163027853, -150.54032296640798, 0.12800000607967377, 0.12800000607967377, 1.0240000486373901, 0.0, 0.0, 0.0, 0.0, 0.0, 1.6518368187138305E9, 0.0, 2022-05-06 12:33:38.713
72.0, -216.74029208207503, -109.24434765568003, -128.48800287768245, -152.17839914700016, 0.12800000607967377, 0.12800000607967377, 1.0240000486373901, 0.0, 0.0, 0.0, 0.0, 0.0, 1.6518368187148256E9, 0.0, 2022-05-06 12:33:38.714
72.0, -293.84206956857815, -247.38877221895382, -228.8893570881337, -213.09014972532168, 0.12800000607967377, 0.12800000607967377, 1.0240000486373901, 0.0, 0.0, 0.0, 0.0, 0.0, 1.6518368187148256E9, 0.0, 2022-05-06 12:33:38.714
73.0, -269.8842704524286, -177.27686774963513, -198.89909934345633, -189.1847092085518, 0.12800000607967377, 0.12800000607967377, 1.0240000486373901, 0.0, 0.0, 0.0, 0.0, 0.0, 1.6518368187268836E9, 0.0, 2022-05-06 12:33:38.726
73.0, -192.27386657195166, -43.58292413363233, -108.11302791908383, -124.86964967055246, 0.12800000607967377, 0.12800000607967377, 1.0240000486373901, 0.0, 0.0, 0.0, 0.0, 0.0, 1.6518368187268836E9, 0.0, 2022-05-06 12:33:38.726
74.0, -217.53689077263698, -122.63692939700559, -149.11355113331228, -170.72082312731072, 0.12800000607967377, 0.12800000607967377, 1.0240000486373901, 0.0, 0.0, 0.0, 0.0, 0.0, 1.651836818741877E9, 0.0, 2022-05-06 12:33:38.741
74.0, -301.2433315808885, -248.88473220122978, -238.94220816902816, -229.66912622889504, 0.12800000607967377, 0.12800000607967377, 1.0240000486373901, 0.0, 0.0, 0.0, 0.0, 0.0, 1.651836818741877E9, 0.0, 2022-05-06 12:33:38.741
75.0, -297.0135047310032, -189.75691390177235, -221.55915317498147, -214.0064252144657, 0.12800000607967377, 0.12800000607967377, 1.0240000486373901, 0.0, 0.0, 0.0, 0.0, 0.0, 1.6518368187428443E9, 0.0, 2022-05-06 12:33:38.742
75.0, -219.77335094613954, -58.404147658031434, -130.4364907545969, -150.48048456711695, 0.12800000607967377, 0.12800000607967377, 1.0240000486373901, 0.0, 0.0, 0.0, 0.0, 0.0, 1.6518368187428443E9, 0.0, 2022-05-06 12:33:38.742
76.0, -220.59612893639132, -116.38007677113637, -136.98131567705423, -155.36105400929227, 0.12800000607967377, 0.12800000607967377, 1.0240000486373901, 0.0, 0.0, 0.0, 0.0, 0.0, 1.6518368187729506E9, 0.0, 2022-05-06 12:33:38.772
76.0, -293.819630168844, -259.218075778801, -240.50922625046223, -225.39442057954147, 0.12800000607967377, 0.12800000607967377, 1.0240000486373901, 0.0, 0.0, 0.0, 0.0, 0.0, 1.6518368187729506E9, 0.0, 2022-05-06 12:33:38.772
77.0, -301.4228467787616, -204.3350439290516, -231.08841826207936, -226.54630976589397, 0.12800000607967377, 0.12800000607967377, 1.0240000486373901, 0.0, 0.0, 0.0, 0.0, 0.0, 1.6518368187738435E9, 0.0, 2022-05-06 12:33:38.773
77.0, -224.47814509039745, -66.37013456365094, -132.79636762663722, -157.5339358835481, 0.12800000607967377, 0.12800000607967377, 1.0240000486373901, 0.0, 0.0, 0.0, 0.0, 0.0, 1.6518368187738435E9, 0.0, 2022-05-06 12:33:38.773
78.0, -231.23240441037342, -125.90560195827857, -153.34711788315326, -174.7673948793672, 0.12800000607967377, 0.12800000607967377, 1.0240000486373901, 0.0, 0.0, 0.0, 0.0, 0.0, 1.6518368187748177E9, 0.0, 2022-05-06 12:33:38.774
78.0, -302.03619037149474, -258.27562098996714, -246.54916467890143, -242.60544017562643, 0.12800000607967377, 0.12800000607967377, 1.0240000486373901, 0.0, 0.0, 0.0, 0.0, 0.0, 1.6518368187748177E9, 0.0, 2022-05-06 12:33:38.774
79.0, -290.3789222096093, -190.49741409299895, -221.92566337063909, -210.46847985638306, 0.12800000607967377, 0.12800000607967377, 1.0240000486373901, 0.0, 0.0, 0.0, 0.0, 0.0, 1.651836818786906E9, 0.0, 2022-05-06 12:33:38.786
79.0, -216.42614048579708, -63.42683329852298, -134.31476700864732, -161.99189663073048, 0.12800000607967377, 0.12800000607967377, 1.0240000486373901, 0.0, 0.0, 0.0, 0.0, 0.0, 1.651836818786906E9, 0.0, 2022-05-06 12:33:38.786
80.0, -230.66019971715286, -123.23905328987166, -147.46425525285304, -168.48062305385247, 0.12800000607967377, 0.12800000607967377, 1.0240000486373901, 0.0, 0.0, 0.0, 0.0, 0.0, 1.6518368188188941E9, 0.0, 2022-05-06 12:33:38.818
80.0, -291.57943009538576, -248.23772950889543, -232.45348174590617, -208.20210048323497, 0.12800000607967377, 0.12800000607967377, 1.0240000486373901, 0.0, 0.0, 0.0, 0.0, 0.0, 1.6518368188188941E9, 0.0, 2022-05-06 12:33:38.818
81.0, -282.61115000164136, -184.30039986642078, -213.66422436852008, -195.43782193446532, 0.12800000607967377, 0.12800000607967377, 1.0240000486373901, 0.0, 0.0, 0.0, 0.0, 0.0, 1.65183681881988E9, 0.0, 2022-05-06 12:33:38.819
81.0, -217.6042089718394, -55.39726809365675, -122.90059234388173, -152.07742184819654, 0.12800000607967377, 0.12800000607967377, 1.0240000486373901, 0.0, 0.0, 0.0, 0.0, 0.0, 1.65183681881988E9, 0.0, 2022-05-06 12:33:38.819
82.0, -224.93067298503593, -116.15194287383929, -142.5462868111208, -164.33307400299236, 0.12800000607967377, 0.12800000607967377, 1.0240000486373901, 0.0, 0.0, 0.0, 0.0, 0.0, 1.651836818820834E9, 0.0, 2022-05-06 12:33:38.820
82.0, -290.87258900376037, -251.0276948758401, -234.12521702609956, -216.53833748446777, 0.12800000607967377, 0.12800000607967377, 1.0240000486373901, 0.0, 0.0, 0.0, 0.0, 0.0, 1.651836818820834E9, 0.0, 2022-05-06 12:33:38.820
83.0, -289.1858941237442, -190.4375756937079, -219.67798349726945, -210.25530555890873, 0.12800000607967377, 0.12800000607967377, 1.0240000486373901, 0.0, 0.0, 0.0, 0.0, 0.0, 1.651836818821834E9, 0.0, 2022-05-06 12:33:38.821
83.0, -220.6447476358153, -62.70877250703052, -122.46302404906601, -152.3504345449619, 0.12800000607967377, 0.12800000607967377, 1.0240000486373901, 0.0, 0.0, 0.0, 0.0, 0.0, 1.651836818821834E9, 0.0, 2022-05-06 12:33:38.821
84.0, -218.5990223600529, -111.76130032585934, -134.04923411179334, -146.59846841311082, 0.12800000607967377, 0.12800000607967377, 1.0240000486373901, 0.0, 0.0, 0.0, 0.0, 0.0, 1.6518368188319328E9, 0.0, 2022-05-06 12:33:38.831
84.0, -285.49835276743397, -245.70207733893767, -233.35105773527175, -216.09328938974068, 0.12800000607967377, 0.12800000607967377, 1.0240000486373901, 0.0, 0.0, 0.0, 0.0, 0.0, 1.6518368188319328E9, 0.0, 2022-05-06 12:33:38.831
85.0, -279.5668714377098, -184.24430136708543, -217.04509392846376, -208.3741358811967, 0.12800000607967377, 0.12800000607967377, 1.0240000486373901, 0.0, 0.0, 0.0, 0.0, 0.0, 1.6518368188629193E9, 0.0, 2022-05-06 12:33:38.862
85.0, -226.0563828716986, -52.9326740228571, -117.64229300618172, -137.1589609249495, 0.12800000607967377, 0.12800000607967377, 1.0240000486373901, 0.0, 0.0, 0.0, 0.0, 0.0, 1.6518368188629193E9, 0.0, 2022-05-06 12:33:38.862
86.0, -229.3175756330602, -120.75201981933787, -141.31585972569883, -169.22860304499045, 0.12800000607967377, 0.12800000607967377, 1.0240000486373901, 0.0, 0.0, 0.0, 0.0, 0.0, 1.651836818863824E9, 0.0, 2022-05-06 12:33:38.863
86.0, -305.084208835382, -255.93070371774957, -245.14670219551772, -235.76890305662528, 0.12800000607967377, 0.12800000607967377, 1.0240000486373901, 0.0, 0.0, 0.0, 0.0, 0.0, 1.651836818863824E9, 0.0, 2022-05-06 12:33:38.863
87.0, -295.1884335526265, -199.7387068835087, -230.43019586987793, -223.3823544033803, 0.12800000607967377, 0.12800000607967377, 1.0240000486373901, 0.0, 0.0, 0.0, 0.0, 0.0, 1.6518368188648288E9, 0.0, 2022-05-06 12:33:38.864
87.0, -217.12924167746678, -56.98672557482496, -118.29303559847176, -134.97859925078228, 0.12800000607967377, 0.12800000607967377, 1.0240000486373901, 0.0, 0.0, 0.0, 0.0, 0.0, 1.6518368188648288E9, 0.0, 2022-05-06 12:33:38.864
88.0, -222.32022281596437, -113.93418220011517, -138.78394745569676, -158.427771972958, 0.12800000607967377, 0.12800000607967377, 1.0240000486373901, 0.0, 0.0, 0.0, 0.0, 0.0, 1.6518368188768747E9, 0.0, 2022-05-06 12:33:38.876
88.0, -295.25575175182894, -251.1398918745108, -239.5929507613182, -237.37706003757194, 0.12800000607967377, 0.12800000607967377, 1.0240000486373901, 0.0, 0.0, 0.0, 0.0, 0.0, 1.6518368188768747E9, 0.0, 2022-05-06 12:33:38.876
89.0, -293.1913269762881, -186.98190813465044, -218.1820235149935, -207.83185038762167, 0.12800000607967377, 0.12800000607967377, 1.0240000486373901, 0.0, 0.0, 0.0, 0.0, 0.0, 1.6518368188918962E9, 0.0, 2022-05-06 12:33:38.891
89.0, -214.91896080365404, -50.44564055232331, -120.90348576754332, -143.20637915330008, 0.12800000607967377, 0.12800000607967377, 1.0240000486373901, 0.0, 0.0, 0.0, 0.0, 0.0, 1.6518368188918962E9, 0.0, 2022-05-06 12:33:38.891
90.0, -216.17182728881016, -112.65139651531354, -133.52938801795244, -152.92263923818246, 0.12800000607967377, 0.12800000607967377, 1.0240000486373901, 0.0, 0.0, 0.0, 0.0, 0.0, 1.6518368188928213E9, 0.0, 2022-05-06 12:33:38.892
90.0, -300.73096528695896, -254.40856443578377, -240.21377415396273, -227.14843365876004, 0.12800000607967377, 0.12800000607967377, 1.0240000486373901, 0.0, 0.0, 0.0, 0.0, 0.0, 1.6518368188928213E9, 0.0, 2022-05-06 12:33:38.892
91.0, -290.83519000420347, -191.45856838161126, -228.2236548960209, -220.17352024139836, 0.12800000607967377, 0.12800000607967377, 1.0240000486373901, 0.0, 0.0, 0.0, 0.0, 0.0, 1.651836818906916E9, 0.0, 2022-05-06 12:33:38.906
91.0, -219.2310654525645, -65.64833387220278, -134.41574430745095, -158.04630217747763, 0.12800000607967377, 0.12800000607967377, 1.0240000486373901, 0.0, 0.0, 0.0, 0.0, 0.0, 1.651836818906916E9, 0.0, 2022-05-06 12:33:38.906
92.0, -233.74187728064135, -130.1129894084297, -148.05515944585204, -165.68317788699642, 0.12800000607967377, 0.12800000607967377, 1.0240000486373901, 0.0, 0.0, 0.0, 0.0, 0.0, 1.651836818921876E9, 0.0, 2022-05-06 12:33:38.921
92.0, -304.8224158384837, -259.9548360700719, -244.51465910300612, -228.55089614214376, 0.12800000607967377, 0.12800000607967377, 1.0240000486373901, 0.0, 0.0, 0.0, 0.0, 0.0, 1.651836818921876E9, 0.0, 2022-05-06 12:33:38.921
93.0, -290.6369753065519, -184.50235446402803, -218.31292001344264, -208.52747177938, 0.12800000607967377, 0.12800000607967377, 1.0240000486373901, 0.0, 0.0, 0.0, 0.0, 0.0, 1.651836818922881E9, 0.0, 2022-05-06 12:33:38.922
93.0, -208.47137328004465, -47.00867249304429, -121.88707945588976, -141.639361071866, 0.12800000607967377, 0.12800000607967377, 1.0240000486373901, 0.0, 0.0, 0.0, 0.0, 0.0, 1.651836818922881E9, 0.0, 2022-05-06 12:33:38.922
94.0, -225.85068837413564, -124.07305097999051, -143.79915329627693, -161.52066923631355, 0.12800000607967377, 0.12800000607967377, 1.0240000486373901, 0.0, 0.0, 0.0, 0.0, 0.0, 1.6518368189368775E9, 0.0, 2022-05-06 12:33:38.936
94.0, -291.06332390150055, -247.37381261913106, -234.15887612570077, -216.7926506814547, 0.12800000607967377, 0.12800000607967377, 1.0240000486373901, 0.0, 0.0, 0.0, 0.0, 0.0, 1.6518368189368775E9, 0.0, 2022-05-06 12:33:38.936
95.0, -286.7811384522356, -180.52684081112966, -217.14981112722307, -201.14490926684812, 0.12800000607967377, 0.12800000607967377, 1.0240000486373901, 0.0, 0.0, 0.0, 0.0, 0.0, 1.6518368189518766E9, 0.0, 2022-05-06 12:33:38.951
95.0, -202.2593994536437, -44.4468410233967, -116.17625222355127, -139.20842610066757, 0.12800000607967377, 0.12800000607967377, 1.0240000486373901, 0.0, 0.0, 0.0, 0.0, 0.0, 1.6518368189518766E9, 0.0, 2022-05-06 12:33:38.951
96.0, -221.51240442553535, -123.81499788304791, -136.248295285739, -159.18323176400736, 0.12800000607967377, 0.12800000607967377, 1.0240000486373901, 0.0, 0.0, 0.0, 0.0, 0.0, 1.6518368189528403E9, 0.0, 2022-05-06 12:33:38.952
96.0, -302.48497836617753, -257.9165905942209, -241.0739511437714, -219.54147714888677, 0.12800000607967377, 0.12800000607967377, 1.0240000486373901, 0.0, 0.0, 0.0, 0.0, 0.0, 1.6518368189528403E9, 0.0, 2022-05-06 12:33:38.952
97.0, -284.32402418134734, -182.4379296884872, -207.59062684047967, -188.20859532011673, 0.12800000607967377, 0.12800000607967377, 1.0240000486373901, 0.0, 0.0, 0.0, 0.0, 0.0, 1.6518368189668698E9, 0.0, 2022-05-06 12:33:38.966
97.0, -200.482946974691, -46.11109650367871, -122.1301729530096, -137.22627912415192, 0.12800000607967377, 0.12800000607967377, 1.0240000486373901, 0.0, 0.0, 0.0, 0.0, 0.0, 1.6518368189668698E9, 0.0, 2022-05-06 12:33:38.966
98.0, -223.0869023068808, -123.35125028854236, -151.8848170004785, -187.0006076344289, 0.12800000607967377, 0.12800000607967377, 1.0240000486373901, 0.0, 0.0, 0.0, 0.0, 0.0, 1.6518368189819233E9, 0.0, 2022-05-06 12:33:38.981
98.0, -311.2737432620488, -256.4468099116348, -246.08915698435158, -235.99329705396667, 0.12800000607967377, 0.12800000607967377, 1.0240000486373901, 0.0, 0.0, 0.0, 0.0, 0.0, 1.6518368189819233E9, 0.0, 2022-05-06 12:33:38.981
99.0, -289.5561442193575, -183.35420517763123, -217.08249292802066, -208.21706008305773, 0.12800000607967377, 0.12800000607967377, 1.0240000486373901, 0.0, 0.0, 0.0, 0.0, 0.0, 1.6518368189828243E9, 0.0, 2022-05-06 12:33:38.982
99.0, -221.68817972345278, -52.712019925471395, -127.51188898924738, -161.47953033680096, 0.12800000607967377, 0.12800000607967377, 1.0240000486373901, 0.0, 0.0, 0.0, 0.0, 0.0, 1.6518368189828243E9, 0.0, 2022-05-06 12:33:38.982
100.0, -236.60290074674413, -132.787017876748, -155.03007286321372, -177.5461405464448, 0.12800000607967377, 0.12800000607967377, 1.0240000486373901, 0.0, 0.0, 0.0, 0.0, 0.0, 1.65183681899691E9, 0.0, 2022-05-06 12:33:38.996
100.0, -305.6825928282924, -254.16547093866393, -245.73760638851672, -220.13238134188578, 0.12800000607967377, 0.12800000607967377, 1.0240000486373901, 0.0, 0.0, 0.0, 0.0, 0.0, 1.65183681899691E9, 0.0, 2022-05-06 12:33:38.996
0.0, -293.8102804189548, -188.62933406513184, -220.16978034144267, -210.56384730525315, 0.12800000607967377, 0.12800000607967377, 1.0240000486373901, 0.0, 0.0, 0.0, 0.0, 0.0, 1.6518368189978712E9, 0.0, 2022-05-06 12:33:38.997
1.0, -207.88233903702348, -53.79472096264362, -121.52617911016569, -151.22659460827708, 0.12800000607967377, 0.12800000607967377, 1.0240000486373901, 0.0, 0.0, 0.0, 0.0, 0.0, 1.651836819011868E9, 0.0, 2022-05-06 12:33:39.011
1.0, -224.56977263931185, -127.96815678384155, -151.1611463590525, -170.42350108083338, 0.12800000607967377, 0.12800000607967377, 1.0240000486373901, 0.0, 0.0, 0.0, 0.0, 0.0, 1.651836819011868E9, 0.0, 2022-05-06 12:33:39.011
2.0, -298.1784835672006, -248.03016506135464, -236.79737554444, -219.07585960440338, 0.12800000607967377, 0.12800000607967377, 1.0240000486373901, 0.0, 0.0, 0.0, 0.0, 0.0, 1.6518368190268912E9, 0.0, 2022-05-06 12:33:39.026
2.0, -275.7540434328839, -179.05519017856568, -215.8202766929753, -207.41485154256225, 0.12800000607967377, 0.12800000607967377, 1.0240000486373901, 0.0, 0.0, 0.0, 0.0, 0.0, 1.6518368190268912E9, 0.0, 2022-05-06 12:33:39.026
3.0, -221.42451677657664, -54.587579753249884, -123.34377048863098, -145.64292397443205, 0.12800000607967377, 0.12800000607967377, 1.0240000486373901, 0.0, 0.0, 0.0, 0.0, 0.0, 1.651836819027846E9, 0.0, 2022-05-06 12:33:39.027
3.0, -228.54154639225453, -124.1684184288606, -137.03554422641173, -150.35893781855702, 0.12800000607967377, 0.12800000607967377, 1.0240000486373901, 0.0, 0.0, 0.0, 0.0, 0.0, 1.651836819027846E9, 0.0, 2022-05-06 12:33:39.027
4.0, -296.89569788239896, -250.65557483024895, -233.45764488400891, -218.2530816141516, 0.12800000607967377, 0.12800000607967377, 1.0240000486373901, 0.0, 0.0, 0.0, 0.0, 0.0, 1.6518368190419009E9, 0.0, 2022-05-06 12:33:39.041
4.0, -285.75453591439873, -178.4904652852565, -214.28691771114245, -214.8011539550498, 0.12800000607967377, 0.12800000607967377, 1.0240000486373901, 0.0, 0.0, 0.0, 0.0, 0.0, 1.6518368190419009E9, 0.0, 2022-05-06 12:33:39.041
5.0, -215.24246214982122, -52.01826848369092, -116.71292786719278, -154.31949187163264, 0.12800000607967377, 0.12800000607967377, 1.0240000486373901, 0.0, 0.0, 0.0, 0.0, 0.0, 1.6518368190568848E9, 0.0, 2022-05-06 12:33:39.056
5.0, -217.82673301920295, -119.07841458916664, -136.9757058271207, -149.12851073313504, 0.12800000607967377, 0.12800000607967377, 1.0240000486373901, 0.0, 0.0, 0.0, 0.0, 0.0, 1.6518368190568848E9, 0.0, 2022-05-06 12:33:39.056
6.0, -295.1304651033133, -248.4901727559045, -241.34509389055893, -211.86159258987755, 0.12800000607967377, 0.12800000607967377, 1.0240000486373901, 0.0, 0.0, 0.0, 0.0, 0.0, 1.6518368190578575E9, 0.0, 2022-05-06 12:33:39.057
6.0, -285.79193491395563, -184.99789120815694, -220.39043443882838, -210.8405999019742, 0.12800000607967377, 0.12800000607967377, 1.0240000486373901, 0.0, 0.0, 0.0, 0.0, 0.0, 1.6518368190578575E9, 0.0, 2022-05-06 12:33:39.057
7.0, -218.585932710208, -48.528941825032234, -119.80208523059264, -150.2953595193103, 0.12800000607967377, 0.12800000607967377, 1.0240000486373901, 0.0, 0.0, 0.0, 0.0, 0.0, 1.6518368190718737E9, 0.0, 2022-05-06 12:33:39.071
7.0, -225.71792192570865, -125.04729491844773, -144.87811443349347, -153.0329662868753, 0.12800000607967377, 0.12800000607967377, 1.0240000486373901, 0.0, 0.0, 0.0, 0.0, 0.0, 1.6518368190718737E9, 0.0, 2022-05-06 12:33:39.071
8.0, -298.86662515904754, -249.64580184221268, -237.23120393930003, -231.09589806199074, 0.12800000607967377, 0.12800000607967377, 1.0240000486373901, 0.0, 0.0, 0.0, 0.0, 0.0, 1.6518368190868745E9, 0.0, 2022-05-06 12:33:39.086
8.0, -282.82245434913784, -183.03070383146405, -219.09642905415967, -213.92975726537406, 0.12800000607967377, 0.12800000607967377, 1.0240000486373901, 0.0, 0.0, 0.0, 0.0, 0.0, 1.6518368190868745E9, 0.0, 2022-05-06 12:33:39.086
9.0, -222.92795655876398, -52.541854477487504, -124.56297787418589, -148.37305094208568, 0.12800000607967377, 0.12800000607967377, 1.0240000486373901, 0.0, 0.0, 0.0, 0.0, 0.0, 1.6518368190878348E9, 0.0, 2022-05-06 12:33:39.087
9.0, -226.98574801068753, -130.61600595247, -145.22592512937263, -157.45352803450078, 0.12800000607967377, 0.12800000607967377, 1.0240000486373901, 0.0, 0.0, 0.0, 0.0, 0.0, 1.6518368190878348E9, 0.0, 2022-05-06 12:33:39.087
10.0, -300.79267363622785, -255.28557097539306, -241.464770689141, -235.53515930939466, 0.12800000607967377, 0.12800000607967377, 1.0240000486373901, 0.0, 0.0, 0.0, 0.0, 0.0, 1.6518368191018584E9, 0.0, 2022-05-06 12:33:39.101
10.0, -288.86613267753273, -187.36898778006434, -222.0172909195535, -216.24101543799043, 0.12800000607967377, 0.12800000607967377, 1.0240000486373901, 0.0, 0.0, 0.0, 0.0, 0.0, 1.6518368191018584E9, 0.0, 2022-05-06 12:33:39.101
11.0, -214.23268916178495, -51.53582138940692, -120.42290862323716, -148.2159751439467, 0.12800000607967377, 0.12800000607967377, 1.0240000486373901, 0.0, 0.0, 0.0, 0.0, 0.0, 1.6518368191168816E9, 0.0, 2022-05-06 12:33:39.116
11.0, -229.2895263833925, -125.7616158099845, -148.9770447849296, -161.42530178744346, 0.12800000607967377, 0.12800000607967377, 1.0240000486373901, 0.0, 0.0, 0.0, 0.0, 0.0, 1.6518368191168816E9, 0.0, 2022-05-06 12:33:39.116
12.0, -300.8899110350758, -261.40404730290174, -245.167271645274, -232.15428974945098, 0.12800000607967377, 0.12800000607967377, 1.0240000486373901, 0.0, 0.0, 0.0, 0.0, 0.0, 1.6518368191178324E9, 0.0, 2022-05-06 12:33:39.117
12.0, -286.2407229086384, -177.99305859114975, -211.84102314012125, -197.9790839543566, 0.12800000607967377, 0.12800000607967377, 1.0240000486373901, 0.0, 0.0, 0.0, 0.0, 0.0, 1.6518368191178324E9, 0.0, 2022-05-06 12:33:39.117
13.0, -216.5850862339139, -52.74006917513907, -126.94903404591605, -149.27436683140695, 0.12800000607967377, 0.12800000607967377, 1.0240000486373901, 0.0, 0.0, 0.0, 0.0, 0.0, 1.651836819131883E9, 0.0, 2022-05-06 12:33:39.131
13.0, -229.86547097656876, -127.73254308663309, -146.9350594091229, -165.58407053817064, 0.12800000607967377, 0.12800000607967377, 1.0240000486373901, 0.0, 0.0, 0.0, 0.0, 0.0, 1.651836819131883E9, 0.0, 2022-05-06 12:33:39.131
14.0, -295.6615308970213, -255.20329317636788, -238.77578262099996, -218.7355287084356, 0.12800000607967377, 0.12800000607967377, 1.0240000486373901, 0.0, 0.0, 0.0, 0.0, 0.0, 1.651836819146868E9, 0.0, 2022-05-06 12:33:39.146
14.0, -271.93186567816883, -170.86480927560478, -200.36327017610893, -187.70557877607644, 0.12800000607967377, 0.12800000607967377, 1.0240000486373901, 0.0, 0.0, 0.0, 0.0, 0.0, 1.651836819146868E9, 0.0, 2022-05-06 12:33:39.146
15.0, -205.9114117603749, -43.99618307873607, -115.64331647986546, -139.16167735122144, 0.12800000607967377, 0.12800000607967377, 1.0240000486373901, 0.0, 0.0, 0.0, 0.0, 0.0, 1.6518368191478636E9, 0.0, 2022-05-06 12:33:39.147
15.0, -226.71273531392217, -133.37231221981347, -158.14353957632557, -179.31324327550828, 0.12800000607967377, 0.12800000607967377, 1.0240000486373901, 0.0, 0.0, 0.0, 0.0, 0.0, 1.6518368191478636E9, 0.0, 2022-05-06 12:33:39.147
16.0, -299.1321580559015, -259.9716656198725, -239.69953791005537, -229.8841704763472, 0.12800000607967377, 0.12800000607967377, 1.0240000486373901, 0.0, 0.0, 0.0, 0.0, 0.0, 1.65183681916188E9, 0.0, 2022-05-06 12:33:39.161
16.0, -288.97458977624774, -186.43401279114187, -214.88530170405284, -206.22930325660855, 0.12800000607967377, 0.12800000607967377, 1.0240000486373901, 0.0, 0.0, 0.0, 0.0, 0.0, 1.65183681916188E9, 0.0, 2022-05-06 12:33:39.161
17.0, -200.8737665200606, -43.10608688928187, -108.12611756892875, -128.05417448282242, 0.12800000607967377, 0.12800000607967377, 1.0240000486373901, 0.0, 0.0, 0.0, 0.0, 0.0, 1.6518368191768675E9, 0.0, 2022-05-06 12:33:39.176
17.0, -211.53622129373252, -109.54540960211307, -127.32302404148504, -131.44626374263316, 0.12800000607967377, 0.12800000607967377, 1.0240000486373901, 0.0, 0.0, 0.0, 0.0, 0.0, 1.6518368191768675E9, 0.0, 2022-05-06 12:33:39.176
18.0, -283.8733662366867, -242.2221004301682, -235.52580955950543, -223.0289338575676, 0.12800000607967377, 0.12800000607967377, 1.0240000486373901, 0.0, 0.0, 0.0, 0.0, 0.0, 1.6518368191778224E9, 0.0, 2022-05-06 12:33:39.177
18.0, -278.3570138020441, -176.66913400683552, -204.9259481220506, -208.18153103347868, 0.12800000607967377, 0.12800000607967377, 1.0240000486373901, 0.0, 0.0, 0.0, 0.0, 0.0, 1.6518368191778224E9, 0.0, 2022-05-06 12:33:39.177
19.0, -209.251142420806, -50.67564439959824, -113.06278551043943, -142.1386377159506, 0.12800000607967377, 0.12800000607967377, 1.0240000486373901, 0.0, 0.0, 0.0, 0.0, 0.0, 1.6518368191918828E9, 0.0, 2022-05-06 12:33:39.191
19.0, -239.26757946517318, -136.27073468547314, -161.68148493440822, -182.74273153487593, 0.12800000607967377, 0.12800000607967377, 1.0240000486373901, 0.0, 0.0, 0.0, 0.0, 0.0, 1.6518368191918828E9, 0.0, 2022-05-06 12:33:39.191
20.0, -295.78494759555906, -252.7461789054796, -242.22397038014606, -228.82203888893127, 0.12800000607967377, 0.12800000607967377, 1.0240000486373901, 0.0, 0.0, 0.0, 0.0, 0.0, 1.6518368192069175E9, 0.0, 2022-05-06 12:33:39.206
20.0, -275.48477063607424, -178.03419749066234, -213.58755641942844, -205.08863377012312, 0.12800000607967377, 0.12800000607967377, 1.0240000486373901, 0.0, 0.0, 0.0, 0.0, 0.0, 1.6518368192069175E9, 0.0, 2022-05-06 12:33:39.206
21.0, -211.74191579129547, -57.747795215807855, -125.21746036643162, -152.02693319879472, 0.12800000607967377, 0.12800000607967377, 1.0240000486373901, 0.0, 0.0, 0.0, 0.0, 0.0, 1.651836819207838E9, 0.0, 2022-05-06 12:33:39.207
21.0, -233.14162333775312, -137.68067696876824, -152.73564424039796, -158.1528893262148, 0.12800000607967377, 0.12800000607967377, 1.0240000486373901, 0.0, 0.0, 0.0, 0.0, 0.0, 1.651836819207838E9, 0.0, 2022-05-06 12:33:39.207
22.0, -303.4068637052551, -257.0545436544344, -239.04505541780964, -221.64517087396234, 0.12800000607967377, 0.12800000607967377, 1.0240000486373901, 0.0, 0.0, 0.0, 0.0, 0.0, 1.6518368192378812E9, 0.0, 2022-05-06 12:33:39.237
22.0, -286.0574678108096, -178.12769498955458, -218.90943405637518, -213.30893387272954, 0.12800000607967377, 0.12800000607967377, 1.0240000486373901, 0.0, 0.0, 0.0, 0.0, 0.0, 1.6518368192378812E9, 0.0, 2022-05-06 12:33:39.237
23.0, -211.7306960914284, -48.061454330570996, -120.74827991938218, -146.2936665667221, 0.12800000607967377, 0.12800000607967377, 1.0240000486373901, 0.0, 0.0, 0.0, 0.0, 0.0, 1.6518368192388153E9, 0.0, 2022-05-06 12:33:39.238
23.0, -227.26624050736427, -123.34190053865314, -151.348141356837, -167.64475541375577, 0.12800000607967377, 0.12800000607967377, 1.0240000486373901, 0.0, 0.0, 0.0, 0.0, 0.0, 1.6518368192388153E9, 0.0, 2022-05-06 12:33:39.238
24.0, -297.38562477659434, -260.207279317081, -242.0631546820514, -222.74470146093518, 0.12800000607967377, 0.12800000607967377, 1.0240000486373901, 0.0, 0.0, 0.0, 0.0, 0.0, 1.65183681923988E9, 0.0, 2022-05-06 12:33:39.239
24.0, -274.85646744351834, -174.03250453807414, -204.32756412914023, -192.49265071935952, 0.12800000607967377, 0.12800000607967377, 1.0240000486373901, 0.0, 0.0, 0.0, 0.0, 0.0, 1.65183681923988E9, 0.0, 2022-05-06 12:33:39.239
25.0, -206.71549025084823, -51.16183139383793, -119.63752963254228, -146.9257096592337, 0.12800000607967377, 0.12800000607967377, 1.0240000486373901, 0.0, 0.0, 0.0, 0.0, 0.0, 1.6518368192518687E9, 0.0, 2022-05-06 12:33:39.251
25.0, -228.86317778844386, -129.99518255982548, -147.36514790402725, -163.54956496227533, 0.12800000607967377, 0.12800000607967377, 1.0240000486373901, 0.0, 0.0, 0.0, 0.0, 0.0, 1.6518368192518687E9, 0.0, 2022-05-06 12:33:39.251
26.0, -292.2507421374321, -254.87792188022286, -241.25533629162237, -214.12423206306994, 0.12800000607967377, 0.12800000607967377, 1.0240000486373901, 0.0, 0.0, 0.0, 0.0, 0.0, 1.651836819266914E9, 0.0, 2022-05-06 12:33:39.266
26.0, -286.22950320877135, -179.62365497183055, -223.25145790493116, -208.60039982851595, 0.12800000607967377, 0.12800000607967377, 1.0240000486373901, 0.0, 0.0, 0.0, 0.0, 0.0, 1.651836819266914E9, 0.0, 2022-05-06 12:33:39.266
27.0, -202.5081028006971, -48.03153513092548, -113.87434380082414, -145.45218907669187, 0.12800000607967377, 0.12800000607967377, 1.0240000486373901, 0.0, 0.0, 0.0, 0.0, 0.0, 1.6518368192678485E9, 0.0, 2022-05-06 12:33:39.267
27.0, -214.67025745660067, -125.2455096160993, -140.47999208560213, -154.9216157644987, 0.12800000607967377, 0.12800000607967377, 1.0240000486373901, 0.0, 0.0, 0.0, 0.0, 0.0, 1.6518368192678485E9, 0.0, 2022-05-06 12:33:39.267
28.0, -296.9592761816457, -251.95706001482904, -240.12588650500402, -217.86039211880416, 0.12800000607967377, 0.12800000607967377, 1.0240000486373901, 0.0, 0.0, 0.0, 0.0, 0.0, 1.651836819281872E9, 0.0, 2022-05-06 12:33:39.281
28.0, -281.82016116101295, -180.48009206168354, -213.65861451858655, -209.90188501309603, 0.12800000607967377, 0.12800000607967377, 1.0240000486373901, 0.0, 0.0, 0.0, 0.0, 0.0, 1.651836819281872E9, 0.0, 2022-05-06 12:33:39.281
29.0, -200.9149054195732, -48.75707572232932, -124.91826836997643, -148.19727564416826, 0.12800000607967377, 0.12800000607967377, 1.0240000486373901, 0.0, 0.0, 0.0, 0.0, 0.0, 1.651836819296872E9, 0.0, 2022-05-06 12:33:39.296
29.0, -228.7397610899061, -136.4764291830361, -149.52681007841602, -177.70882619451731, 0.12800000607967377, 0.12800000607967377, 1.0240000486373901, 0.0, 0.0, 0.0, 0.0, 0.0, 1.651836819296872E9, 0.0, 2022-05-06 12:33:39.296
30.0, -302.59904531482607, -257.1929199527949, -245.05133474664763, -222.89055755920708, 0.12800000607967377, 0.12800000607967377, 1.0240000486373901, 0.0, 0.0, 0.0, 0.0, 0.0, 1.6518368192978415E9, 0.0, 2022-05-06 12:33:39.297
30.0, -285.56380101665854, -187.04361648391932, -220.15108084166422, -206.30036135576665, 0.12800000607967377, 0.12800000607967377, 1.0240000486373901, 0.0, 0.0, 0.0, 0.0, 0.0, 1.6518368192978415E9, 0.0, 2022-05-06 12:33:39.297
31.0, -201.70028441026807, -44.908718667924404, -112.29984591947868, -129.51273546554148, 0.12800000607967377, 0.12800000607967377, 1.0240000486373901, 0.0, 0.0, 0.0, 0.0, 0.0, 1.651836819327875E9, 0.0, 2022-05-06 12:33:39.327
31.0, -211.12857219856232, -123.37555963825434, -138.91297400416806, -154.31201207172126, 0.12800000607967377, 0.12800000607967377, 1.0240000486373901, 0.0, 0.0, 0.0, 0.0, 0.0, 1.651836819327875E9, 0.0, 2022-05-06 12:33:39.327
32.0, -295.4371368996799, -255.33792957477272, -239.74815660947934, -228.2161750961095, 0.12800000607967377, 0.12800000607967377, 1.0240000486373901, 0.0, 0.0, 0.0, 0.0, 0.0, 1.6518368193288171E9, 0.0, 2022-05-06 12:33:39.328
32.0, -282.93465134780854, -176.3774218102917, -215.33782959869131, -212.56469378154725, 0.12800000607967377, 0.12800000607967377, 1.0240000486373901, 0.0, 0.0, 0.0, 0.0, 0.0, 1.6518368193288171E9, 0.0, 2022-05-06 12:33:39.328
33.0, -214.16537096258253, -61.86916496697813, -128.2991379299201, -162.49491317477077, 0.12800000607967377, 0.12800000607967377, 1.0240000486373901, 0.0, 0.0, 0.0, 0.0, 0.0, 1.651836819329847E9, 0.0, 2022-05-06 12:33:39.329
33.0, -242.7456864239648, -146.4058635653928, -159.8003152566962, -179.61617517191917, 0.12800000607967377, 0.12800000607967377, 1.0240000486373901, 0.0, 0.0, 0.0, 0.0, 0.0, 1.651836819329847E9, 0.0, 2022-05-06 12:33:39.329
34.0, -298.6310114618391, -255.09109617769718, -235.66044595791027, -218.5522736106068, 0.12800000607967377, 0.12800000607967377, 1.0240000486373901, 0.0, 0.0, 0.0, 0.0, 0.0, 1.6518368193418763E9, 0.0, 2022-05-06 12:33:39.341
34.0, -282.0221157586202, -176.1904268125072, -208.86406277539209, -202.38468610215932, 0.12800000607967377, 0.12800000607967377, 1.0240000486373901, 0.0, 0.0, 0.0, 0.0, 0.0, 1.6518368193418763E9, 0.0, 2022-05-06 12:33:39.341
35.0, -208.6527584278956, -50.155798305757344, -119.95168122882023, -140.27242763806134, 0.12800000607967377, 0.12800000607967377, 1.0240000486373901, 0.0, 0.0, 0.0, 0.0, 0.0, 1.6518368193569307E9, 0.0, 2022-05-06 12:33:39.356
35.0, -225.0372601337731, -133.31247382052243, -149.02940338430926, -167.9663868099451, 0.12800000607967377, 0.12800000607967377, 1.0240000486373901, 0.0, 0.0, 0.0, 0.0, 0.0, 1.6518368193569307E9, 0.0, 2022-05-06 12:33:39.356
36.0, -302.7262019133195, -260.5700496127829, -249.93938398873433, -231.89997655246407, 0.12800000607967377, 0.12800000607967377, 1.0240000486373901, 0.0, 0.0, 0.0, 0.0, 0.0, 1.6518368193578212E9, 0.0, 2022-05-06 12:33:39.357
36.0, -293.4400303233415, -185.1624468062073, -223.54691000143066, -222.6212847623974, 0.12800000607967377, 0.12800000607967377, 1.0240000486373901, 0.0, 0.0, 0.0, 0.0, 0.0, 1.6518368193578212E9, 0.0, 2022-05-06 12:33:39.357
37.0, -215.20880305022, -55.80678713880479, -128.7479259246029, -153.76598667819053, 0.12800000607967377, 0.12800000607967377, 1.0240000486373901, 0.0, 0.0, 0.0, 0.0, 0.0, 1.651836819387877E9, 0.0, 2022-05-06 12:33:39.387
37.0, -230.1871023727581, -138.21922256238759, -155.97439760202542, -171.17148107197136, 0.12800000607967377, 0.12800000607967377, 1.0240000486373901, 0.0, 0.0, 0.0, 0.0, 0.0, 1.651836819387877E9, 0.0, 2022-05-06 12:33:39.387
38.0, -298.74694836046547, -256.40006116218865, -240.81402809685096, -224.7418080372736, 0.12800000607967377, 0.12800000607967377, 1.0240000486373901, 0.0, 0.0, 0.0, 0.0, 0.0, 1.651836819388837E9, 0.0, 2022-05-06 12:33:39.388
38.0, -269.8599611027166, -168.50119250360876, -197.1170370145701, -188.20672537013888, 0.12800000607967377, 0.12800000607967377, 1.0240000486373901, 0.0, 0.0, 0.0, 0.0, 0.0, 1.651836819388837E9, 0.0, 2022-05-06 12:33:39.388
39.0, -204.3518734788522, -42.14119270071387, -105.71762199746445, -130.94137724861503, 0.12800000607967377, 0.12800000607967377, 1.0240000486373901, 0.0, 0.0, 0.0, 0.0, 0.0, 1.6518368193898227E9, 0.0, 2022-05-06 12:33:39.389
39.0, -227.90576339978725, -133.27507482096553, -152.13726024748757, -173.744532241486, 0.12800000607967377, 0.12800000607967377, 1.0240000486373901, 0.0, 0.0, 0.0, 0.0, 0.0, 1.6518368193898227E9, 0.0, 2022-05-06 12:33:39.389
40.0, -304.23712149541825, -253.84944939240813, -242.64283917518333, -235.31824511196464, 0.12800000607967377, 0.12800000607967377, 1.0240000486373901, 0.0, 0.0, 0.0, 0.0, 0.0, 1.651836819401855E9, 0.0, 2022-05-06 12:33:39.401
40.0, -279.44532468914986, -177.29369729943573, -214.2270793118514, -205.32798736728728, 0.12800000607967377, 0.12800000607967377, 1.0240000486373901, 0.0, 0.0, 0.0, 0.0, 0.0, 1.651836819401855E9, 0.0, 2022-05-06 12:33:39.401
41.0, -209.29602122027427, -52.870965673588216, -124.56671777414158, -152.8833702886477, 0.12800000607967377, 0.12800000607967377, 1.0240000486373901, 0.0, 0.0, 0.0, 0.0, 0.0, 1.6518368194338834E9, 0.0, 2022-05-06 12:33:39.433
41.0, -236.12980340234935, -140.72121563274413, -159.6918581579812, -181.66938024759293, 0.12800000607967377, 0.12800000607967377, 1.0240000486373901, 0.0, 0.0, 0.0, 0.0, 0.0, 1.6518368194338834E9, 0.0, 2022-05-06 12:33:39.433
42.0, -301.2190222311765, -260.8655017092824, -245.29068834381178, -225.2953132307157, 0.12800000607967377, 0.12800000607967377, 1.0240000486373901, 0.0, 0.0, 0.0, 0.0, 0.0, 1.6518368194348283E9, 0.0, 2022-05-06 12:33:39.434
42.0, -281.4386913655326, -175.6406615190208, -209.7130200653337, -198.74950334522873, 0.12800000607967377, 0.12800000607967377, 1.0240000486373901, 0.0, 0.0, 0.0, 0.0, 0.0, 1.6518368194348283E9, 0.0, 2022-05-06 12:33:39.434
43.0, -207.54948794096708, -46.56175444833934, -115.17956888535991, -151.01342031080276, 0.12800000607967377, 0.12800000607967377, 1.0240000486373901, 0.0, 0.0, 0.0, 0.0, 0.0, 1.6518368194358258E9, 0.0, 2022-05-06 12:33:39.435
43.0, -221.30857987795025, -128.89939187280834, -147.55962270172313, -158.47452072240412, 0.12800000607967377, 0.12800000607967377, 1.0240000486373901, 0.0, 0.0, 0.0, 0.0, 0.0, 1.6518368194358258E9, 0.0, 2022-05-06 12:33:39.435
44.0, -298.15978406742215, -263.32635588012636, -257.46032279962674, -244.35758330486715, 0.12800000607967377, 0.12800000607967377, 1.0240000486373901, 0.0, 0.0, 0.0, 0.0, 0.0, 1.651836819436867E9, 0.0, 2022-05-06 12:33:39.436
44.0, -279.85671368427575, -173.21346644777805, -213.27714472310618, -210.56384730525315, 0.12800000607967377, 0.12800000607967377, 1.0240000486373901, 0.0, 0.0, 0.0, 0.0, 0.0, 1.651836819436867E9, 0.0, 2022-05-06 12:33:39.436
45.0, -223.83301234804094, -61.813066467642784, -125.34461696492508, -152.4046630943194, 0.12800000607967377, 0.12800000607967377, 1.0240000486373901, 0.0, 0.0, 0.0, 0.0, 0.0, 1.65183681944687E9, 0.0, 2022-05-06 12:33:39.446
45.0, -243.31415121722966, -151.1106577096507, -167.82614056160673, -183.46453222632408, 0.12800000607967377, 0.12800000607967377, 1.0240000486373901, 0.0, 0.0, 0.0, 0.0, 0.0, 1.65183681944687E9, 0.0, 2022-05-06 12:33:39.446
46.0, -305.42640968132764, -265.32346245646477, -254.89849132997915, -231.30907235946506, 0.12800000607967377, 0.12800000607967377, 1.0240000486373901, 0.0, 0.0, 0.0, 0.0, 0.0, 1.6518368194618917E9, 0.0, 2022-05-06 12:33:39.461
46.0, -284.78590182587504, -189.47455145511776, -221.72931862296537, -212.49737558234483, 0.12800000607967377, 0.12800000607967377, 1.0240000486373901, 0.0, 0.0, 0.0, 0.0, 0.0, 1.6518368194618917E9, 0.0, 2022-05-06 12:33:39.461
47.0, -207.82250063773245, -51.46102339029312, -121.75805290741846, -145.70650227367878, 0.12800000607967377, 0.12800000607967377, 1.0240000486373901, 0.0, 0.0, 0.0, 0.0, 0.0, 1.65183681947693E9, 0.0, 2022-05-06 12:33:39.476
47.0, -215.1788838505745, -129.33322026766837, -147.0921352072619, -165.61772963777184, 0.12800000607967377, 0.12800000607967377, 1.0240000486373901, 0.0, 0.0, 0.0, 0.0, 0.0, 1.65183681947693E9, 0.0, 2022-05-06 12:33:39.476
48.0, -287.37765249516815, -245.9320811862126, -225.33832208020613, -198.88787964358926, 0.12800000607967377, 0.12800000607967377, 1.0240000486373901, 0.0, 0.0, 0.0, 0.0, 0.0, 1.651836819477841E9, 0.0, 2022-05-06 12:33:39.477
48.0, -261.5349438013509, -158.86721021775156, -197.8163983062841, -185.62993430066854, 0.12800000607967377, 0.12800000607967377, 1.0240000486373901, 0.0, 0.0, 0.0, 0.0, 0.0, 1.651836819477841E9, 0.0, 2022-05-06 12:33:39.477
49.0, -212.0672870874405, -49.55741431284696, -120.42290862323716, -155.50130025763065, 0.12800000607967377, 0.12800000607967377, 1.0240000486373901, 0.0, 0.0, 0.0, 0.0, 0.0, 1.6518368194919276E9, 0.0, 2022-05-06 12:33:39.491
49.0, -220.6952362852171, -124.1684184288606, -141.09707557829097, -144.72664848528802, 0.12800000607967377, 0.12800000607967377, 1.0240000486373901, 0.0, 0.0, 0.0, 0.0, 0.0, 1.6518368194919276E9, 0.0, 2022-05-06 12:33:39.491
50.0, -285.2047706209123, -249.6046629427001, -239.79303540894762, -224.33789884205908, 0.12800000607967377, 0.12800000607967377, 1.0240000486373901, 0.0, 0.0, 0.0, 0.0, 0.0, 1.6518368195068755E9, 0.0, 2022-05-06 12:33:39.506
50.0, -286.15844510961324, -179.94902626797557, -220.599868836347, -226.94086921121925, 0.12800000607967377, 0.12800000607967377, 1.0240000486373901, 0.0, 0.0, 0.0, 0.0, 0.0, 1.6518368195068755E9, 0.0, 2022-05-06 12:33:39.506
51.0, -213.93723706528544, -52.79990757443011, -122.52847229829058, -151.5519659044221, 0.12800000607967377, 0.12800000607967377, 1.0240000486373901, 0.0, 0.0, 0.0, 0.0, 0.0, 1.6518368195078244E9, 0.0, 2022-05-06 12:33:39.507
51.0, -233.2949592359364, -138.74654845613986, -151.34066155692562, -174.09982273727655, 0.12800000607967377, 0.12800000607967377, 1.0240000486373901, 0.0, 0.0, 0.0, 0.0, 0.0, 1.6518368195078244E9, 0.0, 2022-05-06 12:33:39.507
52.0, -297.7783142719418, -258.39342783857137, -240.0959673053585, -222.57640596292913, 0.12800000607967377, 0.12800000607967377, 1.0240000486373901, 0.0, 0.0, 0.0, 0.0, 0.0, 1.6518368195378995E9, 0.0, 2022-05-06 12:33:39.537
52.0, -269.1381604112685, -168.04866460897028, -200.16505547845736, -191.8344283271581, 0.12800000607967377, 0.12800000607967377, 1.0240000486373901, 0.0, 0.0, 0.0, 0.0, 0.0, 1.6518368195378995E9, 0.0, 2022-05-06 12:33:39.537
53.0, -194.58325479459018, -39.87855322752148, -95.37305872002617, -115.757383428514, 0.12800000607967377, 0.12800000607967377, 1.0240000486373901, 0.0, 0.0, 0.0, 0.0, 0.0, 1.6518368195388317E9, 0.0, 2022-05-06 12:33:39.538
53.0, -215.0629469519481, -124.30305482726544, -140.98113867966458, -147.87190434802324, 0.12800000607967377, 0.12800000607967377, 1.0240000486373901, 0.0, 0.0, 0.0, 0.0, 0.0, 1.6518368195388317E9, 0.0, 2022-05-06 12:33:39.538
54.0, -288.34254668373615, -253.86814889218658, -238.34195422613993, -224.49123474024236, 0.12800000607967377, 0.12800000607967377, 1.0240000486373901, 0.0, 0.0, 0.0, 0.0, 0.0, 1.6518368195398316E9, 0.0, 2022-05-06 12:33:39.539
54.0, -256.4598995614797, -162.06108477991074, -197.17687541386113, -190.48806434310973, 0.12800000607967377, 0.12800000607967377, 1.0240000486373901, 0.0, 0.0, 0.0, 0.0, 0.0, 1.6518368195398316E9, 0.0, 2022-05-06 12:33:39.539
55.0, -192.8666407149285, -40.12538662459701, -115.99486707570031, -145.1455172803253, 0.12800000607967377, 0.12800000607967377, 1.0240000486373901, 0.0, 0.0, 0.0, 0.0, 0.0, 1.6518368195518732E9, 0.0, 2022-05-06 12:33:39.551
55.0, -225.1045783329755, -130.77682165056467, -143.62524794833735, -161.17472849041224, 0.12800000607967377, 0.12800000607967377, 1.0240000486373901, 0.0, 0.0, 0.0, 0.0, 0.0, 1.6518368195518732E9, 0.0, 2022-05-06 12:33:39.551
56.0, -302.38587101735175, -259.7921504219994, -241.03468219423667, -214.99188885279, 0.12800000607967377, 0.12800000607967377, 1.0240000486373901, 0.0, 0.0, 0.0, 0.0, 0.0, 1.6518368195668616E9, 0.0, 2022-05-06 12:33:39.566
56.0, -265.2075255578384, -159.13648301456124, -203.51600583875552, -198.62608664669096, 0.12800000607967377, 0.12800000607967377, 1.0240000486373901, 0.0, 0.0, 0.0, 0.0, 0.0, 1.6518368195668616E9, 0.0, 2022-05-06 12:33:39.566
57.0, -196.47564417216927, -42.56380139570683, -107.71098867384717, -136.36797208432108, 0.12800000607967377, 0.12800000607967377, 1.0240000486373901, 0.0, 0.0, 0.0, 0.0, 0.0, 1.6518368195678272E9, 0.0, 2022-05-06 12:33:39.567
57.0, -224.8876641355455, -137.34034607280046, -148.3524814923294, -162.4126353757456, 0.12800000607967377, 0.12800000607967377, 1.0240000486373901, 0.0, 0.0, 0.0, 0.0, 0.0, 1.6518368195678272E9, 0.0, 2022-05-06 12:33:39.567
58.0, -298.71702916081995, -260.6111885122955, -244.83068064926192, -223.05511315725744, 0.12800000607967377, 0.12800000607967377, 1.0240000486373901, 0.0, 0.0, 0.0, 0.0, 0.0, 1.6518368195819497E9, 0.0, 2022-05-06 12:33:39.581
58.0, -265.95550554897636, -166.4891263274476, -202.9625006453134, -197.56021515931934, 0.12800000607967377, 0.12800000607967377, 1.0240000486373901, 0.0, 0.0, 0.0, 0.0, 0.0, 1.6518368195819497E9, 0.0, 2022-05-06 12:33:39.581
59.0, -211.96630978863686, -52.7662484748289, -121.8552903062664, -153.1489031855017, 0.12800000607967377, 0.12800000607967377, 1.0240000486373901, 0.0, 0.0, 0.0, 0.0, 0.0, 1.6518368195968657E9, 0.0, 2022-05-06 12:33:39.596
59.0, -237.43128858692944, -145.3250324781984, -158.99623676622286, -171.36221596971154, 0.12800000607967377, 0.12800000607967377, 1.0240000486373901, 0.0, 0.0, 0.0, 0.0, 0.0, 1.6518368195968657E9, 0.0, 2022-05-06 12:33:39.596
60.0, -298.6609306614846, -260.77948401030153, -246.2518426324241, -230.4451554697007, 0.12800000607967377, 0.12800000607967377, 1.0240000486373901, 0.0, 0.0, 0.0, 0.0, 0.0, 1.6518368195978897E9, 0.0, 2022-05-06 12:33:39.597
60.0, -266.1985990460962, -162.09474387951195, -200.99531326862052, -190.6451401412487, 0.12800000607967377, 0.12800000607967377, 1.0240000486373901, 0.0, 0.0, 0.0, 0.0, 0.0, 1.6518368195978897E9, 0.0, 2022-05-06 12:33:39.597
61.0, -192.02890312485397, -38.77902264054865, -103.62701792223379, -135.6611309926957, 0.12800000607967377, 0.12800000607967377, 1.0240000486373901, 0.0, 0.0, 0.0, 0.0, 0.0, 1.6518368196119344E9, 0.0, 2022-05-06 12:33:39.611
61.0, -218.30170031357557, -130.3579528555274, -143.0156442555599, -162.19946107827127, 0.12800000607967377, 0.12800000607967377, 1.0240000486373901, 0.0, 0.0, 0.0, 0.0, 0.0, 1.6518368196119344E9, 0.0, 2022-05-06 12:33:39.611
62.0, -290.22745626140386, -252.64520160667598, -235.58190805884078, -214.29626746103168, 0.12800000607967377, 0.12800000607967377, 1.0240000486373901, 0.0, 0.0, 0.0, 0.0, 0.0, 1.6518368196268995E9, 0.0, 2022-05-06 12:33:39.626
62.0, -278.0166829060763, -168.1533818077296, -209.39138866914436, -202.45574420131743, 0.12800000607967377, 0.12800000607967377, 1.0240000486373901, 0.0, 0.0, 0.0, 0.0, 0.0, 1.6518368196268995E9, 0.0, 2022-05-06 12:33:39.626
63.0, -193.54356260690838, -46.24760285206139, -114.54004599293694, -141.3644784251228, 0.12800000607967377, 0.12800000607967377, 1.0240000486373901, 0.0, 0.0, 0.0, 0.0, 0.0, 1.6518368196278398E9, 0.0, 2022-05-06 12:33:39.627
63.0, -212.40387808345258, -126.81626759748906, -130.3411233057268, -144.57705248706043, 0.12800000607967377, 0.12800000607967377, 1.0240000486373901, 0.0, 0.0, 0.0, 0.0, 0.0, 1.6518368196278398E9, 0.0, 2022-05-06 12:33:39.627
