%OpenBCI Raw EEG Data
%Number of channels = 4
%Sample Rate = 200 Hz
%Board = OpenBCI_GUI$BoardGanglionBLE
Sample Index, EXG Channel 0, EXG Channel 1, EXG Channel 2, EXG Channel 3, Accel Channel 0, Accel Channel 1, Accel Channel 2, Other, Other, Other, Other, Other, Timestamp, Other, Timestamp (Formatted)
25.0, -0.8564370898529887, 21.78491724189371, 4.8917891420423985, 6.3391304248943925, 0.0, 0.0, 0.0, 0.0, 0.0, 0.0, 0.0, 0.0, 1.6518368410997982E9, 0.0, 2022-05-06 12:34:01.099
25.0, -212.95551332691684, 233.13040363788605, 225.30653293058276, 217.87161181867123, 0.0, 0.0, 0.0, 0.0, 0.0, 0.0, 0.0, 0.0, 1.6518368410997982E9, 0.0, 2022-05-06 12:34:01.099
0.0, -215.5117349466309, -59.53546739462763, -116.91675241477787, -145.52324717584997, 0.0, 0.0, 0.0, 0.0, 0.0, 0.0, 0.0, 0.0, 1.6518368411247752E9, 0.0, 2022-05-06 12:34:01.124
1.0, -243.70310081262141, -168.46005360409617, -178.21371268853545, -173.83428984042257, 0.0, 0.12800000607967377, 0.0, 0.0, 0.0, 0.0, 0.0, 0.0, 1.6518368411368864E9, 0.0, 2022-05-06 12:34:01.136
1.0, -325.18056124728173, -272.18243897520006, -265.4992377543822, -243.9686337094754, 0.0, 0.12800000607967377, 0.0, 0.0, 0.0, 0.0, 0.0, 0.0, 1.6518368411368864E9, 0.0, 2022-05-06 12:34:01.136
2.0, -266.2359980456531, -142.44530951231718, -191.52401663083583, -193.22567111067474, 0.12800000607967377, 0.12800000607967377, 0.0, 0.0, 0.0, 0.0, 0.0, 0.0, 1.6518368411537888E9, 0.0, 2022-05-06 12:34:01.153
2.0, -205.00261607114226, -48.72341662272811, -113.91735265031457, -140.79975353181362, 0.12800000607967377, 0.12800000607967377, 0.0, 0.0, 0.0, 0.0, 0.0, 0.0, 1.6518368411537888E9, 0.0, 2022-05-06 12:34:01.153
3.0, -253.6811538944021, -177.77614439371973, -188.10200817137957, -203.353320190683, 0.12800000607967377, 0.12800000607967377, 0.0, 0.0, 0.0, 0.0, 0.0, 0.0, 1.6518368411547852E9, 0.0, 2022-05-06 12:34:01.154
3.0, -314.24883367680013, -266.29583644494414, -257.8623620448634, -239.1142435669899, 0.12800000607967377, 0.12800000607967377, 0.0, 0.0, 0.0, 0.0, 0.0, 0.0, 1.6518368411547852E9, 0.0, 2022-05-06 12:34:01.154
4.0, -270.48078449536115, -148.5189070403576, -192.09996122401208, -192.55248911865056, 0.12800000607967377, 0.12800000607967377, 0.0, 0.0, 0.0, 0.0, 0.0, 0.0, 1.651836841166886E9, 0.0, 2022-05-06 12:34:01.166
4.0, -191.84564802702516, -47.07786064222455, -106.69934573583305, -141.41683702450246, 0.12800000607967377, 0.12800000607967377, 0.0, 0.0, 0.0, 0.0, 0.0, 0.0, 1.651836841166886E9, 0.0, 2022-05-06 12:34:01.166
5.0, -235.71093460731208, -161.61977658513933, -166.47416672762483, -167.51759881526232, 0.12800000607967377, 0.12800000607967377, 0.0, 0.0, 0.0, 0.0, 0.0, 0.0, 1.6518368411828294E9, 0.0, 2022-05-06 12:34:01.182
5.0, -299.3266328535974, -251.55689071957022, -245.14296229556203, -212.66567108035088, 0.12800000607967377, 0.12800000607967377, 0.0, 0.0, 0.0, 0.0, 0.0, 0.0, 1.6518368411828294E9, 0.0, 2022-05-06 12:34:01.182
6.0, -268.8763674143702, -141.11390512809157, -191.22108473442495, -187.30540948081762, 0.12800000607967377, 0.12800000607967377, 0.0, 0.0, 0.0, 0.0, 0.0, 0.0, 1.6518368411837687E9, 0.0, 2022-05-06 12:34:01.183
6.0, -208.27876843232661, -55.346779444254935, -109.75858389958739, -140.8034934317693, 0.12800000607967377, 0.12800000607967377, 0.0, 0.0, 0.0, 0.0, 0.0, 0.0, 1.6518368411837687E9, 0.0, 2022-05-06 12:34:01.183
7.0, -254.68344708252698, -177.06556340213865, -183.46453222632408, -195.32749488577247, 0.12800000607967377, 0.12800000607967377, 0.0, 0.0, 0.0, 0.0, 0.0, 0.0, 1.6518368411968904E9, 0.0, 2022-05-06 12:34:01.196
7.0, -300.50096143968403, -257.02836435474455, -249.42514774482697, -225.6618234263733, 0.12800000607967377, 0.12800000607967377, 0.0, 0.0, 0.0, 0.0, 0.0, 0.0, 1.6518368411968904E9, 0.0, 2022-05-06 12:34:01.196
8.0, -262.8925274852663, -138.72410905640572, -184.99789120815694, -187.73175807576627, 0.12800000607967377, 0.12800000607967377, 0.0, 0.0, 0.0, 0.0, 0.0, 0.0, 1.6518368412128208E9, 0.0, 2022-05-06 12:34:01.212
8.0, -203.58519398793578, -53.65260476432741, -110.02037689648569, -145.16047688014805, 0.12800000607967377, 0.12800000607967377, 0.0, 0.0, 0.0, 0.0, 0.0, 0.0, 1.6518368412128208E9, 0.0, 2022-05-06 12:34:01.212
9.0, -255.69322007056326, -185.4204999031499, -183.35233522765338, -191.81572882737964, 0.12800000607967377, 0.12800000607967377, 0.0, 0.0, 0.0, 0.0, 0.0, 0.0, 1.6518368412137809E9, 0.0, 2022-05-06 12:34:01.213
9.0, -307.3412384586409, -261.0225775074214, -246.10037668421865, -224.05740634538233, 0.12800000607967377, 0.12800000607967377, 0.0, 0.0, 0.0, 0.0, 0.0, 0.0, 1.6518368412137809E9, 0.0, 2022-05-06 12:34:01.213
10.0, -257.24901845213026, -135.07022679969668, -185.78327019885182, -186.00018439628184, 0.12800000607967377, 0.12800000607967377, 1.0240000486373901, 0.0, 0.0, 0.0, 0.0, 0.0, 1.6518368412268176E9, 0.0, 2022-05-06 12:34:01.226
10.0, -207.21663684491068, -57.4336436195299, -110.50656389072537, -146.12537106871605, 0.12800000607967377, 0.12800000607967377, 1.0240000486373901, 0.0, 0.0, 0.0, 0.0, 0.0, 1.6518368412268176E9, 0.0, 2022-05-06 12:34:01.226
11.0, -268.9736048132181, -214.75627515558153, -209.8457865137607, -203.05412819422781, 0.12800000607967377, 0.06400000303983688, 1.0240000486373901, 0.0, 0.0, 0.0, 0.0, 0.0, 1.6518368412428348E9, 0.0, 2022-05-06 12:34:01.242
11.0, -303.1525505082682, -260.50647131353617, -256.4486798616126, -234.54034592118114, 0.12800000607967377, 0.06400000303983688, 1.0240000486373901, 0.0, 0.0, 0.0, 0.0, 0.0, 1.6518368412428348E9, 0.0, 2022-05-06 12:34:01.242
12.0, -246.16395498346537, -107.88115412183106, -170.02333178557456, -186.5723890895024, 0.06400000303983688, 0.06400000303983688, 1.0240000486373901, 0.0, 0.0, 0.0, 0.0, 0.0, 1.6518368412438257E9, 0.0, 2022-05-06 12:34:01.243
12.0, -220.24270839057863, -64.66661013383418, -128.3945053787902, -164.75381274800748, 0.06400000303983688, 0.06400000303983688, 1.0240000486373901, 0.0, 0.0, 0.0, 0.0, 0.0, 1.6518368412438257E9, 0.0, 2022-05-06 12:34:01.243
13.0, -272.3544743731618, -217.99876841716468, -206.93988424818963, -210.4703498063609, 0.06400000303983688, 0.06400000303983688, 1.0240000486373901, 0.0, 0.0, 0.0, 0.0, 0.0, 1.6518368412568188E9, 0.0, 2022-05-06 12:34:01.256
13.0, -316.6648090481758, -263.8649014737457, -262.95984568446875, -242.76064602378756, 0.06400000303983688, 0.06400000303983688, 1.0240000486373901, 0.0, 0.0, 0.0, 0.0, 0.0, 1.6518368412568188E9, 0.0, 2022-05-06 12:34:01.256
14.0, -244.8923889985308, -105.78681014664471, -170.58805667888373, -174.02502473816276, 0.06400000303983688, 0.06400000303983688, 1.0240000486373901, 0.0, 0.0, 0.0, 0.0, 0.0, 1.651836841272935E9, 0.0, 2022-05-06 12:34:01.272
14.0, -194.35886079724878, -43.285602087154984, -100.03858391474932, -131.04235454741865, 0.06400000303983688, 0.06400000303983688, 1.0240000486373901, 0.0, 0.0, 0.0, 0.0, 0.0, 1.651836841272935E9, 0.0, 2022-05-06 12:34:01.272
15.0, -265.0205305600539, -198.4241320490837, -189.05942256003618, -187.6457403767854, 0.06400000303983688, 0.06400000303983688, 1.0240000486373901, 0.0, 0.0, 0.0, 0.0, 0.0, 1.6518368412737737E9, 0.0, 2022-05-06 12:34:01.273
15.0, -311.006340415217, -253.46049979701638, -250.06467063724995, -226.06199272163212, 0.06400000303983688, 0.06400000303983688, 1.0240000486373901, 0.0, 0.0, 0.0, 0.0, 0.0, 1.6518368412737737E9, 0.0, 2022-05-06 12:34:01.273
16.0, -239.21148096583784, -102.93326648045331, -164.38356265239418, -168.57599050272256, 0.06400000303983688, 0.06400000303983688, 1.0240000486373901, 0.0, 0.0, 0.0, 0.0, 0.0, 1.6518368412868495E9, 0.0, 2022-05-06 12:34:01.286
16.0, -195.97449757810682, -46.928264643996954, -106.94617913290858, -137.9910886650905, 0.06400000303983688, 0.06400000303983688, 1.0240000486373901, 0.0, 0.0, 0.0, 0.0, 0.0, 1.6518368412868495E9, 0.0, 2022-05-06 12:34:01.286
17.0, -262.0173908956349, -203.71609048638493, -190.8732740385458, -190.41326634399593, 0.06400000303983688, 0.06400000303983688, 1.0240000486373901, 0.0, 0.0, 0.0, 0.0, 0.0, 1.65183684130282E9, 0.0, 2022-05-06 12:34:01.302
17.0, -302.8458787119016, -247.84317006357014, -248.8267637519166, -230.16840287297964, 0.06400000303983688, 0.06400000303983688, 1.0240000486373901, 0.0, 0.0, 0.0, 0.0, 0.0, 1.65183684130282E9, 0.0, 2022-05-06 12:34:01.302
18.0, -240.06791805569082, -91.69112721364945, -156.02862615138292, -167.70085391309112, 0.06400000303983688, 0.06400000303983688, 1.0240000486373901, 0.0, 0.0, 0.0, 0.0, 0.0, 1.6518368413037612E9, 0.0, 2022-05-06 12:34:01.303
18.0, -194.66553259361535, -45.48092336114496, -98.54262393247336, -129.68103096354753, 0.06400000303983688, 0.06400000303983688, 1.0240000486373901, 0.0, 0.0, 0.0, 0.0, 0.0, 1.6518368413037612E9, 0.0, 2022-05-06 12:34:01.303
19.0, -265.7610307512805, -210.96775650046766, -191.123847335577, -191.2771832337603, 0.06400000303983688, 0.06400000303983688, 1.0240000486373901, 0.0, 0.0, 0.0, 0.0, 0.0, 1.6518368413168216E9, 0.0, 2022-05-06 12:34:01.316
19.0, -310.27332002390176, -262.9112269850448, -267.6048014294356, -243.73302001226693, 0.06400000303983688, 0.06400000303983688, 1.0240000486373901, 0.0, 0.0, 0.0, 0.0, 0.0, 1.6518368413168216E9, 0.0, 2022-05-06 12:34:01.316
20.0, -244.66051520127803, -107.38748732767999, -168.28053840622306, -174.4551132330671, 0.06400000303983688, 0.06400000303983688, 0.5120000243186951, 0.0, 0.0, 0.0, 0.0, 0.0, 1.6518368413328834E9, 0.0, 2022-05-06 12:34:01.332
20.0, -195.69400508143008, -50.64946509990841, -107.95221222098917, -127.74002288654447, 0.06400000303983688, 0.06400000303983688, 0.5120000243186951, 0.0, 0.0, 0.0, 0.0, 0.0, 1.6518368413328834E9, 0.0, 2022-05-06 12:34:01.332
21.0, -283.93320463597775, -218.49617511127144, -209.40821821894497, -221.82468607183546, 0.06400000303983688, 0.09600000455975533, 0.5120000243186951, 0.0, 0.0, 0.0, 0.0, 0.0, 1.6518368413337953E9, 0.0, 2022-05-06 12:34:01.333
21.0, -316.4179756511003, -266.9503189371899, -262.7466713869944, -242.56991112604737, 0.06400000303983688, 0.09600000455975533, 0.5120000243186951, 0.0, 0.0, 0.0, 0.0, 0.0, 1.6518368413337953E9, 0.0, 2022-05-06 12:34:01.333
22.0, -250.09832973685116, -114.54191594291478, -172.13263536058366, -183.81982272211462, 0.09600000455975533, 0.09600000455975533, 0.5120000243186951, 0.0, 0.0, 0.0, 0.0, 0.0, 1.6518368413468263E9, 0.0, 2022-05-06 12:34:01.346
22.0, -204.9128584722057, -64.96206223033369, -116.44178512040526, -145.48210827633739, 0.09600000455975533, 0.09600000455975533, 0.5120000243186951, 0.0, 0.0, 0.0, 0.0, 0.0, 1.6518368413468263E9, 0.0, 2022-05-06 12:34:01.346
23.0, -265.1701265582815, -218.33161951322109, -202.1677719047293, -207.18297774530947, 0.09600000455975533, 0.09600000455975533, 0.5120000243186951, 0.0, 0.0, 0.0, 0.0, 0.0, 1.6518368413628156E9, 0.0, 2022-05-06 12:34:01.362
23.0, -300.26908764243126, -251.31005732249469, -242.8915425222367, -226.94460911117494, 0.09600000455975533, 0.09600000455975533, 0.5120000243186951, 0.0, 0.0, 0.0, 0.0, 0.0, 1.6518368413628156E9, 0.0, 2022-05-06 12:34:01.362
24.0, -241.13378954306245, -100.4948517093435, -166.02537873294204, -174.57852993160486, 0.09600000455975533, 0.09600000455975533, 0.5120000243186951, 0.0, 0.0, 0.0, 0.0, 0.0, 1.6518368413638299E9, 0.0, 2022-05-06 12:34:01.363
24.0, -197.80330865643919, -46.917044944129884, -106.22811834141612, -144.26290089078248, 0.09600000455975533, 0.09600000455975533, 0.5120000243186951, 0.0, 0.0, 0.0, 0.0, 0.0, 1.6518368413638299E9, 0.0, 2022-05-06 12:34:01.363
25.0, -250.61069603078067, -194.95724479015917, -185.43919940292835, -184.14893391821533, 0.09600000455975533, 0.09600000455975533, 0.5120000243186951, 0.0, 0.0, 0.0, 0.0, 0.0, 1.6518368413768141E9, 0.0, 2022-05-06 12:34:01.376
25.0, -291.2035701498389, -241.82941093482077, -241.91168873384595, -208.16657143365592, 0.09600000455975533, 0.09600000455975533, 0.5120000243186951, 0.0, 0.0, 0.0, 0.0, 0.0, 1.6518368413768141E9, 0.0, 2022-05-06 12:34:01.376
26.0, -246.82965717557818, -94.54841077979654, -158.21272772550583, -161.81051148287952, 0.09600000455975533, 0.09600000455975533, 0.5120000243186951, 0.0, 0.0, 0.0, 0.0, 0.0, 1.651836841392841E9, 0.0, 2022-05-06 12:34:01.392
26.0, -209.70741021540016, -61.45029617194086, -120.85112716816366, -154.34567117132246, 0.09600000455975533, 0.09600000455975533, 0.5120000243186951, 0.0, 0.0, 0.0, 0.0, 0.0, 1.651836841392841E9, 0.0, 2022-05-06 12:34:01.392
27.0, -265.790949950926, -205.25318936817348, -196.96931096632034, -208.45080383028835, 0.09600000455975533, 0.09600000455975533, 0.5120000243186951, 0.0, 0.0, 0.0, 0.0, 0.0, 1.65183684139378E9, 0.0, 2022-05-06 12:34:01.393
27.0, -303.2610076069832, -251.62420891877264, -245.83858368732035, -224.21074224356562, 0.09600000455975533, 0.09600000455975533, 0.5120000243186951, 0.0, 0.0, 0.0, 0.0, 0.0, 1.65183684139378E9, 0.0, 2022-05-06 12:34:01.393
28.0, -238.5532585736364, -97.0466639501974, -160.5239858981222, -171.4482336686924, 0.09600000455975533, 0.09600000455975533, 0.5120000243186951, 0.0, 0.0, 0.0, 0.0, 0.0, 1.651836841406813E9, 0.0, 2022-05-06 12:34:01.406
28.0, -196.53174267150462, -56.70436312817037, -103.57278937287629, -137.77791436761618, 0.09600000455975533, 0.09600000455975533, 0.5120000243186951, 0.0, 0.0, 0.0, 0.0, 0.0, 1.651836841406813E9, 0.0, 2022-05-06 12:34:01.406
29.0, -264.36978796776384, -210.53766800556332, -204.32569417916238, -195.28635598625988, 0.09600000455975533, 0.09600000455975533, 0.5120000243186951, 0.0, 0.0, 0.0, 0.0, 0.0, 1.6518368414228323E9, 0.0, 2022-05-06 12:34:01.422
29.0, -313.478414285928, -261.4302266025916, -261.9126736968756, -239.5218926621601, 0.09600000455975533, 0.09600000455975533, 0.5120000243186951, 0.0, 0.0, 0.0, 0.0, 0.0, 1.6518368414228323E9, 0.0, 2022-05-06 12:34:01.422
30.0, -241.25346634164453, -99.5299575207755, -159.53291240986437, -160.71846069581807, 0.09600000455975533, 0.09600000455975533, 0.7680000364780426, 0.0, 0.0, 0.0, 0.0, 0.0, 1.651836841423777E9, 0.0, 2022-05-06 12:34:01.423
30.0, -194.2765829982236, -49.58359361253679, -99.94508641585708, -130.3916119551286, 0.09600000455975533, 0.09600000455975533, 0.7680000364780426, 0.0, 0.0, 0.0, 0.0, 0.0, 1.651836841423777E9, 0.0, 2022-05-06 12:34:01.423
31.0, -256.1120888656005, -199.1721120402217, -186.62100778892636, -189.93081924971193, 0.09600000455975533, 0.11200000531971455, 0.7680000364780426, 0.0, 0.0, 0.0, 0.0, 0.0, 1.6518368414368227E9, 0.0, 2022-05-06 12:34:01.436
31.0, -309.2485874360427, -254.0476640900597, -251.49705232027918, -231.80647905357182, 0.09600000455975533, 0.11200000531971455, 0.7680000364780426, 0.0, 0.0, 0.0, 0.0, 0.0, 1.6518368414368227E9, 0.0, 2022-05-06 12:34:01.436
32.0, -255.4164674738422, -107.94847232103348, -176.76263150572777, -191.33328173309565, 0.11200000531971455, 0.11200000531971455, 0.7680000364780426, 0.0, 0.0, 0.0, 0.0, 0.0, 1.651836841468824E9, 0.0, 2022-05-06 12:34:01.468
32.0, -201.9508577072993, -61.96266246587038, -120.0208693780005, -154.2970524718985, 0.11200000531971455, 0.11200000531971455, 0.7680000364780426, 0.0, 0.0, 0.0, 0.0, 0.0, 1.651836841468824E9, 0.0, 2022-05-06 12:34:01.468
33.0, -259.3134432276711, -206.24052295647562, -195.88100007921457, -205.54864146467298, 0.11200000531971455, 0.11200000531971455, 0.7680000364780426, 0.0, 0.0, 0.0, 0.0, 0.0, 1.651836841469776E9, 0.0, 2022-05-06 12:34:01.469
33.0, -296.60772558581084, -252.4918657084927, -246.62770257797092, -227.59535170346498, 0.11200000531971455, 0.11200000531971455, 0.7680000364780426, 0.0, 0.0, 0.0, 0.0, 0.0, 1.651836841469776E9, 0.0, 2022-05-06 12:34:01.469
34.0, -232.24404734838754, -86.87413607072085, -147.7036088500172, -153.09280468616635, 0.11200000531971455, 0.11200000531971455, 0.7680000364780426, 0.0, 0.0, 0.0, 0.0, 0.0, 1.6518368414707687E9, 0.0, 2022-05-06 12:34:01.470
34.0, -204.19853758066893, -49.99872250761837, -107.10325493104756, -142.628564610146, 0.11200000531971455, 0.11200000531971455, 0.7680000364780426, 0.0, 0.0, 0.0, 0.0, 0.0, 1.6518368414707687E9, 0.0, 2022-05-06 12:34:01.470
35.0, -259.3845013268292, -202.57168109994382, -188.25908396951854, -190.1252940474078, 0.11200000531971455, 0.11200000531971455, 0.7680000364780426, 0.0, 0.0, 0.0, 0.0, 0.0, 1.651836841471776E9, 0.0, 2022-05-06 12:34:01.471
35.0, -311.0100803151727, -254.61238898336887, -250.40126163326204, -228.60886459145695, 0.11200000531971455, 0.11200000531971455, 0.7680000364780426, 0.0, 0.0, 0.0, 0.0, 0.0, 1.651836841471776E9, 0.0, 2022-05-06 12:34:01.471
36.0, -236.95258139260113, -95.88355506397784, -156.87384354136884, -170.84236987587065, 0.11200000531971455, 0.11200000531971455, 0.7680000364780426, 0.0, 0.0, 0.0, 0.0, 0.0, 1.651836841481901E9, 0.0, 2022-05-06 12:34:01.481
36.0, -197.60135405883193, -58.47707570716739, -116.239830522798, -139.57680624630302, 0.11200000531971455, 0.11200000531971455, 0.7680000364780426, 0.0, 0.0, 0.0, 0.0, 0.0, 1.651836841481901E9, 0.0, 2022-05-06 12:34:01.481
37.0, -265.3533816561103, -210.18611740972847, -198.77942254487425, -194.84130789153278, 0.11200000531971455, 0.11200000531971455, 0.7680000364780426, 0.0, 0.0, 0.0, 0.0, 0.0, 1.6518368414968219E9, 0.0, 2022-05-06 12:34:01.496
37.0, -313.6018309844658, -262.0809691948816, -258.0194378430024, -247.46918006800115, 0.11200000531971455, 0.11200000531971455, 0.7680000364780426, 0.0, 0.0, 0.0, 0.0, 0.0, 1.6518368414968219E9, 0.0, 2022-05-06 12:34:01.496
38.0, -240.01181955635548, -107.19301252998412, -165.8196842353791, -178.98787197936326, 0.11200000531971455, 0.11200000531971455, 0.7680000364780426, 0.0, 0.0, 0.0, 0.0, 0.0, 1.6518368415288386E9, 0.0, 2022-05-06 12:34:01.528
38.0, -205.6196995638311, -66.87689100764692, -117.2795227104798, -151.9596149995923, 0.11200000531971455, 0.11200000531971455, 0.7680000364780426, 0.0, 0.0, 0.0, 0.0, 0.0, 1.6518368415288386E9, 0.0, 2022-05-06 12:34:01.528
39.0, -267.0961750354618, -213.5819465694949, -204.4304113779217, -199.6919581340626, 0.11200000531971455, 0.11200000531971455, 0.7680000364780426, 0.0, 0.0, 0.0, 0.0, 0.0, 1.6518368415298722E9, 0.0, 2022-05-06 12:34:01.529
39.0, -306.4511422691867, -254.62734858319163, -249.79539784044027, -228.49292769283056, 0.11200000531971455, 0.11200000531971455, 0.7680000364780426, 0.0, 0.0, 0.0, 0.0, 0.0, 1.6518368415298722E9, 0.0, 2022-05-06 12:34:01.529
40.0, -244.06587110832334, -100.9361599041149, -162.43881467543542, -175.782777717337, 0.11200000531971455, 0.11200000531971455, 0.8960000425577164, 0.0, 0.0, 0.0, 0.0, 0.0, 1.6518368415307612E9, 0.0, 2022-05-06 12:34:01.530
40.0, -195.32375498581678, -49.299361215904355, -100.76412450615317, -140.15275083947927, 0.11200000531971455, 0.11200000531971455, 0.8960000425577164, 0.0, 0.0, 0.0, 0.0, 0.0, 1.6518368415307612E9, 0.0, 2022-05-06 12:34:01.530
41.0, -274.8302881438285, -220.8859711829573, -204.52016897685826, -197.1712655639276, 0.11200000531971455, 0.11200000531971455, 0.8960000425577164, 0.0, 0.0, 0.0, 0.0, 0.0, 1.6518368415317924E9, 0.0, 2022-05-06 12:34:01.531
41.0, -299.75672134850174, -249.57474374305457, -239.08432436734438, -207.84867993742228, 0.11200000531971455, 0.11200000531971455, 0.8960000425577164, 0.0, 0.0, 0.0, 0.0, 0.0, 1.6518368415317924E9, 0.0, 2022-05-06 12:34:01.531
42.0, -243.10471681971103, -102.76497098244727, -170.79749107640237, -186.30311629269272, 0.11200000531971455, 0.11200000531971455, 0.8960000425577164, 0.0, 0.0, 0.0, 0.0, 0.0, 1.6518368415418253E9, 0.0, 2022-05-06 12:34:01.541
42.0, -202.36224670242518, -58.82488640304655, -115.09916103631258, -148.63858383893967, 0.11200000531971455, 0.11200000531971455, 0.8960000425577164, 0.0, 0.0, 0.0, 0.0, 0.0, 1.6518368415418253E9, 0.0, 2022-05-06 12:34:01.541
43.0, -270.25265059806406, -214.9507499532774, -203.06908779405057, -211.02011509984732, 0.11200000531971455, 0.11200000531971455, 0.8960000425577164, 0.0, 0.0, 0.0, 0.0, 0.0, 1.651836841556816E9, 0.0, 2022-05-06 12:34:01.556
43.0, -306.49976096861064, -254.1561211887747, -251.61672911886126, -227.45323550514877, 0.11200000531971455, 0.11200000531971455, 0.8960000425577164, 0.0, 0.0, 0.0, 0.0, 0.0, 1.651836841556816E9, 0.0, 2022-05-06 12:34:01.556
44.0, -252.35348941013217, -102.43959968630224, -165.5616311384365, -178.11647528968751, 0.11200000531971455, 0.11200000531971455, 0.8960000425577164, 0.0, 0.0, 0.0, 0.0, 0.0, 1.6518368415728223E9, 0.0, 2022-05-06 12:34:01.572
44.0, -203.77966878563166, -57.53088101837784, -111.6846323767677, -147.7410078495741, 0.11200000531971455, 0.11200000531971455, 0.8960000425577164, 0.0, 0.0, 0.0, 0.0, 0.0, 1.6518368415728223E9, 0.0, 2022-05-06 12:34:01.572
45.0, -275.63436663430184, -218.08852601610124, -202.9531508954242, -200.51099622435868, 0.11200000531971455, 0.11200000531971455, 0.8960000425577164, 0.0, 0.0, 0.0, 0.0, 0.0, 1.6518368415737805E9, 0.0, 2022-05-06 12:34:01.573
45.0, -322.98897987324744, -272.3133354736492, -265.1551669584587, -244.76897229999304, 0.11200000531971455, 0.11200000531971455, 0.8960000425577164, 0.0, 0.0, 0.0, 0.0, 0.0, 1.6518368415737805E9, 0.0, 2022-05-06 12:34:01.573
46.0, -250.87996882759035, -113.52092325501144, -178.677460283041, -192.7245245166123, 0.11200000531971455, 0.11200000531971455, 0.8960000425577164, 0.0, 0.0, 0.0, 0.0, 0.0, 1.6518368415868387E9, 0.0, 2022-05-06 12:34:01.586
46.0, -214.3635856602341, -67.7333280974999, -123.66353193484247, -158.7811925187707, 0.11200000531971455, 0.11200000531971455, 0.8960000425577164, 0.0, 0.0, 0.0, 0.0, 0.0, 1.6518368415868387E9, 0.0, 2022-05-06 12:34:01.586
47.0, -276.7338972212747, -217.85665221884847, -206.04604815877974, -207.55322784092277, 0.11200000531971455, 0.11200000531971455, 0.8960000425577164, 0.0, 0.0, 0.0, 0.0, 0.0, 1.6518368416028247E9, 0.0, 2022-05-06 12:34:01.602
47.0, -299.23313535470515, -243.80781801138073, -251.523231619969, -230.34791807085276, 0.11200000531971455, 0.11200000531971455, 0.8960000425577164, 0.0, 0.0, 0.0, 0.0, 0.0, 1.6518368416028247E9, 0.0, 2022-05-06 12:34:01.602
48.0, -252.8284567045048, -122.43310484942049, -176.79629060532898, -175.59204281959683, 0.11200000531971455, 0.11200000531971455, 0.8960000425577164, 0.0, 0.0, 0.0, 0.0, 0.0, 1.6518368416037889E9, 0.0, 2022-05-06 12:34:01.603
48.0, -223.8853709474206, -63.32024614978582, -118.9101190911606, -143.7318350970745, 0.11200000531971455, 0.11200000531971455, 0.8960000425577164, 0.0, 0.0, 0.0, 0.0, 0.0, 1.6518368416037889E9, 0.0, 2022-05-06 12:34:01.603
49.0, -263.6367675764486, -196.44572497252375, -188.65177346486598, -195.1255402881652, 0.11200000531971455, 0.11200000531971455, 0.8960000425577164, 0.0, 0.0, 0.0, 0.0, 0.0, 1.6518368416168432E9, 0.0, 2022-05-06 12:34:01.616
49.0, -318.2617463292554, -260.69720621127635, -253.38944169785827, -230.1497033732012, 0.11200000531971455, 0.11200000531971455, 0.8960000425577164, 0.0, 0.0, 0.0, 0.0, 0.0, 1.6518368416168432E9, 0.0, 2022-05-06 12:34:01.616
50.0, -257.24901845213026, -123.60369353555143, -177.59288929589093, -187.41386657953262, 0.11200000531971455, 0.11200000531971455, 0.9600000455975533, 0.0, 0.0, 0.0, 0.0, 0.0, 1.6518368416328304E9, 0.0, 2022-05-06 12:34:01.632
50.0, -214.68147715646774, -64.37489793729037, -121.21389746386558, -157.76019983086735, 0.11200000531971455, 0.11200000531971455, 0.9600000455975533, 0.0, 0.0, 0.0, 0.0, 0.0, 1.6518368416328304E9, 0.0, 2022-05-06 12:34:01.632
51.0, -259.36580182705075, -194.96472459007055, -187.4550054790452, -194.40373959671706, 0.11200000531971455, 0.12800000607967377, 0.9600000455975533, 0.0, 0.0, 0.0, 0.0, 0.0, 1.6518368416338327E9, 0.0, 2022-05-06 12:34:01.633
51.0, -320.2289337059483, -263.21415888145566, -260.3531354153529, -240.9654940450564, 0.11200000531971455, 0.12800000607967377, 0.9600000455975533, 0.0, 0.0, 0.0, 0.0, 0.0, 1.6518368416338327E9, 0.0, 2022-05-06 12:34:01.633
52.0, -250.7902112286538, -111.5350363785401, -167.1510886196047, -169.09209669660777, 0.11200000531971455, 0.12800000607967377, 0.9600000455975533, 0.0, 0.0, 0.0, 0.0, 0.0, 1.651836841646818E9, 0.0, 2022-05-06 12:34:01.646
52.0, -184.50422441400588, -40.2039245236665, -96.46697945706546, -116.00047692563385, 0.11200000531971455, 0.12800000607967377, 0.9600000455975533, 0.0, 0.0, 0.0, 0.0, 0.0, 1.651836841646818E9, 0.0, 2022-05-06 12:34:01.646
53.0, -247.77585186436772, -178.13143488951027, -182.6080951364711, -184.33592891599983, 0.11200000531971455, 0.12800000607967377, 0.9600000455975533, 0.0, 0.0, 0.0, 0.0, 0.0, 1.6518368416628275E9, 0.0, 2022-05-06 12:34:01.662
53.0, -306.9223696636036, -252.51804500818253, -249.05863754916936, -238.90480916947126, 0.11200000531971455, 0.12800000607967377, 0.9600000455975533, 0.0, 0.0, 0.0, 0.0, 0.0, 1.6518368416628275E9, 0.0, 2022-05-06 12:34:01.662
54.0, -257.9820388434455, -125.22681011632085, -173.1573679484427, -188.08330867160112, 0.11200000531971455, 0.12800000607967377, 0.9600000455975533, 0.0, 0.0, 0.0, 0.0, 0.0, 1.6518368416637645E9, 0.0, 2022-05-06 12:34:01.663
54.0, -205.3953055664897, -57.92357051372528, -104.60126186069101, -130.38039225526154, 0.11200000531971455, 0.12800000607967377, 0.9600000455975533, 0.0, 0.0, 0.0, 0.0, 0.0, 1.6518368416637645E9, 0.0, 2022-05-06 12:34:01.663
55.0, -249.06237744912505, -188.21794507000595, -192.50761031918228, -188.92852606158704, 0.11200000531971455, 0.12800000607967377, 0.9600000455975533, 0.0, 0.0, 0.0, 0.0, 0.0, 1.6518368416768305E9, 0.0, 2022-05-06 12:34:01.676
55.0, -303.56767940334976, -255.3080103751272, -254.54507078416646, -239.75376645941287, 0.11200000531971455, 0.12800000607967377, 0.9600000455975533, 0.0, 0.0, 0.0, 0.0, 0.0, 1.6518368416768305E9, 0.0, 2022-05-06 12:34:01.676
56.0, -261.1609538057819, -117.3917197091505, -171.08920327294618, -174.66828753054142, 0.11200000531971455, 0.12800000607967377, 0.9600000455975533, 0.0, 0.0, 0.0, 0.0, 0.0, 1.651836841692839E9, 0.0, 2022-05-06 12:34:01.692
56.0, -202.82225439697504, -53.99667556025088, -106.51609063800424, -137.5049016708508, 0.11200000531971455, 0.12800000607967377, 0.9600000455975533, 0.0, 0.0, 0.0, 0.0, 0.0, 1.651836841692839E9, 0.0, 2022-05-06 12:34:01.692
57.0, -268.2069253223017, -198.99633674230427, -195.80994198005646, -204.37057297863066, 0.11200000531971455, 0.12800000607967377, 0.9600000455975533, 0.0, 0.0, 0.0, 0.0, 0.0, 1.651836841693809E9, 0.0, 2022-05-06 12:34:01.693
57.0, -310.1760826250538, -251.34745632205158, -247.95910696219653, -224.73058833740652, 0.11200000531971455, 0.12800000607967377, 0.9600000455975533, 0.0, 0.0, 0.0, 0.0, 0.0, 1.651836841693809E9, 0.0, 2022-05-06 12:34:01.693
58.0, -254.8293031807989, -121.872119856067, -178.85323558095843, -180.6409077597782, 0.11200000531971455, 0.12800000607967377, 0.9600000455975533, 0.0, 0.0, 0.0, 0.0, 0.0, 1.6518368417068317E9, 0.0, 2022-05-06 12:34:01.706
58.0, -206.90622514858842, -59.8795381905511, -119.15321258828044, -149.659576526843, 0.11200000531971455, 0.12800000607967377, 0.9600000455975533, 0.0, 0.0, 0.0, 0.0, 0.0, 1.6518368417068317E9, 0.0, 2022-05-06 12:34:01.706
59.0, -253.40066139772534, -184.61642141267657, -177.18898010067642, -170.46837988030165, 0.11200000531971455, 0.12800000607967377, 0.9600000455975533, 0.0, 0.0, 0.0, 0.0, 0.0, 1.6518368417228687E9, 0.0, 2022-05-06 12:34:01.722
59.0, -286.1322658099234, -235.97646750416607, -233.22764103673398, -217.5873794220388, 0.11200000531971455, 0.12800000607967377, 0.9600000455975533, 0.0, 0.0, 0.0, 0.0, 0.0, 1.6518368417228687E9, 0.0, 2022-05-06 12:34:01.722
60.0, -253.8569291923195, -117.77318950463086, -170.35992278158665, -167.35304321721196, 0.11200000531971455, 0.12800000607967377, 0.9920000471174717, 0.0, 0.0, 0.0, 0.0, 0.0, 1.651836841723861E9, 0.0, 2022-05-06 12:34:01.723
60.0, -212.01492848806083, -65.02564052958041, -122.70611754618585, -145.29885317850858, 0.11200000531971455, 0.12800000607967377, 0.9920000471174717, 0.0, 0.0, 0.0, 0.0, 0.0, 1.651836841723861E9, 0.0, 2022-05-06 12:34:01.723
61.0, -265.25614425726235, -199.15715244039893, -195.89221977908164, -216.07645983994007, 0.11200000531971455, 0.12800000607967377, 0.9920000471174717, 0.0, 0.0, 0.0, 0.0, 0.0, 1.651836841736836E9, 0.0, 2022-05-06 12:34:01.736
61.0, -309.293466235511, -254.43287378549576, -252.48064600862563, -236.12606350239366, 0.11200000531971455, 0.12800000607967377, 0.9920000471174717, 0.0, 0.0, 0.0, 0.0, 0.0, 1.651836841736836E9, 0.0, 2022-05-06 12:34:01.736
62.0, -246.4855863796547, -118.73808369319886, -164.1142898555845, -164.32746415305883, 0.12800000607967377, 0.12800000607967377, 0.9920000471174717, 0.0, 0.0, 0.0, 0.0, 0.0, 1.6518368417528148E9, 0.0, 2022-05-06 12:34:01.752
62.0, -196.08669457677752, -58.27512110956013, -112.89635996241122, -143.46256230026484, 0.12800000607967377, 0.12800000607967377, 0.9920000471174717, 0.0, 0.0, 0.0, 0.0, 0.0, 1.6518368417528148E9, 0.0, 2022-05-06 12:34:01.752
63.0, -255.97371256724, -191.93540562596172, -188.63681386504322, -190.15895314700902, 0.12800000607967377, 0.12800000607967377, 0.9920000471174717, 0.0, 0.0, 0.0, 0.0, 0.0, 1.6518368417537837E9, 0.0, 2022-05-06 12:34:01.753
63.0, -314.27875287644565, -251.5681104194373, -247.76463216450065, -225.19059603195637, 0.12800000607967377, 0.12800000607967377, 0.9920000471174717, 0.0, 0.0, 0.0, 0.0, 0.0, 1.6518368417537837E9, 0.0, 2022-05-06 12:34:01.753
64.0, -250.54711773153394, -115.33477473352104, -173.72583274170756, -179.1561674773693, 0.12800000607967377, 0.12800000607967377, 0.9920000471174717, 0.0, 0.0, 0.0, 0.0, 0.0, 1.6518368417668428E9, 0.0, 2022-05-06 12:34:01.766
64.0, -199.47130403667688, -52.478276178240776, -108.59921491332352, -139.44964964780957, 0.12800000607967377, 0.12800000607967377, 0.9920000471174717, 0.0, 0.0, 0.0, 0.0, 0.0, 1.6518368417668428E9, 0.0, 2022-05-06 12:34:01.766
65.0, -266.8381219385192, -193.04241601284593, -194.63187349401414, -200.05098852980882, 0.12800000607967377, 0.12800000607967377, 0.9920000471174717, 0.0, 0.0, 0.0, 0.0, 0.0, 1.651836841782816E9, 0.0, 2022-05-06 12:34:01.782
65.0, -311.4738279096782, -255.1920734765008, -247.54397806711495, -225.0709192333743, 0.12800000607967377, 0.12800000607967377, 0.9920000471174717, 0.0, 0.0, 0.0, 0.0, 0.0, 1.651836841782816E9, 0.0, 2022-05-06 12:34:01.782
66.0, -259.39572102669626, -124.52370892465115, -177.13288160134107, -179.22722557652742, 0.12800000607967377, 0.12800000607967377, 0.9920000471174717, 0.0, 0.0, 0.0, 0.0, 0.0, 1.65183684178379E9, 0.0, 2022-05-06 12:34:01.783
66.0, -210.2833548085764, -60.88557127863169, -114.03702944889665, -142.63230451010168, 0.12800000607967377, 0.12800000607967377, 0.9920000471174717, 0.0, 0.0, 0.0, 0.0, 0.0, 1.65183684178379E9, 0.0, 2022-05-06 12:34:01.783
67.0, -252.0505575137213, -179.8293494693935, -190.67505934089422, -197.51907625980675, 0.12800000607967377, 0.12800000607967377, 0.9920000471174717, 0.0, 0.0, 0.0, 0.0, 0.0, 1.6518368417968347E9, 0.0, 2022-05-06 12:34:01.796
67.0, -299.09101915638894, -241.5638780379668, -241.6386760370806, -217.96136941760778, 0.12800000607967377, 0.12800000607967377, 0.9920000471174717, 0.0, 0.0, 0.0, 0.0, 0.0, 1.6518368417968347E9, 0.0, 2022-05-06 12:34:01.796
68.0, -250.94354712683707, -119.20931108761579, -171.18644067179412, -177.604108995758, 0.12800000607967377, 0.12800000607967377, 0.9920000471174717, 0.0, 0.0, 0.0, 0.0, 0.0, 1.6518368418128319E9, 0.0, 2022-05-06 12:34:01.812
68.0, -204.10504008177668, -62.83405915554613, -116.9092726148665, -142.29945341404527, 0.12800000607967377, 0.12800000607967377, 0.9920000471174717, 0.0, 0.0, 0.0, 0.0, 0.0, 1.6518368418128319E9, 0.0, 2022-05-06 12:34:01.812
69.0, -252.6377218067646, -187.8701343741268, -177.10296240169555, -168.71810670103878, 0.12800000607967377, 0.12800000607967377, 0.9920000471174717, 0.0, 0.0, 0.0, 0.0, 0.0, 1.651836841813771E9, 0.0, 2022-05-06 12:34:01.813
69.0, -304.27826039493084, -242.0463251322508, -240.53540555015206, -215.59401274565607, 0.12800000607967377, 0.12800000607967377, 0.9920000471174717, 0.0, 0.0, 0.0, 0.0, 0.0, 1.651836841813771E9, 0.0, 2022-05-06 12:34:01.813
70.0, -250.39752173330635, -114.14922644756734, -172.14385506045073, -189.19031905848533, 0.12800000607967377, 0.12800000607967377, 1.008000047877431, 0.0, 0.0, 0.0, 0.0, 0.0, 1.6518368418268342E9, 0.0, 2022-05-06 12:34:01.826
70.0, -190.50676384288818, -48.3569064270705, -104.36938806343824, -132.17928413394839, 0.12800000607967377, 0.12800000607967377, 1.008000047877431, 0.0, 0.0, 0.0, 0.0, 0.0, 1.6518368418268342E9, 0.0, 2022-05-06 12:34:01.826
71.0, -257.51455134898424, -191.96906472556293, -197.53029595967382, -196.8683336675167, 0.12800000607967377, 0.12800000607967377, 1.008000047877431, 0.0, 0.0, 0.0, 0.0, 0.0, 1.6518368418428185E9, 0.0, 2022-05-06 12:34:01.842
71.0, -324.95616724994034, -263.33009578008205, -254.77320468146354, -237.8127583824098, 0.12800000607967377, 0.12800000607967377, 1.008000047877431, 0.0, 0.0, 0.0, 0.0, 0.0, 1.6518368418428185E9, 0.0, 2022-05-06 12:34:01.842
72.0, -255.008818378672, -122.56774124782532, -175.28911092318594, -175.79773731715977, 0.12800000607967377, 0.12800000607967377, 1.008000047877431, 0.0, 0.0, 0.0, 0.0, 0.0, 1.651836841843786E9, 0.0, 2022-05-06 12:34:01.843
72.0, -201.82370110880584, -57.85251241456717, -111.06754888407886, -139.92461694218218, 0.12800000607967377, 0.12800000607967377, 1.008000047877431, 0.0, 0.0, 0.0, 0.0, 0.0, 1.651836841843786E9, 0.0, 2022-05-06 12:34:01.843
73.0, -265.11028815899044, -192.87786041479558, -191.25848373398185, -199.542362135835, 0.12800000607967377, 0.12800000607967377, 1.008000047877431, 0.0, 0.0, 0.0, 0.0, 0.0, 1.6518368418568418E9, 0.0, 2022-05-06 12:34:01.856
73.0, -311.4813077095896, -253.3782219979912, -253.7858710931614, -229.65229667909443, 0.12800000607967377, 0.12800000607967377, 1.008000047877431, 0.0, 0.0, 0.0, 0.0, 0.0, 1.6518368418568418E9, 0.0, 2022-05-06 12:34:01.856
74.0, -247.6748745655641, -117.70961120538414, -170.14674848411232, -168.31045760586858, 0.12800000607967377, 0.12800000607967377, 1.008000047877431, 0.0, 0.0, 0.0, 0.0, 0.0, 1.6518368418728485E9, 0.0, 2022-05-06 12:34:01.872
74.0, -212.15330478642136, -62.24315496254712, -118.27059619873762, -145.61674467474222, 0.12800000607967377, 0.12800000607967377, 1.008000047877431, 0.0, 0.0, 0.0, 0.0, 0.0, 1.6518368418728485E9, 0.0, 2022-05-06 12:34:01.872
75.0, -259.95670602004975, -188.21046527009457, -189.10430135950446, -183.51315092574805, 0.12800000607967377, 0.12800000607967377, 1.008000047877431, 0.0, 0.0, 0.0, 0.0, 0.0, 1.6518368418738065E9, 0.0, 2022-05-06 12:34:01.873
75.0, -290.1676178621128, -236.32801810000092, -242.80178492330015, -227.57291230373085, 0.12800000607967377, 0.12800000607967377, 1.008000047877431, 0.0, 0.0, 0.0, 0.0, 0.0, 1.6518368418738065E9, 0.0, 2022-05-06 12:34:01.873
76.0, -251.17542092408985, -119.46736418455839, -172.8955749515444, -183.19151952955872, 0.12800000607967377, 0.12800000607967377, 1.008000047877431, 0.0, 0.0, 0.0, 0.0, 0.0, 1.6518368418868415E9, 0.0, 2022-05-06 12:34:01.886
76.0, -209.12024592235684, -62.06363976467401, -113.00855696108192, -149.34916483052075, 0.12800000607967377, 0.12800000607967377, 1.008000047877431, 0.0, 0.0, 0.0, 0.0, 0.0, 1.6518368418868415E9, 0.0, 2022-05-06 12:34:01.886
77.0, -259.9342666203156, -196.74117706902325, -184.8333356101066, -179.91910706833005, 0.12800000607967377, 0.12800000607967377, 1.008000047877431, 0.0, 0.0, 0.0, 0.0, 0.0, 1.6518368419030588E9, 0.0, 2022-05-06 12:34:01.903
77.0, -307.41603645775467, -254.8629622804001, -254.60864908341318, -221.22630207892507, 0.12800000607967377, 0.12800000607967377, 1.008000047877431, 0.0, 0.0, 0.0, 0.0, 0.0, 1.6518368419030588E9, 0.0, 2022-05-06 12:34:01.903
78.0, -251.51201192010194, -116.61756041832268, -173.29200434684753, -181.58336254861206, 0.12800000607967377, 0.12800000607967377, 1.008000047877431, 0.0, 0.0, 0.0, 0.0, 0.0, 1.6518368419037724E9, 0.0, 2022-05-06 12:34:01.903
78.0, -203.29722169134766, -53.01308187190443, -110.95161198545247, -142.23213521484286, 0.12800000607967377, 0.12800000607967377, 1.008000047877431, 0.0, 0.0, 0.0, 0.0, 0.0, 1.6518368419037724E9, 0.0, 2022-05-06 12:34:01.903
79.0, -256.2691646637395, -191.1986453346908, -185.58131560124457, -186.40035369154066, 0.12800000607967377, 0.12800000607967377, 1.008000047877431, 0.0, 0.0, 0.0, 0.0, 0.0, 1.651836841916837E9, 0.0, 2022-05-06 12:34:01.916
79.0, -300.3289260417223, -250.47231973242015, -252.51430510822684, -231.68306235503405, 0.12800000607967377, 0.12800000607967377, 1.008000047877431, 0.0, 0.0, 0.0, 0.0, 0.0, 1.651836841916837E9, 0.0, 2022-05-06 12:34:01.916
80.0, -258.9731123317033, -118.37531339749694, -182.0882490426302, -190.4955441430211, 0.12800000607967377, 0.12800000607967377, 1.008000047877431, 0.0, 0.0, 0.0, 0.0, 0.0, 1.651836841932826E9, 0.0, 2022-05-06 12:34:01.932
80.0, -203.3907191902399, -62.90137735474855, -114.33248154539615, -149.04623293410987, 0.12800000607967377, 0.12800000607967377, 1.008000047877431, 0.0, 0.0, 0.0, 0.0, 0.0, 1.651836841932826E9, 0.0, 2022-05-06 12:34:01.932
81.0, -245.53191189095378, -179.4142205743119, -175.4125276217237, -175.8575757164508, 0.12800000607967377, 0.12800000607967377, 1.008000047877431, 0.0, 0.0, 0.0, 0.0, 0.0, 1.6518368419338744E9, 0.0, 2022-05-06 12:34:01.933
81.0, -302.97303531039506, -246.7137202769518, -241.20858754217625, -226.60427821520716, 0.12800000607967377, 0.12800000607967377, 1.008000047877431, 0.0, 0.0, 0.0, 0.0, 0.0, 1.6518368419338744E9, 0.0, 2022-05-06 12:34:01.933
82.0, -254.81434358097613, -121.88707945588976, -176.3475026106462, -183.53933022543788, 0.12800000607967377, 0.12800000607967377, 1.008000047877431, 0.0, 0.0, 0.0, 0.0, 0.0, 1.6518368419638388E9, 0.0, 2022-05-06 12:34:01.963
82.0, -209.29228132031858, -66.89185060746968, -121.57292785961181, -157.1094572385773, 0.12800000607967377, 0.12800000607967377, 1.008000047877431, 0.0, 0.0, 0.0, 0.0, 0.0, 1.6518368419638388E9, 0.0, 2022-05-06 12:34:01.963
83.0, -255.17337397672236, -191.34076153300703, -188.29274306911975, -191.70353182870895, 0.12800000607967377, 0.12800000607967377, 1.008000047877431, 0.0, 0.0, 0.0, 0.0, 0.0, 1.6518368419648125E9, 0.0, 2022-05-06 12:34:01.964
83.0, -306.073412373662, -245.3411769932136, -243.1869946187362, -215.75108854379505, 0.12800000607967377, 0.12800000607967377, 1.008000047877431, 0.0, 0.0, 0.0, 0.0, 0.0, 1.6518368419648125E9, 0.0, 2022-05-06 12:34:01.964
84.0, -242.2258403301239, -112.52236996684223, -167.7457327125594, -171.17522097192705, 0.12800000607967377, 0.12800000607967377, 1.008000047877431, 0.0, 0.0, 0.0, 0.0, 0.0, 1.651836841965822E9, 0.0, 2022-05-06 12:34:01.965
84.0, -181.7142590470612, -47.06664094235748, -103.07912257872522, -135.85560579039156, 0.12800000607967377, 0.12800000607967377, 1.008000047877431, 0.0, 0.0, 0.0, 0.0, 0.0, 1.651836841965822E9, 0.0, 2022-05-06 12:34:01.965
85.0, -256.0933893658221, -186.10490159504116, -184.80341641046107, -184.792196710594, 0.12800000607967377, 0.12800000607967377, 1.008000047877431, 0.0, 0.0, 0.0, 0.0, 0.0, 1.651836841976838E9, 0.0, 2022-05-06 12:34:01.976
85.0, -311.35041121114045, -248.68464755360037, -250.13946863636374, -229.39798348210752, 0.12800000607967377, 0.12800000607967377, 1.008000047877431, 0.0, 0.0, 0.0, 0.0, 0.0, 1.651836841976838E9, 0.0, 2022-05-06 12:34:01.976
86.0, -256.1270484654233, -118.34539419785142, -170.40480158105493, -169.13697549607605, 0.12800000607967377, 0.12800000607967377, 1.008000047877431, 0.0, 0.0, 0.0, 0.0, 0.0, 1.6518368419928887E9, 0.0, 2022-05-06 12:34:01.992
86.0, -202.26500930357724, -57.59445931762457, -113.63686015363783, -139.01582125294954, 0.12800000607967377, 0.12800000607967377, 1.008000047877431, 0.0, 0.0, 0.0, 0.0, 0.0, 1.6518368419928887E9, 0.0, 2022-05-06 12:34:01.992
87.0, -260.36809501517564, -192.29443602170795, -191.1649862350896, -200.81018822081387, 0.12800000607967377, 0.12800000607967377, 1.008000047877431, 0.0, 0.0, 0.0, 0.0, 0.0, 1.6518368419937766E9, 0.0, 2022-05-06 12:34:01.993
87.0, -305.97991487476975, -246.32477068156004, -244.02847210876644, -219.37879150081426, 0.12800000607967377, 0.12800000607967377, 1.008000047877431, 0.0, 0.0, 0.0, 0.0, 0.0, 1.6518368419937766E9, 0.0, 2022-05-06 12:34:01.993
88.0, -254.74328548181802, -119.29906868655235, -172.76841835305095, -181.6095418483019, 0.12800000607967377, 0.12800000607967377, 1.008000047877431, 0.0, 0.0, 0.0, 0.0, 0.0, 1.6518368420068324E9, 0.0, 2022-05-06 12:34:02.006
88.0, -205.51872226502746, -61.11744507588446, -118.96247769054025, -145.7738204728812, 0.12800000607967377, 0.12800000607967377, 1.008000047877431, 0.0, 0.0, 0.0, 0.0, 0.0, 1.6518368420068324E9, 0.0, 2022-05-06 12:34:02.006
89.0, -253.6811538944021, -189.47081155516207, -184.3882875153795, -181.47490544989705, 0.12800000607967377, 0.12800000607967377, 1.008000047877431, 0.0, 0.0, 0.0, 0.0, 0.0, 1.6518368420228508E9, 0.0, 2022-05-06 12:34:02.022
89.0, -311.814158805646, -256.81519005727023, -260.77200421039015, -248.79684455227107, 0.12800000607967377, 0.12800000607967377, 1.008000047877431, 0.0, 0.0, 0.0, 0.0, 0.0, 1.6518368420228508E9, 0.0, 2022-05-06 12:34:02.022
90.0, -257.1891800528392, -122.43684474937618, -179.9004075685516, -188.8350285626948, 0.12800000607967377, 0.12800000607967377, 1.008000047877431, 0.0, 0.0, 0.0, 0.0, 0.0, 1.6518368420237925E9, 0.0, 2022-05-06 12:34:02.023
90.0, -207.27273534424603, -62.437629760243, -115.02436303719878, -145.15673698019236, 0.12800000607967377, 0.12800000607967377, 1.008000047877431, 0.0, 0.0, 0.0, 0.0, 0.0, 1.6518368420237925E9, 0.0, 2022-05-06 12:34:02.023
91.0, -257.2303189523518, -191.89800662640482, -188.3077026689425, -188.93226596154273, 0.12800000607967377, 0.12800000607967377, 1.008000047877431, 0.0, 0.0, 0.0, 0.0, 0.0, 1.6518368420368605E9, 0.0, 2022-05-06 12:34:02.036
91.0, -301.31625963002443, -243.25805271789432, -243.58342401403934, -218.33161951322109, 0.12800000607967377, 0.12800000607967377, 1.008000047877431, 0.0, 0.0, 0.0, 0.0, 0.0, 1.6518368420368605E9, 0.0, 2022-05-06 12:34:02.036
92.0, -242.46893382724375, -98.86799522861838, -158.77371271885931, -170.21406668331474, 0.12800000607967377, 0.12800000607967377, 1.008000047877431, 0.0, 0.0, 0.0, 0.0, 0.0, 1.6518368420528877E9, 0.0, 2022-05-06 12:34:02.052
92.0, -194.4598380960524, -50.73548279888928, -104.14499406609684, -132.5083953300491, 0.12800000607967377, 0.12800000607967377, 1.008000047877431, 0.0, 0.0, 0.0, 0.0, 0.0, 1.6518368420528877E9, 0.0, 2022-05-06 12:34:02.052
93.0, -259.5004382254556, -193.45006510801613, -197.03662916552275, -194.3887799968943, 0.12800000607967377, 0.12800000607967377, 1.008000047877431, 0.0, 0.0, 0.0, 0.0, 0.0, 1.6518368420537708E9, 0.0, 2022-05-06 12:34:02.053
93.0, -299.20321615505964, -243.50488611496985, -250.80143092852086, -233.4071562346071, 0.12800000607967377, 0.12800000607967377, 1.008000047877431, 0.0, 0.0, 0.0, 0.0, 0.0, 1.6518368420537708E9, 0.0, 2022-05-06 12:34:02.053
94.0, -239.82856445852667, -108.77873011119664, -167.83175041154027, -176.97954570315778, 0.12800000607967377, 0.12800000607967377, 1.008000047877431, 0.0, 0.0, 0.0, 0.0, 0.0, 1.6518368420668552E9, 0.0, 2022-05-06 12:34:02.066
94.0, -196.7935356684029, -56.603385829366744, -107.19301252998412, -134.01931491214782, 0.12800000607967377, 0.12800000607967377, 1.008000047877431, 0.0, 0.0, 0.0, 0.0, 0.0, 1.6518368420668552E9, 0.0, 2022-05-06 12:34:02.066
95.0, -250.80143092852086, -185.94782579690218, -185.52147720195353, -184.39576731529087, 0.12800000607967377, 0.12800000607967377, 1.008000047877431, 0.0, 0.0, 0.0, 0.0, 0.0, 1.6518368420828357E9, 0.0, 2022-05-06 12:34:02.082
95.0, -296.79472058359534, -242.21088073030114, -244.73905310034752, -218.38023821264505, 0.12800000607967377, 0.12800000607967377, 1.008000047877431, 0.0, 0.0, 0.0, 0.0, 0.0, 1.6518368420828357E9, 0.0, 2022-05-06 12:34:02.082
96.0, -244.72783340048045, -109.60150810144842, -167.06507092062384, -166.27969192992896, 0.12800000607967377, 0.12800000607967377, 1.008000047877431, 0.0, 0.0, 0.0, 0.0, 0.0, 1.6518368420838387E9, 0.0, 2022-05-06 12:34:02.083
96.0, -198.85422054398805, -54.74839545134455, -111.03762968443334, -139.16915715113282, 0.12800000607967377, 0.12800000607967377, 1.008000047877431, 0.0, 0.0, 0.0, 0.0, 0.0, 1.6518368420838387E9, 0.0, 2022-05-06 12:34:02.083
97.0, -254.65352788288146, -186.88654068578035, -184.29479001648724, -192.82550181541592, 0.12800000607967377, 0.12800000607967377, 1.008000047877431, 0.0, 0.0, 0.0, 0.0, 0.0, 1.6518368420968127E9, 0.0, 2022-05-06 12:34:02.096
97.0, -301.60049202665687, -243.18325471878052, -243.31415121722966, -215.2125429501757, 0.12800000607967377, 0.12800000607967377, 1.008000047877431, 0.0, 0.0, 0.0, 0.0, 0.0, 1.6518368420968127E9, 0.0, 2022-05-06 12:34:02.096
98.0, -251.0781835252419, -118.91759889107198, -173.6024160431698, -175.96229291521013, 0.12800000607967377, 0.12800000607967377, 1.008000047877431, 0.0, 0.0, 0.0, 0.0, 0.0, 1.6518368421128173E9, 0.0, 2022-05-06 12:34:02.112
98.0, -205.04375497065485, -60.29840698558837, -115.46567123197019, -143.90387049503624, 0.12800000607967377, 0.12800000607967377, 1.008000047877431, 0.0, 0.0, 0.0, 0.0, 0.0, 1.6518368421128173E9, 0.0, 2022-05-06 12:34:02.112
99.0, -258.43082683812827, -194.69919169321656, -182.8661482334137, -186.56490928959101, 0.12800000607967377, 0.12800000607967377, 1.008000047877431, 0.0, 0.0, 0.0, 0.0, 0.0, 1.651836842113773E9, 0.0, 2022-05-06 12:34:02.113
99.0, -306.76155396550894, -251.24647902324796, -252.51430510822684, -229.65229667909443, 0.12800000607967377, 0.12800000607967377, 1.008000047877431, 0.0, 0.0, 0.0, 0.0, 0.0, 1.651836842113773E9, 0.0, 2022-05-06 12:34:02.113
100.0, -250.62565563060343, -116.39690632093698, -174.5299112321809, -192.18597892299294, 0.12800000607967377, 0.12800000607967377, 1.0240000486373901, 0.0, 0.0, 0.0, 0.0, 0.0, 1.6518368421278434E9, 0.0, 2022-05-06 12:34:02.127
100.0, -192.5038704192266, -54.83441315032542, -101.40738729853183, -134.8420929023996, 0.12800000607967377, 0.12800000607967377, 1.0240000486373901, 0.0, 0.0, 0.0, 0.0, 0.0, 1.6518368421278434E9, 0.0, 2022-05-06 12:34:02.127
0.0, -253.84196959249675, -193.38274690881371, -190.78351643960923, -185.72904164949432, 0.12800000607967377, 0.12800000607967377, 1.0240000486373901, 0.0, 0.0, 0.0, 0.0, 0.0, 1.6518368421288188E9, 0.0, 2022-05-06 12:34:02.128
1.0, -306.8400918645784, -252.5629238076508, -254.3468560865149, -241.33013429073617, 0.12800000607967377, 0.12800000607967377, 1.0240000486373901, 0.0, 0.0, 0.0, 0.0, 0.0, 1.6518368421418247E9, 0.0, 2022-05-06 12:34:02.141
1.0, -247.0839703725651, -116.65869931783527, -173.2658250471577, -177.37410514848307, 0.12800000607967377, 0.12800000607967377, 1.0240000486373901, 0.0, 0.0, 0.0, 0.0, 0.0, 1.6518368421418247E9, 0.0, 2022-05-06 12:34:02.141
2.0, -199.93131173122674, -61.57371287047863, -117.9826239021495, -138.85313560487702, 0.12800000607967377, 0.12800000607967377, 1.0240000486373901, 0.0, 0.0, 0.0, 0.0, 0.0, 1.6518368421578207E9, 0.0, 2022-05-06 12:34:02.157
2.0, -256.7478718580678, -197.11890696454793, -199.84903393220156, -208.23949948279187, 0.12800000607967377, 0.12800000607967377, 1.0240000486373901, 0.0, 0.0, 0.0, 0.0, 0.0, 1.6518368421578207E9, 0.0, 2022-05-06 12:34:02.157
3.0, -311.1521965134889, -250.43118083290756, -252.9743128027767, -235.34255446167663, 0.12800000607967377, 0.12800000607967377, 1.0240000486373901, 0.0, 0.0, 0.0, 0.0, 0.0, 1.6518368421587694E9, 0.0, 2022-05-06 12:34:02.158
3.0, -245.76752558816224, -115.96307792607695, -171.971819662489, -183.49258147599176, 0.12800000607967377, 0.12800000607967377, 1.0240000486373901, 0.0, 0.0, 0.0, 0.0, 0.0, 1.6518368421587694E9, 0.0, 2022-05-06 12:34:02.158
4.0, -191.7558904280886, -52.134205382317305, -102.20024608913809, -136.66529413079843, 0.12800000607967377, 0.12800000607967377, 1.0240000486373901, 0.0, 0.0, 0.0, 0.0, 0.0, 1.6518368421718395E9, 0.0, 2022-05-06 12:34:02.171
4.0, -242.88780262228101, -187.96737177297473, -183.50193122588098, -184.24056146712974, 0.12800000607967377, 0.12800000607967377, 1.0240000486373901, 0.0, 0.0, 0.0, 0.0, 0.0, 1.6518368421718395E9, 0.0, 2022-05-06 12:34:02.171
5.0, -298.01392796915025, -237.3003920884803, -232.40112314652652, -199.98554028058425, 0.12800000607967377, 0.12800000607967377, 1.0240000486373901, 0.0, 0.0, 0.0, 0.0, 0.0, 1.6518368421878386E9, 0.0, 2022-05-06 12:34:02.187
5.0, -249.5672639431432, -106.17201984208077, -161.94888778124005, -162.32474772678688, 0.12800000607967377, 0.12800000607967377, 1.0240000486373901, 0.0, 0.0, 0.0, 0.0, 0.0, 1.6518368421878386E9, 0.0, 2022-05-06 12:34:02.187
6.0, -201.78630210924894, -61.8429856672883, -115.43575203232467, -158.66712557012215, 0.12800000607967377, 0.12800000607967377, 1.0240000486373901, 0.0, 0.0, 0.0, 0.0, 0.0, 1.6518368421888936E9, 0.0, 2022-05-06 12:34:02.188
6.0, -260.70094611123204, -195.96701777819544, -190.66757954098284, -192.67403586721048, 0.12800000607967377, 0.12800000607967377, 1.0240000486373901, 0.0, 0.0, 0.0, 0.0, 0.0, 1.6518368421888936E9, 0.0, 2022-05-06 12:34:02.188
7.0, -300.9273100346327, -244.5595379024744, -238.09325087908655, -228.0497495480813, 0.12800000607967377, 0.12800000607967377, 1.0240000486373901, 0.0, 0.0, 0.0, 0.0, 0.0, 1.6518368422018335E9, 0.0, 2022-05-06 12:34:02.201
7.0, -258.13537474162877, -130.81422065012157, -184.66878001205623, -188.17119632055983, 0.12800000607967377, 0.12800000607967377, 1.0240000486373901, 0.0, 0.0, 0.0, 0.0, 0.0, 1.6518368422018335E9, 0.0, 2022-05-06 12:34:02.201
8.0, -199.0561751415953, -57.699176516383886, -106.17201984208077, -127.12106944387779, 0.12800000607967377, 0.12800000607967377, 1.0240000486373901, 0.0, 0.0, 0.0, 0.0, 0.0, 1.651836842217838E9, 0.0, 2022-05-06 12:34:02.217
8.0, -253.20992649998516, -187.4587453790009, -184.792196710594, -192.2925660717301, 0.12800000607967377, 0.12800000607967377, 1.0240000486373901, 0.0, 0.0, 0.0, 0.0, 0.0, 1.651836842217838E9, 0.0, 2022-05-06 12:34:02.217
9.0, -300.3289260417223, -237.86137708183378, -239.06936476752162, -214.0849631135352, 0.12800000607967377, 0.12800000607967377, 1.0240000486373901, 0.0, 0.0, 0.0, 0.0, 0.0, 1.6518368422188532E9, 0.0, 2022-05-06 12:34:02.218
9.0, -241.83315083477646, -112.54854926653206, -169.6717811897397, -188.11883772118017, 0.12800000607967377, 0.12800000607967377, 1.0240000486373901, 0.0, 0.0, 0.0, 0.0, 0.0, 1.6518368422188532E9, 0.0, 2022-05-06 12:34:02.218
10.0, -204.4715502774343, -61.95892256591469, -117.65351270604879, -146.65456691244617, 0.12800000607967377, 0.12800000607967377, 1.0240000486373901, 0.0, 0.0, 0.0, 0.0, 0.0, 1.6518368422318146E9, 0.0, 2022-05-06 12:34:02.231
10.0, -270.2750899977982, -207.11565954610705, -199.9425314310938, -207.12500929599628, 0.12800000607967377, 0.12800000607967377, 1.0240000486373901, 0.0, 0.0, 0.0, 0.0, 0.0, 1.6518368422318146E9, 0.0, 2022-05-06 12:34:02.231
11.0, -309.4131430340931, -253.99530549068004, -258.29245053976774, -244.1761981570162, 0.12800000607967377, 0.12800000607967377, 1.0240000486373901, 0.0, 0.0, 0.0, 0.0, 0.0, 1.6518368422478192E9, 0.0, 2022-05-06 12:34:02.247
11.0, -248.76692535262555, -121.7262637577951, -178.90933408029377, -188.7770601133816, 0.12800000607967377, 0.12800000607967377, 1.0240000486373901, 0.0, 0.0, 0.0, 0.0, 0.0, 1.6518368422478192E9, 0.0, 2022-05-06 12:34:02.247
12.0, -215.59027284570038, -75.8900499008596, -132.69913022778928, -160.10698705306277, 0.12800000607967377, 0.12800000607967377, 1.0240000486373901, 0.0, 0.0, 0.0, 0.0, 0.0, 1.6518368422487855E9, 0.0, 2022-05-06 12:34:02.248
12.0, -275.15191954001784, -211.05003429949284, -207.60184654034674, -214.0064252144657, 0.12800000607967377, 0.12800000607967377, 1.0240000486373901, 0.0, 0.0, 0.0, 0.0, 0.0, 1.6518368422487855E9, 0.0, 2022-05-06 12:34:02.248
13.0, -307.1542434608564, -255.2369522759691, -249.17457444779575, -227.2381912576966, 0.12800000607967377, 0.12800000607967377, 1.0240000486373901, 0.0, 0.0, 0.0, 0.0, 0.0, 1.65183684226183E9, 0.0, 2022-05-06 12:34:02.261
13.0, -246.9717733738944, -107.50342422630638, -164.37982275243849, -166.15814518136904, 0.12800000607967377, 0.12800000607967377, 1.0240000486373901, 0.0, 0.0, 0.0, 0.0, 0.0, 1.65183684226183E9, 0.0, 2022-05-06 12:34:02.261
14.0, -188.29648296907544, -45.679138058796525, -98.65856083109975, -128.69556732522324, 0.12800000607967377, 0.12800000607967377, 1.0240000486373901, 0.0, 0.0, 0.0, 0.0, 0.0, 1.651836842277846E9, 0.0, 2022-05-06 12:34:02.277
14.0, -239.75750635936856, -181.25425135251135, -169.86999588739127, -174.5430008820258, 0.12800000607967377, 0.12800000607967377, 1.0240000486373901, 0.0, 0.0, 0.0, 0.0, 0.0, 1.651836842277846E9, 0.0, 2022-05-06 12:34:02.277
15.0, -302.23253511916846, -241.80323163513094, -243.5572447143495, -218.9767522555776, 0.12800000607967377, 0.12800000607967377, 1.0240000486373901, 0.0, 0.0, 0.0, 0.0, 0.0, 1.6518368422788363E9, 0.0, 2022-05-06 12:34:02.278
15.0, -245.7862250879407, -108.36360121611506, -169.94853378646076, -186.7388146375306, 0.12800000607967377, 0.12800000607967377, 1.0240000486373901, 0.0, 0.0, 0.0, 0.0, 0.0, 1.6518368422788363E9, 0.0, 2022-05-06 12:34:02.278
16.0, -193.65949950553477, -56.78290102723986, -106.20567894168198, -143.47191205015406, 0.12800000607967377, 0.12800000607967377, 1.0240000486373901, 0.0, 0.0, 0.0, 0.0, 0.0, 1.6518368422918189E9, 0.0, 2022-05-06 12:34:02.291
16.0, -255.1584143768996, -200.26042292732745, -187.72801817581058, -191.69418207881972, 0.12800000607967377, 0.12800000607967377, 1.0240000486373901, 0.0, 0.0, 0.0, 0.0, 0.0, 1.6518368422918189E9, 0.0, 2022-05-06 12:34:02.291
17.0, -309.64501683134586, -242.6671485248953, -244.09205040801316, -223.18787960568443, 0.12800000607967377, 0.12800000607967377, 1.0240000486373901, 0.0, 0.0, 0.0, 0.0, 0.0, 1.651836842307846E9, 0.0, 2022-05-06 12:34:02.307
17.0, -242.6372293252498, -105.20338575355709, -157.76767963077873, -161.49448993662372, 0.12800000607967377, 0.12800000607967377, 1.0240000486373901, 0.0, 0.0, 0.0, 0.0, 0.0, 1.651836842307846E9, 0.0, 2022-05-06 12:34:02.307
18.0, -190.8732740385458, -56.73428232781589, -106.07478244323283, -137.20757962437347, 0.12800000607967377, 0.12800000607967377, 1.0240000486373901, 0.0, 0.0, 0.0, 0.0, 0.0, 1.6518368423088703E9, 0.0, 2022-05-06 12:34:02.308
18.0, -266.44917234312743, -199.00755644217134, -195.85482077952474, -195.38172343512997, 0.12800000607967377, 0.12800000607967377, 1.0240000486373901, 0.0, 0.0, 0.0, 0.0, 0.0, 1.6518368423088703E9, 0.0, 2022-05-06 12:34:02.308
19.0, -307.76010725367814, -248.23959945887327, -248.7444859528914, -242.81861447310075, 0.12800000607967377, 0.12800000607967377, 1.0240000486373901, 0.0, 0.0, 0.0, 0.0, 0.0, 1.6518368423218155E9, 0.0, 2022-05-06 12:34:02.321
19.0, -241.29086534120142, -108.48327801469713, -158.2987454244867, -164.77812209771946, 0.12800000607967377, 0.12800000607967377, 1.0240000486373901, 0.0, 0.0, 0.0, 0.0, 0.0, 1.6518368423218155E9, 0.0, 2022-05-06 12:34:02.321
20.0, -189.1977988583967, -50.59336660057306, -98.17237383686006, -129.42484781658277, 0.12800000607967377, 0.12800000607967377, 1.0240000486373901, 0.0, 0.0, 0.0, 0.0, 0.0, 1.651836842337886E9, 0.0, 2022-05-06 12:34:02.337
20.0, -250.25914543494582, -193.07233521249145, -198.30819515045732, -204.94090772187337, 0.12800000607967377, 0.12800000607967377, 1.0240000486373901, 0.0, 0.0, 0.0, 0.0, 0.0, 1.651836842337886E9, 0.0, 2022-05-06 12:34:02.337
21.0, -308.2500341478735, -251.83364331629127, -250.53215813171118, -239.534982312005, 0.12800000607967377, 0.12800000607967377, 1.0240000486373901, 0.0, 0.0, 0.0, 0.0, 0.0, 1.6518368423388257E9, 0.0, 2022-05-06 12:34:02.338
21.0, -245.82736398745328, -115.84340112749487, -169.7503190888092, -178.00614824099466, 0.12800000607967377, 0.12800000607967377, 1.0240000486373901, 0.0, 0.0, 0.0, 0.0, 0.0, 1.6518368423388257E9, 0.0, 2022-05-06 12:34:02.338
22.0, -199.11975344084203, -57.003555124625564, -108.62165431305766, -138.12759501347318, 0.12800000607967377, 0.12800000607967377, 1.0240000486373901, 0.0, 0.0, 0.0, 0.0, 0.0, 1.6518368423518176E9, 0.0, 2022-05-06 12:34:02.351
22.0, -251.31753712240607, -188.54331636615098, -184.98293160833418, -184.37519786553457, 0.12800000607967377, 0.12800000607967377, 1.0240000486373901, 0.0, 0.0, 0.0, 0.0, 0.0, 1.6518368423518176E9, 0.0, 2022-05-06 12:34:02.351
23.0, -298.74694836046547, -242.16974183078855, -237.34527088794857, -219.25724475225434, 0.12800000607967377, 0.12800000607967377, 1.0240000486373901, 0.0, 0.0, 0.0, 0.0, 0.0, 1.6518368423678188E9, 0.0, 2022-05-06 12:34:02.367
23.0, -236.85908389370888, -104.3469486637041, -153.9604614758864, -164.15729870507494, 0.12800000607967377, 0.12800000607967377, 1.0240000486373901, 0.0, 0.0, 0.0, 0.0, 0.0, 1.6518368423678188E9, 0.0, 2022-05-06 12:34:02.367
24.0, -191.8344283271581, -52.58673327695578, -98.95027302764356, -131.90440148720518, 0.12800000607967377, 0.12800000607967377, 1.0240000486373901, 0.0, 0.0, 0.0, 0.0, 0.0, 1.6518368423687792E9, 0.0, 2022-05-06 12:34:02.368
24.0, -260.8318426096812, -202.08549410570413, -191.78206972777843, -198.39608279941604, 0.12800000607967377, 0.12800000607967377, 1.0240000486373901, 0.0, 0.0, 0.0, 0.0, 0.0, 1.6518368423687792E9, 0.0, 2022-05-06 12:34:02.368
25.0, -298.8105266597122, -241.55265833809972, -239.0020465683192, -219.27968415198848, 0.12800000607967377, 0.12800000607967377, 1.0240000486373901, 0.0, 0.0, 0.0, 0.0, 0.0, 1.65183684238185E9, 0.0, 2022-05-06 12:34:02.381
25.0, -227.83096540067345, -105.07622915506363, -156.82522484194487, -168.27118865633383, 0.12800000607967377, 0.12800000607967377, 1.0240000486373901, 0.0, 0.0, 0.0, 0.0, 0.0, 1.65183684238185E9, 0.0, 2022-05-06 12:34:02.381
26.0, -198.78316244482994, -58.611712105572224, -112.39521336834878, -149.02192358439788, 0.12800000607967377, 0.12800000607967377, 1.0240000486373901, 0.0, 0.0, 0.0, 0.0, 0.0, 1.6518368423978195E9, 0.0, 2022-05-06 12:34:02.397
26.0, -253.33334319852293, -194.29154259804636, -191.5389762306586, -188.33949181856588, 0.12800000607967377, 0.12800000607967377, 1.0240000486373901, 0.0, 0.0, 0.0, 0.0, 0.0, 1.6518368423978195E9, 0.0, 2022-05-06 12:34:02.397
27.0, -304.8205458885059, -245.76004578825086, -236.64964949619025, -213.31454372266307, 0.12800000607967377, 0.12800000607967377, 1.0240000486373901, 0.0, 0.0, 0.0, 0.0, 0.0, 1.6518368423987744E9, 0.0, 2022-05-06 12:34:02.398
27.0, -246.32477068156004, -110.24851079378277, -173.05639064963907, -181.0728662046604, 0.12800000607967377, 0.12800000607967377, 1.0240000486373901, 0.0, 0.0, 0.0, 0.0, 0.0, 1.6518368423987744E9, 0.0, 2022-05-06 12:34:02.398
28.0, -196.62524017039686, -58.521954506635666, -108.4234396154061, -139.601115596015, 0.12800000607967377, 0.12800000607967377, 1.0240000486373901, 0.0, 0.0, 0.0, 0.0, 0.0, 1.6518368424118907E9, 0.0, 2022-05-06 12:34:02.411
28.0, -245.96200038585812, -186.91271998547018, -183.935759620741, -170.41041143098846, 0.12800000607967377, 0.12800000607967377, 1.0240000486373901, 0.0, 0.0, 0.0, 0.0, 0.0, 1.6518368424118907E9, 0.0, 2022-05-06 12:34:02.411
29.0, -298.63475136179477, -235.20978801324964, -231.87379725277424, -214.20837981207296, 0.12800000607967377, 0.12800000607967377, 1.0240000486373901, 0.0, 0.0, 0.0, 0.0, 0.0, 1.6518368424278212E9, 0.0, 2022-05-06 12:34:02.427
29.0, -241.84437053464353, -108.46457851491868, -164.80243144743145, -178.8438858310692, 0.12800000607967377, 0.12800000607967377, 1.0240000486373901, 0.0, 0.0, 0.0, 0.0, 0.0, 1.6518368424278212E9, 0.0, 2022-05-06 12:34:02.427
30.0, -203.60015358775854, -62.613405058160424, -116.30714872200042, -149.43331257952377, 0.12800000607967377, 0.12800000607967377, 1.0240000486373901, 0.0, 0.0, 0.0, 0.0, 0.0, 1.651836842428769E9, 0.0, 2022-05-06 12:34:02.428
30.0, -258.1166752418503, -200.88124631997198, -192.13736022356898, -188.85559801245108, 0.12800000607967377, 0.12800000607967377, 1.0240000486373901, 0.0, 0.0, 0.0, 0.0, 0.0, 1.651836842428769E9, 0.0, 2022-05-06 12:34:02.428
31.0, -311.1447167135775, -248.50139245577157, -244.16684840712696, -228.13576724706218, 0.12800000607967377, 0.12800000607967377, 1.0240000486373901, 0.0, 0.0, 0.0, 0.0, 0.0, 1.6518368424418228E9, 0.0, 2022-05-06 12:34:02.441
31.0, -249.46254674438387, -111.56869547814131, -164.8173910472542, -175.75472846766934, 0.12800000607967377, 0.12800000607967377, 1.0240000486373901, 0.0, 0.0, 0.0, 0.0, 0.0, 1.6518368424418228E9, 0.0, 2022-05-06 12:34:02.441
32.0, -210.18237750977278, -66.33834541402757, -123.69719103444368, -149.91201977385208, 0.12800000607967377, 0.12800000607967377, 1.0240000486373901, 0.0, 0.0, 0.0, 0.0, 0.0, 1.651836842457816E9, 0.0, 2022-05-06 12:34:02.457
32.0, -255.99989186692983, -192.0924814241007, -182.67167343571782, -186.8472717362456, 0.12800000607967377, 0.12800000607967377, 1.0240000486373901, 0.0, 0.0, 0.0, 0.0, 0.0, 1.651836842457816E9, 0.0, 2022-05-06 12:34:02.457
33.0, -302.4419695166871, -242.5212924266234, -246.85209657531232, -228.10210814746097, 0.12800000607967377, 0.12800000607967377, 1.0240000486373901, 0.0, 0.0, 0.0, 0.0, 0.0, 1.6518368424587624E9, 0.0, 2022-05-06 12:34:02.458
33.0, -257.43975334987044, -126.24032300431281, -176.09692931361496, -188.1076180213131, 0.12800000607967377, 0.12800000607967377, 1.0240000486373901, 0.0, 0.0, 0.0, 0.0, 0.0, 1.6518368424587624E9, 0.0, 2022-05-06 12:34:02.458
34.0, -207.52330864127725, -71.28623305540532, -122.35830685030669, -152.11108094779775, 0.12800000607967377, 0.12800000607967377, 1.0240000486373901, 0.0, 0.0, 0.0, 0.0, 0.0, 1.6518368424718273E9, 0.0, 2022-05-06 12:34:02.471
34.0, -262.1894262935966, -207.0221620472148, -204.1686183810234, -201.97890695696697, 0.12800000607967377, 0.12800000607967377, 1.0240000486373901, 0.0, 0.0, 0.0, 0.0, 0.0, 1.6518368424718273E9, 0.0, 2022-05-06 12:34:02.471
35.0, -309.2598071359098, -256.3028237633407, -251.5681104194373, -233.84659447940066, 0.12800000607967377, 0.12800000607967377, 1.0240000486373901, 0.0, 0.0, 0.0, 0.0, 0.0, 1.6518368424878392E9, 0.0, 2022-05-06 12:34:02.487
35.0, -267.10365483537316, -121.5392687600106, -173.46029984485358, -174.55422058189288, 0.12800000607967377, 0.12800000607967377, 1.0240000486373901, 0.0, 0.0, 0.0, 0.0, 0.0, 1.6518368424878392E9, 0.0, 2022-05-06 12:34:02.487
36.0, -220.32124628964812, -76.3687570951879, -130.9862560480833, -163.51777581265196, 0.12800000607967377, 0.12800000607967377, 1.0240000486373901, 0.0, 0.0, 0.0, 0.0, 0.0, 1.651836842488764E9, 0.0, 2022-05-06 12:34:02.488
36.0, -270.41346629615873, -206.33776035532355, -203.97040368337184, -205.4121351162903, 0.12800000607967377, 0.12800000607967377, 1.0240000486373901, 0.0, 0.0, 0.0, 0.0, 0.0, 1.651836842488764E9, 0.0, 2022-05-06 12:34:02.488
37.0, -313.0296262912452, -245.16166179534048, -244.20050750672817, -218.54666376067325, 0.12800000607967377, 0.12800000607967377, 1.0240000486373901, 0.0, 0.0, 0.0, 0.0, 0.0, 1.651836842501896E9, 0.0, 2022-05-06 12:34:02.501
37.0, -250.18434743583202, -114.8298882395029, -172.562723855488, -180.28000741405413, 0.12800000607967377, 0.12800000607967377, 1.0240000486373901, 0.0, 0.0, 0.0, 0.0, 0.0, 1.651836842501896E9, 0.0, 2022-05-06 12:34:02.501
38.0, -215.15270455088466, -68.15967669244856, -122.95669084321707, -155.09926101239398, 0.12800000607967377, 0.12800000607967377, 1.0240000486373901, 0.0, 0.0, 0.0, 0.0, 0.0, 1.6518368425178516E9, 0.0, 2022-05-06 12:34:02.517
38.0, -268.6070946175605, -203.40941869001836, -199.7667561331764, -201.90784885780886, 0.12800000607967377, 0.12800000607967377, 1.0240000486373901, 0.0, 0.0, 0.0, 0.0, 0.0, 1.6518368425178516E9, 0.0, 2022-05-06 12:34:02.517
39.0, -310.3967367224395, -241.72469373606145, -243.24683301802725, -224.5379834896885, 0.12800000607967377, 0.12800000607967377, 1.0240000486373901, 0.0, 0.0, 0.0, 0.0, 0.0, 1.6518368425187557E9, 0.0, 2022-05-06 12:34:02.518
39.0, -247.62251596618444, -103.67376667167991, -164.13298935536295, -182.11629829229787, 0.12800000607967377, 0.12800000607967377, 1.0240000486373901, 0.0, 0.0, 0.0, 0.0, 0.0, 1.6518368425187557E9, 0.0, 2022-05-06 12:34:02.518
40.0, -199.89017283171415, -57.55332041811198, -104.97151195630431, -137.10660232556984, 0.12800000607967377, 0.12800000607967377, 1.0240000486373901, 0.0, 0.0, 0.0, 0.0, 0.0, 1.6518368425318272E9, 0.0, 2022-05-06 12:34:02.531
40.0, -274.33662134967744, -202.7250169981271, -199.0935741411522, -196.17458222573623, 0.12800000607967377, 0.12800000607967377, 1.0240000486373901, 0.0, 0.0, 0.0, 0.0, 0.0, 1.6518368425318272E9, 0.0, 2022-05-06 12:34:02.531
41.0, -305.6657632784918, -235.27336631249636, -240.01929935626686, -219.99026514356956, 0.12800000607967377, 0.12800000607967377, 1.0240000486373901, 0.0, 0.0, 0.0, 0.0, 0.0, 1.6518368425478473E9, 0.0, 2022-05-06 12:34:02.547
41.0, -249.61962254252285, -108.460838614963, -171.81474386435002, -174.29242758499458, 0.12800000607967377, 0.12800000607967377, 1.0240000486373901, 0.0, 0.0, 0.0, 0.0, 0.0, 1.6518368425478473E9, 0.0, 2022-05-06 12:34:02.547
42.0, -203.67869148682803, -64.64417073410004, -122.44058464933187, -147.30530950473621, 0.12800000607967377, 0.12800000607967377, 1.0240000486373901, 0.0, 0.0, 0.0, 0.0, 0.0, 1.651836842548797E9, 0.0, 2022-05-06 12:34:02.548
42.0, -264.9719118606299, -200.84384732041508, -197.40313936118037, -200.7821389711462, 0.12800000607967377, 0.12800000607967377, 1.0240000486373901, 0.0, 0.0, 0.0, 0.0, 0.0, 1.651836842548797E9, 0.0, 2022-05-06 12:34:02.548
43.0, -312.562138796784, -246.86705617513508, -249.35408964566886, -224.1639934941195, 0.12800000607967377, 0.12800000607967377, 1.0240000486373901, 0.0, 0.0, 0.0, 0.0, 0.0, 1.6518368425618684E9, 0.0, 2022-05-06 12:34:02.561
43.0, -251.94210041500628, -116.27348962239921, -170.29634448233992, -182.4790685879998, 0.12800000607967377, 0.12800000607967377, 1.0240000486373901, 0.0, 0.0, 0.0, 0.0, 0.0, 1.6518368425618684E9, 0.0, 2022-05-06 12:34:02.561
44.0, -201.07946101762354, -60.881831378676, -106.29543654061854, -136.8597689284943, 0.12800000607967377, 0.12800000607967377, 1.0240000486373901, 0.0, 0.0, 0.0, 0.0, 0.0, 1.6518368425778215E9, 0.0, 2022-05-06 12:34:02.577
44.0, -261.25071140471846, -191.80450912751257, -195.7201843811199, -197.1095572146587, 0.12800000607967377, 0.12800000607967377, 1.0240000486373901, 0.0, 0.0, 0.0, 0.0, 0.0, 1.6518368425778215E9, 0.0, 2022-05-06 12:34:02.577
45.0, -312.3340048994869, -248.71830665320158, -251.3773755216971, -226.56126936571673, 0.12800000607967377, 0.12800000607967377, 1.0240000486373901, 0.0, 0.0, 0.0, 0.0, 0.0, 1.6518368425788107E9, 0.0, 2022-05-06 12:34:02.578
45.0, -249.94499383866787, -112.10724107176065, -162.98110016901046, -169.53527484135702, 0.12800000607967377, 0.12800000607967377, 1.0240000486373901, 0.0, 0.0, 0.0, 0.0, 0.0, 1.6518368425788107E9, 0.0, 2022-05-06 12:34:02.578
46.0, -189.085601859726, -52.8410464739427, -103.94303946848959, -119.35703713586554, 0.12800000607967377, 0.12800000607967377, 1.0240000486373901, 0.0, 0.0, 0.0, 0.0, 0.0, 1.6518368425918465E9, 0.0, 2022-05-06 12:34:02.591
46.0, -263.1917194817215, -195.85108087956905, -196.6850785696879, -196.26807972462848, 0.12800000607967377, 0.12800000607967377, 1.0240000486373901, 0.0, 0.0, 0.0, 0.0, 0.0, 1.6518368425918465E9, 0.0, 2022-05-06 12:34:02.591
47.0, -306.76155396550894, -246.4556671800092, -248.31065755803138, -233.59228128241375, 0.12800000607967377, 0.12800000607967377, 1.0240000486373901, 0.0, 0.0, 0.0, 0.0, 0.0, 1.65183684260782E9, 0.0, 2022-05-06 12:34:02.607
47.0, -238.42236207518727, -101.11567510198802, -156.4063560469076, -166.98092317162082, 0.12800000607967377, 0.12800000607967377, 1.0240000486373901, 0.0, 0.0, 0.0, 0.0, 0.0, 1.65183684260782E9, 0.0, 2022-05-06 12:34:02.607
48.0, -212.51607508212328, -70.53451316431165, -126.3188609033823, -148.55069618998095, 0.12800000607967377, 0.12800000607967377, 1.0240000486373901, 0.0, 0.0, 0.0, 0.0, 0.0, 1.6518368426087852E9, 0.0, 2022-05-06 12:34:02.608
48.0, -268.8763674143702, -199.17585194017738, -194.32894159760326, -194.8169985418208, 0.12800000607967377, 0.12800000607967377, 1.0240000486373901, 0.0, 0.0, 0.0, 0.0, 0.0, 1.6518368426087852E9, 0.0, 2022-05-06 12:34:02.608
49.0, -297.23602877836674, -238.31764487642795, -234.16635592561215, -201.29076536512002, 0.12800000607967377, 0.12800000607967377, 1.0240000486373901, 0.0, 0.0, 0.0, 0.0, 0.0, 1.6518368426390874E9, 0.0, 2022-05-06 12:34:02.639
49.0, -250.16190803609788, -97.72358584217727, -163.46728716325015, -158.96631756657735, 0.12800000607967377, 0.12800000607967377, 1.0240000486373901, 0.0, 0.0, 0.0, 0.0, 0.0, 1.6518368426390874E9, 0.0, 2022-05-06 12:34:02.639
50.0, -206.2816618559882, -56.513628230430186, -111.29942268133163, -148.73769118776545, 0.12800000607967377, 0.12800000607967377, 1.0240000486373901, 0.0, 0.0, 0.0, 0.0, 0.0, 1.651836842639763E9, 0.0, 2022-05-06 12:34:02.639
50.0, -270.3050091974437, -200.23798352759331, -202.34728710260242, -204.32008432922885, 0.12800000607967377, 0.12800000607967377, 1.0240000486373901, 0.0, 0.0, 0.0, 0.0, 0.0, 1.651836842639763E9, 0.0, 2022-05-06 12:34:02.639
51.0, -307.6254708552733, -244.3014848055318, -240.68500154837966, -222.312743016053, 0.12800000607967377, 0.12800000607967377, 1.0240000486373901, 0.0, 0.0, 0.0, 0.0, 0.0, 1.6518368426408339E9, 0.0, 2022-05-06 12:34:02.640
51.0, -249.84027663990855, -110.0540359960869, -164.34990355279297, -167.11929946998134, 0.12800000607967377, 0.12800000607967377, 1.0240000486373901, 0.0, 0.0, 0.0, 0.0, 0.0, 1.6518368426408339E9, 0.0, 2022-05-06 12:34:02.640
52.0, -209.3558596195653, -65.53426692355424, -120.60803367104381, -155.13666001195088, 0.12800000607967377, 0.12800000607967377, 1.0240000486373901, 0.0, 0.0, 0.0, 0.0, 0.0, 1.651836842651863E9, 0.0, 2022-05-06 12:34:02.651
52.0, -256.8638087566942, -201.25897621549666, -191.66987272910774, -190.20944179641083, 0.12800000607967377, 0.12800000607967377, 1.0240000486373901, 0.0, 0.0, 0.0, 0.0, 0.0, 1.651836842651863E9, 0.0, 2022-05-06 12:34:02.651
53.0, -305.38901068177074, -250.90240822732449, -254.17108078859746, -233.0911346883513, 0.12800000607967377, 0.12800000607967377, 1.0240000486373901, 0.0, 0.0, 0.0, 0.0, 0.0, 1.6518368426678112E9, 0.0, 2022-05-06 12:34:02.667
53.0, -250.55833743140101, -110.17745269462466, -166.76961882412434, -172.96850300068036, 0.12800000607967377, 0.12800000607967377, 1.0240000486373901, 0.0, 0.0, 0.0, 0.0, 0.0, 1.6518368426678112E9, 0.0, 2022-05-06 12:34:02.667
54.0, -208.1366522340104, -59.54294719453901, -110.52152349054813, -136.7513118297793, 0.12800000607967377, 0.12800000607967377, 1.0240000486373901, 0.0, 0.0, 0.0, 0.0, 0.0, 1.6518368426687803E9, 0.0, 2022-05-06 12:34:02.668
54.0, -262.2006459934637, -198.61860684677958, -187.75045757554471, -189.26698700757697, 0.12800000607967377, 0.12800000607967377, 1.0240000486373901, 0.0, 0.0, 0.0, 0.0, 0.0, 1.6518368426687803E9, 0.0, 2022-05-06 12:34:02.668
55.0, -297.9466097699478, -237.0348591916263, -232.34502464719117, -206.60890310211107, 0.12800000607967377, 0.12800000607967377, 1.0240000486373901, 0.0, 0.0, 0.0, 0.0, 0.0, 1.6518368426818109E9, 0.0, 2022-05-06 12:34:02.681
55.0, -242.5212924266234, -106.51609063800424, -174.81040372885764, -187.78972652507946, 0.12800000607967377, 0.12800000607967377, 1.0240000486373901, 0.0, 0.0, 0.0, 0.0, 0.0, 1.6518368426818109E9, 0.0, 2022-05-06 12:34:02.681
56.0, -199.2843090388924, -62.65454395767301, -118.25189669895917, -153.4985838313587, 0.12800000607967377, 0.12800000607967377, 1.0240000486373901, 0.0, 0.0, 0.0, 0.0, 0.0, 1.651836842697827E9, 0.0, 2022-05-06 12:34:02.697
56.0, -264.43336626701057, -199.93505163118243, -189.4932509548962, -189.05381271010265, 0.12800000607967377, 0.12800000607967377, 1.0240000486373901, 0.0, 0.0, 0.0, 0.0, 0.0, 1.651836842697827E9, 0.0, 2022-05-06 12:34:02.697
57.0, -303.4741819044575, -237.46868758648634, -243.66570181306452, -217.21525937644765, 0.12800000607967377, 0.12800000607967377, 1.0240000486373901, 0.0, 0.0, 0.0, 0.0, 0.0, 1.6518368426988246E9, 0.0, 2022-05-06 12:34:02.698
57.0, -245.9732200857252, -102.73131188284606, -157.96963422838598, -168.75737565057352, 0.12800000607967377, 0.12800000607967377, 1.0240000486373901, 0.0, 0.0, 0.0, 0.0, 0.0, 1.6518368426988246E9, 0.0, 2022-05-06 12:34:02.698
58.0, -190.44318554364145, -61.775667468085885, -112.58220836613327, -141.83757576951757, 0.12800000607967377, 0.12800000607967377, 1.0240000486373901, 0.0, 0.0, 0.0, 0.0, 0.0, 1.6518368427118304E9, 0.0, 2022-05-06 12:34:02.711
58.0, -242.34925702866167, -191.6511732293293, -187.1258942829445, -184.0273871696554, 0.12800000607967377, 0.12800000607967377, 1.0240000486373901, 0.0, 0.0, 0.0, 0.0, 0.0, 1.6518368427118304E9, 0.0, 2022-05-06 12:34:02.711
59.0, -314.7873792704195, -238.78887227084488, -238.7813924709335, -218.07917626621202, 0.12800000607967377, 0.12800000607967377, 1.0240000486373901, 0.0, 0.0, 0.0, 0.0, 0.0, 1.651836842727827E9, 0.0, 2022-05-06 12:34:02.727
59.0, -252.28991111088544, -107.95595212094486, -167.58491701446474, -175.89310476602986, 0.12800000607967377, 0.12800000607967377, 1.0240000486373901, 0.0, 0.0, 0.0, 0.0, 0.0, 1.651836842727827E9, 0.0, 2022-05-06 12:34:02.727
60.0, -200.6905114222318, -61.58119267039001, -101.1568140015006, -125.7447862601839, 0.12800000607967377, 0.12800000607967377, 1.0240000486373901, 0.0, 0.0, 0.0, 0.0, 0.0, 1.6518368427287736E9, 0.0, 2022-05-06 12:34:02.728
60.0, -265.8358287503943, -201.38239291403443, -200.0921274293214, -201.4441012633033, 0.12800000607967377, 0.12800000607967377, 1.0240000486373901, 0.0, 0.0, 0.0, 0.0, 0.0, 1.6518368427287736E9, 0.0, 2022-05-06 12:34:02.728
61.0, -311.79919920582324, -243.10471681971103, -246.40330858062953, -233.08365488843992, 0.12800000607967377, 0.12800000607967377, 1.0240000486373901, 0.0, 0.0, 0.0, 0.0, 0.0, 1.6518368427418413E9, 0.0, 2022-05-06 12:34:02.741
61.0, -245.8610230870545, -103.76352427061647, -155.9276488525793, -157.4591378844343, 0.12800000607967377, 0.12800000607967377, 1.0240000486373901, 0.0, 0.0, 0.0, 0.0, 0.0, 1.6518368427418413E9, 0.0, 2022-05-06 12:34:02.741
62.0, -206.04604815877974, -70.13434386905283, -123.5401152363047, -145.70089242374524, 0.12800000607967377, 0.12800000607967377, 1.0240000486373901, 0.0, 0.0, 0.0, 0.0, 0.0, 1.6518368427578263E9, 0.0, 2022-05-06 12:34:02.757
62.0, -274.5797148467973, -211.2856479967013, -207.3250939436257, -209.60830286657438, 0.12800000607967377, 0.12800000607967377, 1.0240000486373901, 0.0, 0.0, 0.0, 0.0, 0.0, 1.6518368427578263E9, 0.0, 2022-05-06 12:34:02.757
63.0, -303.6686567021534, -231.13703696150333, -236.67956869583577, -219.4554594499059, 0.12800000607967377, 0.12800000607967377, 1.0240000486373901, 0.0, 0.0, 0.0, 0.0, 0.0, 1.6518368427587972E9, 0.0, 2022-05-06 12:34:02.758
63.0, -237.94739478081465, -101.78137729410082, -157.113197138533, -168.4656634540297, 0.12800000607967377, 0.12800000607967377, 1.0240000486373901, 0.0, 0.0, 0.0, 0.0, 0.0, 1.6518368427587972E9, 0.0, 2022-05-06 12:34:02.758
64.0, -205.73937636241317, -63.25666785053909, -104.0514965672046, -138.6063022078015, 0.12800000607967377, 0.12800000607967377, 1.0240000486373901, 0.0, 0.0, 0.0, 0.0, 0.0, 1.6518368427718284E9, 0.0, 2022-05-06 12:34:02.771
64.0, -264.2762904688716, -195.29009588621557, -196.92817206680775, -193.99422055156901, 0.12800000607967377, 0.12800000607967377, 1.0240000486373901, 0.0, 0.0, 0.0, 0.0, 0.0, 1.6518368427718284E9, 0.0, 2022-05-06 12:34:02.771
65.0, -301.2265020310879, -238.88610966969281, -244.14066910743713, -232.7246244926937, 0.12800000607967377, 0.12800000607967377, 1.0240000486373901, 0.0, 0.0, 0.0, 0.0, 0.0, 1.6518368427878444E9, 0.0, 2022-05-06 12:34:02.787
65.0, -228.60886459145695, -91.34705641772598, -145.79999977257103, -152.78800283977762, 0.12800000607967377, 0.12800000607967377, 1.0240000486373901, 0.0, 0.0, 0.0, 0.0, 0.0, 1.6518368427878444E9, 0.0, 2022-05-06 12:34:02.787
66.0, -203.6861712867394, -67.32567900232971, -117.61611370649189, -152.313035545405, 0.12800000607967377, 0.12800000607967377, 1.0240000486373901, 0.0, 0.0, 0.0, 0.0, 0.0, 1.6518368427889335E9, 0.0, 2022-05-06 12:34:02.788
66.0, -246.87453597504646, -194.717891192995, -188.33762186858803, -183.15973037993535, 0.12800000607967377, 0.12800000607967377, 1.0240000486373901, 0.0, 0.0, 0.0, 0.0, 0.0, 1.6518368427889335E9, 0.0, 2022-05-06 12:34:02.788
67.0, -307.0046474626288, -235.98020740412176, -242.12486303132027, -218.09787576599047, 0.12800000607967377, 0.12800000607967377, 1.0240000486373901, 0.0, 0.0, 0.0, 0.0, 0.0, 1.651836842801818E9, 0.0, 2022-05-06 12:34:02.801
67.0, -232.15802964940667, -87.46878016367555, -136.65220448095351, -142.20408596517518, 0.12800000607967377, 0.12800000607967377, 1.0240000486373901, 0.0, 0.0, 0.0, 0.0, 0.0, 1.651836842801818E9, 0.0, 2022-05-06 12:34:02.801
68.0, -194.6505729937926, -52.4333973787725, -107.48098482657224, -138.21735261240974, 0.12800000607967377, 0.12800000607967377, 1.0240000486373901, 0.0, 0.0, 0.0, 0.0, 0.0, 1.6518368428178196E9, 0.0, 2022-05-06 12:34:02.817
68.0, -261.9725120961666, -199.38528633769602, -202.56794119998813, -210.57319705514237, 0.12800000607967377, 0.12800000607967377, 1.0240000486373901, 0.0, 0.0, 0.0, 0.0, 0.0, 1.6518368428178196E9, 0.0, 2022-05-06 12:34:02.817
69.0, -294.2441088138148, -233.4482951341197, -235.1910885134712, -221.02247753133997, 0.12800000607967377, 0.12800000607967377, 1.0240000486373901, 0.0, 0.0, 0.0, 0.0, 0.0, 1.65183684281895E9, 0.0, 2022-05-06 12:34:02.818
69.0, -241.58257753774524, -106.99105793237686, -156.8140051420778, -159.127133264672, 0.12800000607967377, 0.12800000607967377, 1.0240000486373901, 0.0, 0.0, 0.0, 0.0, 0.0, 1.65183684281895E9, 0.0, 2022-05-06 12:34:02.818
70.0, -208.31242753192782, -67.85300489608198, -119.31028838641942, -144.21989204129204, 0.12800000607967377, 0.12800000607967377, 1.0240000486373901, 0.0, 0.0, 0.0, 0.0, 0.0, 1.6518368428318286E9, 0.0, 2022-05-06 12:34:02.831
70.0, -269.2690569097176, -203.60763338766992, -194.80390889197588, -198.50827979808673, 0.12800000607967377, 0.12800000607967377, 1.0240000486373901, 0.0, 0.0, 0.0, 0.0, 0.0, 1.6518368428318286E9, 0.0, 2022-05-06 12:34:02.831
71.0, -303.35450510587543, -236.58233129698783, -236.46265449840575, -215.16953410068527, 0.12800000607967377, 0.12800000607967377, 1.0240000486373901, 0.0, 0.0, 0.0, 0.0, 0.0, 1.6518368428478217E9, 0.0, 2022-05-06 12:34:02.847
71.0, -236.52997269760817, -97.2710579475388, -152.6327969916165, -166.7266099746339, 0.12800000607967377, 0.12800000607967377, 1.0240000486373901, 0.0, 0.0, 0.0, 0.0, 0.0, 1.6518368428478217E9, 0.0, 2022-05-06 12:34:02.847
72.0, -192.8329816153273, -52.04070788342506, -101.11941500194371, -123.99077318096533, 0.12800000607967377, 0.12800000607967377, 1.0240000486373901, 0.0, 0.0, 0.0, 0.0, 0.0, 1.6518368428488324E9, 0.0, 2022-05-06 12:34:02.848
72.0, -257.21535935252905, -199.4600843368098, -191.5688954303041, -190.95368188759312, 0.12800000607967377, 0.12800000607967377, 1.0240000486373901, 0.0, 0.0, 0.0, 0.0, 0.0, 1.6518368428488324E9, 0.0, 2022-05-06 12:34:02.848
73.0, -292.67709073238075, -226.39858371764421, -232.16924934927374, -216.69915318256244, 0.12800000607967377, 0.12800000607967377, 1.0240000486373901, 0.0, 0.0, 0.0, 0.0, 0.0, 1.6518368428618577E9, 0.0, 2022-05-06 12:34:02.861
73.0, -234.46554792206734, -95.266471571289, -151.8922968003899, -160.84748724428937, 0.12800000607967377, 0.12800000607967377, 1.0240000486373901, 0.0, 0.0, 0.0, 0.0, 0.0, 1.6518368428618577E9, 0.0, 2022-05-06 12:34:02.861
74.0, -198.10998045280576, -60.148810987360775, -107.81009602267295, -137.92564041586593, 0.12800000607967377, 0.12800000607967377, 1.0240000486373901, 0.0, 0.0, 0.0, 0.0, 0.0, 1.6518368428778112E9, 0.0, 2022-05-06 12:34:02.877
74.0, -263.9808383723721, -204.00406278297305, -197.14882616419345, -190.291719595436, 0.12800000607967377, 0.12800000607967377, 1.0240000486373901, 0.0, 0.0, 0.0, 0.0, 0.0, 1.6518368428778112E9, 0.0, 2022-05-06 12:34:02.877
75.0, -295.7625081958249, -232.98828743956983, -235.0414925152436, -215.5323043963872, 0.12800000607967377, 0.12800000607967377, 1.0240000486373901, 0.0, 0.0, 0.0, 0.0, 0.0, 1.6518368428787837E9, 0.0, 2022-05-06 12:34:02.878
75.0, -240.18011505436152, -98.05269703827798, -157.3749901354313, -166.52839527698234, 0.12800000607967377, 0.12800000607967377, 1.0240000486373901, 0.0, 0.0, 0.0, 0.0, 0.0, 1.6518368428787837E9, 0.0, 2022-05-06 12:34:02.878
76.0, -189.65406665299088, -54.85311265010387, -101.1979529010132, -119.42435533506796, 0.12800000607967377, 0.12800000607967377, 1.0240000486373901, 0.0, 0.0, 0.0, 0.0, 0.0, 1.6518368428918705E9, 0.0, 2022-05-06 12:34:02.891
76.0, -248.16480145975947, -187.43630597926676, -185.5326969018206, -179.51706782309338, 0.12800000607967377, 0.12800000607967377, 1.0240000486373901, 0.0, 0.0, 0.0, 0.0, 0.0, 1.6518368428918705E9, 0.0, 2022-05-06 12:34:02.891
77.0, -317.2594531411305, -250.14694843627512, -261.6434009000659, -251.2072100737132, 0.12800000607967377, 0.12800000607967377, 1.0240000486373901, 0.0, 0.0, 0.0, 0.0, 0.0, 1.6518368429078133E9, 0.0, 2022-05-06 12:34:02.907
77.0, -244.95970719773322, -103.46433227416128, -160.91293549351394, -173.31257379660383, 0.12800000607967377, 0.12800000607967377, 1.0240000486373901, 0.0, 0.0, 0.0, 0.0, 0.0, 1.6518368429078133E9, 0.0, 2022-05-06 12:34:02.907
78.0, -196.07921477686614, -70.29889946710318, -116.33332802169025, -146.29179661674425, 0.12800000607967377, 0.12800000607967377, 1.0240000486373901, 0.0, 0.0, 0.0, 0.0, 0.0, 1.6518368429087713E9, 0.0, 2022-05-06 12:34:02.908
78.0, -257.44349324982613, -198.67844524607062, -196.10913397651166, -203.9311347338371, 0.12800000607967377, 0.12800000607967377, 1.0240000486373901, 0.0, 0.0, 0.0, 0.0, 0.0, 1.6518368429087713E9, 0.0, 2022-05-06 12:34:02.908
79.0, -305.87145777605474, -238.50463987421244, -236.41777569893748, -226.32565566850826, 0.12800000607967377, 0.12800000607967377, 1.0240000486373901, 0.0, 0.0, 0.0, 0.0, 0.0, 1.6518368429218175E9, 0.0, 2022-05-06 12:34:02.921
79.0, -239.06936476752162, -98.16115413699299, -150.11958422139287, -159.25054996320978, 0.12800000607967377, 0.12800000607967377, 1.0240000486373901, 0.0, 0.0, 0.0, 0.0, 0.0, 1.6518368429218175E9, 0.0, 2022-05-06 12:34:02.921
80.0, -202.26500930357724, -65.77736042067409, -114.84858773928136, -134.08850306132808, 0.12800000607967377, 0.12800000607967377, 1.0240000486373901, 0.0, 0.0, 0.0, 0.0, 0.0, 1.6518368429378676E9, 0.0, 2022-05-06 12:34:02.937
80.0, -256.1644474649802, -192.85168111510575, -189.7176449522376, -193.94934175210074, 0.12800000607967377, 0.12800000607967377, 1.0240000486373901, 0.0, 0.0, 0.0, 0.0, 0.0, 1.6518368429378676E9, 0.0, 2022-05-06 12:34:02.937
81.0, -294.59939930960536, -227.2924198070541, -231.7765598539263, -212.0841166372411, 0.12800000607967377, 0.12800000607967377, 1.0240000486373901, 0.0, 0.0, 0.0, 0.0, 0.0, 1.6518368429387872E9, 0.0, 2022-05-06 12:34:02.938
81.0, -242.53625202644616, -103.44189287442714, -162.24807977769524, -170.2458558329381, 0.12800000607967377, 0.12800000607967377, 1.0240000486373901, 0.0, 0.0, 0.0, 0.0, 0.0, 1.6518368429387872E9, 0.0, 2022-05-06 12:34:02.938
82.0, -195.26765648648143, -60.08897258806974, -107.46976512670517, -130.38974200515077, 0.12800000607967377, 0.12800000607967377, 1.0240000486373901, 0.0, 0.0, 0.0, 0.0, 0.0, 1.6518368429518256E9, 0.0, 2022-05-06 12:34:02.951
82.0, -255.0125582786277, -196.33726787380874, -194.70293159317225, -193.2537203603424, 0.12800000607967377, 0.12800000607967377, 1.0240000486373901, 0.0, 0.0, 0.0, 0.0, 0.0, 1.6518368429518256E9, 0.0, 2022-05-06 12:34:02.951
83.0, -293.33905302453786, -236.1485029021278, -238.21292767766863, -217.49949177308008, 0.12800000607967377, 0.12800000607967377, 1.0240000486373901, 0.0, 0.0, 0.0, 0.0, 0.0, 1.65183684296785E9, 0.0, 2022-05-06 12:34:02.967
83.0, -231.0697187623009, -100.31533651147038, -153.33963808324188, -160.25284315133467, 0.12800000607967377, 0.12800000607967377, 1.0240000486373901, 0.0, 0.0, 0.0, 0.0, 0.0, 1.65183684296785E9, 0.0, 2022-05-06 12:34:02.967
84.0, -204.71090387459844, -66.96290870662779, -112.51489016693085, -133.06003057351336, 0.12800000607967377, 0.12800000607967377, 1.0240000486373901, 0.0, 0.0, 0.0, 0.0, 0.0, 1.6518368429688327E9, 0.0, 2022-05-06 12:34:02.968
84.0, -264.58670216519386, -197.63127325847745, -197.0515887653455, -196.17832212569192, 0.12800000607967377, 0.12800000607967377, 1.0240000486373901, 0.0, 0.0, 0.0, 0.0, 0.0, 1.6518368429688327E9, 0.0, 2022-05-06 12:34:02.968
85.0, -299.93997644633055, -233.84098462946713, -240.21751405391842, -222.95226590847597, 0.12800000607967377, 0.12800000607967377, 1.0240000486373901, 0.0, 0.0, 0.0, 0.0, 0.0, 1.6518368429818065E9, 0.0, 2022-05-06 12:34:02.981
85.0, -236.91892229299992, -97.81708334106952, -159.02802591584623, -169.41185814281926, 0.12800000607967377, 0.12800000607967377, 1.0240000486373901, 0.0, 0.0, 0.0, 0.0, 0.0, 1.6518368429818065E9, 0.0, 2022-05-06 12:34:02.981
86.0, -192.5001305192709, -64.33375903777778, -113.99215064942837, -144.24607134098187, 0.12800000607967377, 0.12800000607967377, 1.0240000486373901, 0.0, 0.0, 0.0, 0.0, 0.0, 1.6518368429980226E9, 0.0, 2022-05-06 12:34:02.998
86.0, -262.8738279854879, -201.5357288122177, -190.52546334266663, -184.2181220673956, 0.12800000607967377, 0.12800000607967377, 1.0240000486373901, 0.0, 0.0, 0.0, 0.0, 0.0, 1.6518368429980226E9, 0.0, 2022-05-06 12:34:02.998
87.0, -297.05651358049363, -228.9267560876906, -238.4148822752759, -216.0446706903167, 0.12800000607967377, 0.12800000607967377, 1.0240000486373901, 0.0, 0.0, 0.0, 0.0, 0.0, 1.651836842998835E9, 0.0, 2022-05-06 12:34:02.998
87.0, -229.91034977603704, -96.25380515959114, -145.07445918116719, -160.45853764889762, 0.12800000607967377, 0.12800000607967377, 1.0240000486373901, 0.0, 0.0, 0.0, 0.0, 0.0, 1.651836842998835E9, 0.0, 2022-05-06 12:34:02.998
88.0, -212.34029978420585, -76.79510569013655, -122.80335494503379, -159.15705246431753, 0.12800000607967377, 0.12800000607967377, 1.0240000486373901, 0.0, 0.0, 0.0, 0.0, 0.0, 1.65183684301187E9, 0.0, 2022-05-06 12:34:03.011
88.0, -262.1258479943499, -205.10733326990157, -199.58350103534758, -197.5957442088984, 0.12800000607967377, 0.12800000607967377, 1.0240000486373901, 0.0, 0.0, 0.0, 0.0, 0.0, 1.65183684301187E9, 0.0, 2022-05-06 12:34:03.011
89.0, -304.9888413865119, -238.71407427173108, -254.18230048846453, -241.40493228984997, 0.12800000607967377, 0.12800000607967377, 1.0240000486373901, 0.0, 0.0, 0.0, 0.0, 0.0, 1.6518368430278409E9, 0.0, 2022-05-06 12:34:03.027
89.0, -241.10013044346124, -101.95341269206256, -159.13274311460555, -175.65001126891002, 0.12800000607967377, 0.12800000607967377, 1.0240000486373901, 0.0, 0.0, 0.0, 0.0, 0.0, 1.6518368430278409E9, 0.0, 2022-05-06 12:34:03.027
90.0, -201.2103575160727, -64.81620613206178, -115.73120412882417, -145.89162732148543, 0.12800000607967377, 0.12800000607967377, 1.0240000486373901, 0.0, 0.0, 0.0, 0.0, 0.0, 1.6518368430287888E9, 0.0, 2022-05-06 12:34:03.028
90.0, -254.7096263822168, -198.22965725138783, -188.1244475711137, -185.54578655166551, 0.12800000607967377, 0.12800000607967377, 1.0240000486373901, 0.0, 0.0, 0.0, 0.0, 0.0, 1.6518368430287888E9, 0.0, 2022-05-06 12:34:03.028
91.0, -288.2827082844451, -229.64107697922736, -233.0032470393926, -207.47655989183113, 0.12800000607967377, 0.12800000607967377, 1.0240000486373901, 0.0, 0.0, 0.0, 0.0, 0.0, 1.651836843041821E9, 0.0, 2022-05-06 12:34:03.041
91.0, -240.56532474979758, -103.06790287885815, -161.84791048243642, -174.96186967706308, 0.12800000607967377, 0.12800000607967377, 1.0240000486373901, 0.0, 0.0, 0.0, 0.0, 0.0, 1.651836843041821E9, 0.0, 2022-05-06 12:34:03.041
92.0, -209.25862222071737, -72.00055394694209, -122.69489784631878, -148.06824909569696, 0.12800000607967377, 0.12800000607967377, 1.0240000486373901, 0.0, 0.0, 0.0, 0.0, 0.0, 1.651836843057809E9, 0.0, 2022-05-06 12:34:03.057
92.0, -255.9400534676388, -194.500976995565, -188.0870485715568, -187.30353953083977, 0.12800000607967377, 0.12800000607967377, 1.0240000486373901, 0.0, 0.0, 0.0, 0.0, 0.0, 1.651836843057809E9, 0.0, 2022-05-06 12:34:03.057
93.0, -292.3180603366345, -233.31365873571485, -230.09360487386584, -211.76622514100745, 0.12800000607967377, 0.12800000607967377, 1.0240000486373901, 0.0, 0.0, 0.0, 0.0, 0.0, 1.6518368430729878E9, 0.0, 2022-05-06 12:34:03.072
93.0, -225.24295463133603, -91.90804141107947, -149.5548593280837, -168.38712555496022, 0.12800000607967377, 0.12800000607967377, 1.0240000486373901, 0.0, 0.0, 0.0, 0.0, 0.0, 1.6518368430729878E9, 0.0, 2022-05-06 12:34:03.072
94.0, -198.8018619446084, -68.24943429138511, -116.13511332403868, -142.84734875755385, 0.12800000607967377, 0.12800000607967377, 1.0240000486373901, 0.0, 0.0, 0.0, 0.0, 0.0, 1.651836843073754E9, 0.0, 2022-05-06 12:34:03.073
94.0, -249.94873373862356, -196.7187376692891, -191.41181963216513, -190.71058839047328, 0.12800000607967377, 0.12800000607967377, 1.0240000486373901, 0.0, 0.0, 0.0, 0.0, 0.0, 1.651836843073754E9, 0.0, 2022-05-06 12:34:03.073
95.0, -297.654897573404, -236.79924549441785, -240.21003425400704, -227.07737555960193, 0.12800000607967377, 0.12800000607967377, 1.0240000486373901, 0.0, 0.0, 0.0, 0.0, 0.0, 1.6518368430878463E9, 0.0, 2022-05-06 12:34:03.087
95.0, -231.46240825764835, -98.13871473725885, -148.12621754501015, -163.59631371172145, 0.12800000607967377, 0.12800000607967377, 1.0240000486373901, 0.0, 0.0, 0.0, 0.0, 0.0, 1.6518368430878463E9, 0.0, 2022-05-06 12:34:03.087
96.0, -204.86049987282604, -63.48480174783617, -105.03135035559535, -122.88376279408112, 0.12800000607967377, 0.12800000607967377, 1.0240000486373901, 0.0, 0.0, 0.0, 0.0, 0.0, 1.6518368430887935E9, 0.0, 2022-05-06 12:34:03.088
96.0, -258.1166752418503, -195.2788761863485, -188.19176577031612, -188.44794891728088, 0.12800000607967377, 0.12800000607967377, 1.0240000486373901, 0.0, 0.0, 0.0, 0.0, 0.0, 1.6518368430887935E9, 0.0, 2022-05-06 12:34:03.088
97.0, -300.79267363622785, -236.08492460288107, -239.24140016548336, -226.43785266717896, 0.12800000607967377, 0.12800000607967377, 1.0240000486373901, 0.0, 0.0, 0.0, 0.0, 0.0, 1.6518368431018672E9, 0.0, 2022-05-06 12:34:03.101
97.0, -225.82637902442366, -93.80791058856994, -153.0329662868753, -159.22811056347564, 0.12800000607967377, 0.12800000607967377, 1.0240000486373901, 0.0, 0.0, 0.0, 0.0, 0.0, 1.6518368431018672E9, 0.0, 2022-05-06 12:34:03.101
98.0, -199.9462713310495, -68.66830308642238, -124.59102712385356, -156.3147284979932, 0.12800000607967377, 0.12800000607967377, 1.0240000486373901, 0.0, 0.0, 0.0, 0.0, 0.0, 1.6518368431178265E9, 0.0, 2022-05-06 12:34:03.117
98.0, -273.21839126292616, -213.2864944729954, -201.4646707130596, -206.9679334978573, 0.12800000607967377, 0.12800000607967377, 1.0240000486373901, 0.0, 0.0, 0.0, 0.0, 0.0, 1.6518368431178265E9, 0.0, 2022-05-06 12:34:03.117
99.0, -307.05326616205275, -244.3762828046456, -243.20195421855897, -228.535936542321, 0.12800000607967377, 0.12800000607967377, 1.0240000486373901, 0.0, 0.0, 0.0, 0.0, 0.0, 1.651836843118791E9, 0.0, 2022-05-06 12:34:03.118
99.0, -245.0382450968027, -103.84954196959734, -160.56886469759047, -177.27312784967944, 0.12800000607967377, 0.12800000607967377, 1.0240000486373901, 0.0, 0.0, 0.0, 0.0, 0.0, 1.651836843118791E9, 0.0, 2022-05-06 12:34:03.118
100.0, -198.32315475028008, -59.13155819941312, -109.98297789692879, -133.84914946416393, 0.12800000607967377, 0.12800000607967377, 1.0240000486373901, 0.0, 0.0, 0.0, 0.0, 0.0, 1.6518368431328287E9, 0.0, 2022-05-06 12:34:03.132
100.0, -262.1258479943499, -209.84952641371638, -202.3211078029126, -202.1509423549287, 0.12800000607967377, 0.12800000607967377, 1.0240000486373901, 0.0, 0.0, 0.0, 0.0, 0.0, 1.6518368431328287E9, 0.0, 2022-05-06 12:34:03.132
0.0, -290.74730235524476, -230.0954748238437, -229.2222081841901, -205.38969571655616, 0.12800000607967377, 0.12800000607967377, 1.0240000486373901, 0.0, 0.0, 0.0, 0.0, 0.0, 1.6518368431337624E9, 0.0, 2022-05-06 12:34:03.133
1.0, -229.86173107661307, -86.2439629281871, -138.6567908572033, -140.2331586885266, 0.12800000607967377, 0.12800000607967377, 1.0240000486373901, 0.0, 0.0, 0.0, 0.0, 0.0, 1.6518368431469307E9, 0.0, 2022-05-06 12:34:03.146
1.0, -192.70208511687815, -60.04970363853499, -114.39231994468719, -157.14872618811205, 0.12800000607967377, 0.12800000607967377, 1.0240000486373901, 0.0, 0.0, 0.0, 0.0, 0.0, 1.6518368431469307E9, 0.0, 2022-05-06 12:34:03.146
2.0, -263.17301998194307, -201.64231596095487, -201.03832211811095, -203.6730816368945, 0.12800000607967377, 0.12800000607967377, 1.0240000486373901, 0.0, 0.0, 0.0, 0.0, 0.0, 1.6518368431628275E9, 0.0, 2022-05-06 12:34:03.162
2.0, -307.737667853944, -241.42363178962842, -249.54108464345336, -230.69385881675407, 0.12800000607967377, 0.12800000607967377, 1.0240000486373901, 0.0, 0.0, 0.0, 0.0, 0.0, 1.6518368431628275E9, 0.0, 2022-05-06 12:34:03.162
3.0, -251.39981492143124, -119.43183513497934, -169.97845298610628, -185.56448605144396, 0.12800000607967377, 0.12800000607967377, 1.0240000486373901, 0.0, 0.0, 0.0, 0.0, 0.0, 1.6518368431637807E9, 0.0, 2022-05-06 12:34:03.163
3.0, -195.95953797828406, -72.45121189160272, -120.80624836869538, -143.59158884873614, 0.12800000607967377, 0.12800000607967377, 1.0240000486373901, 0.0, 0.0, 0.0, 0.0, 0.0, 1.6518368431637807E9, 0.0, 2022-05-06 12:34:03.163
4.0, -271.52421658299863, -224.91571338521317, -222.17249676771462, -215.9362135916017, 0.12800000607967377, 0.12800000607967377, 1.0240000486373901, 0.0, 0.0, 0.0, 0.0, 0.0, 1.651836843193841E9, 0.0, 2022-05-06 12:34:03.193
4.0, -302.59904531482607, -247.77772181434557, -241.30582494102418, -217.36859527463093, 0.12800000607967377, 0.12800000607967377, 1.0240000486373901, 0.0, 0.0, 0.0, 0.0, 0.0, 1.651836843193841E9, 0.0, 2022-05-06 12:34:03.193
5.0, -230.3666175706312, -88.8731125970371, -136.01268158853054, -140.67072698334232, 0.12800000607967377, 0.12800000607967377, 1.0240000486373901, 0.0, 0.0, 0.0, 0.0, 0.0, 1.6518368431947756E9, 0.0, 2022-05-06 12:34:03.194
5.0, -192.5375295188278, -58.47520575718954, -113.17685245908797, -145.3792610275559, 0.12800000607967377, 0.12800000607967377, 1.0240000486373901, 0.0, 0.0, 0.0, 0.0, 0.0, 1.6518368431947756E9, 0.0, 2022-05-06 12:34:03.194
6.0, -248.53131165541708, -196.4812540221028, -188.6405537649989, -194.5888646445237, 0.12800000607967377, 0.12800000607967377, 1.0240000486373901, 0.0, 0.0, 0.0, 0.0, 0.0, 1.651836843195764E9, 0.0, 2022-05-06 12:34:03.195
6.0, -285.4703035177663, -233.7643166803755, -240.21751405391842, -220.21091924095526, 0.12800000607967377, 0.12800000607967377, 1.0240000486373901, 0.0, 0.0, 0.0, 0.0, 0.0, 1.651836843195764E9, 0.0, 2022-05-06 12:34:03.195
7.0, -247.6000765664503, -108.02140037016943, -166.20489393081516, -182.64362418605015, 0.12800000607967377, 0.12800000607967377, 1.0240000486373901, 0.0, 0.0, 0.0, 0.0, 0.0, 1.6518368432068102E9, 0.0, 2022-05-06 12:34:03.206
7.0, -209.71115011535585, -70.3119891169481, -117.56001520715654, -147.0509963077493, 0.12800000607967377, 0.12800000607967377, 1.0240000486373901, 0.0, 0.0, 0.0, 0.0, 0.0, 1.6518368432068102E9, 0.0, 2022-05-06 12:34:03.206
8.0, -270.7201380925253, -211.3436164460145, -209.46057681832463, -214.66838750662282, 0.12800000607967377, 0.12800000607967377, 1.0240000486373901, 0.0, 0.0, 0.0, 0.0, 0.0, 1.6518368432228353E9, 0.0, 2022-05-06 12:34:03.222
8.0, -283.89954553637654, -227.6832393524237, -227.24380110763013, -211.06312394933775, 0.12800000607967377, 0.12800000607967377, 1.0240000486373901, 0.0, 0.0, 0.0, 0.0, 0.0, 1.6518368432228353E9, 0.0, 2022-05-06 12:34:03.222
9.0, -229.90660987608135, -92.98326264834031, -144.93608288280666, -147.41376660345122, 0.12800000607967377, 0.12800000607967377, 1.0240000486373901, 0.0, 0.0, 0.0, 0.0, 0.0, 1.651836843223782E9, 0.0, 2022-05-06 12:34:03.223
9.0, -201.45719091314822, -72.78032308770344, -126.913504996337, -160.38373964978382, 0.12800000607967377, 0.12800000607967377, 1.0240000486373901, 0.0, 0.0, 0.0, 0.0, 0.0, 1.651836843223782E9, 0.0, 2022-05-06 12:34:03.223
10.0, -255.43890687357634, -197.57330480916426, -189.03698316030204, -196.4475949225016, 0.12800000607967377, 0.12800000607967377, 1.0240000486373901, 0.0, 0.0, 0.0, 0.0, 0.0, 1.6518368432368588E9, 0.0, 2022-05-06 12:34:03.236
10.0, -294.26654821354896, -238.2110577276908, -236.04378570336848, -217.33119627507403, 0.12800000607967377, 0.12800000607967377, 1.0240000486373901, 0.0, 0.0, 0.0, 0.0, 0.0, 1.6518368432368588E9, 0.0, 2022-05-06 12:34:03.236
11.0, -247.95536706224084, -102.47138883592561, -160.56886469759047, -173.8062405907549, 0.12800000607967377, 0.12800000607967377, 1.0240000486373901, 0.0, 0.0, 0.0, 0.0, 0.0, 1.6518368432528265E9, 0.0, 2022-05-06 12:34:03.252
11.0, -206.45369725394994, -65.87272786954418, -116.62504021823406, -147.2379913055338, 0.12800000607967377, 0.12800000607967377, 1.0240000486373901, 0.0, 0.0, 0.0, 0.0, 0.0, 1.6518368432528265E9, 0.0, 2022-05-06 12:34:03.252
12.0, -258.3485490391031, -200.21741407783702, -191.17620593495667, -175.53781427023932, 0.12800000607967377, 0.12800000607967377, 1.0240000486373901, 0.0, 0.0, 0.0, 0.0, 0.0, 1.6518368432537892E9, 0.0, 2022-05-06 12:34:03.253
12.0, -300.61315843835473, -233.1621927875094, -238.35878377594054, -221.66200042376295, 0.12800000607967377, 0.12800000607967377, 1.0240000486373901, 0.0, 0.0, 0.0, 0.0, 0.0, 1.6518368432537892E9, 0.0, 2022-05-06 12:34:03.253
13.0, -232.5544590447098, -91.41624456690624, -150.1457635210827, -159.58340105926618, 0.12800000607967377, 0.12800000607967377, 1.0240000486373901, 0.0, 0.0, 0.0, 0.0, 0.0, 1.651836843266817E9, 0.0, 2022-05-06 12:34:03.266
13.0, -198.77568264491856, -64.72083868319169, -109.15272010676563, -149.63152727717534, 0.12800000607967377, 0.12800000607967377, 1.0240000486373901, 0.0, 0.0, 0.0, 0.0, 0.0, 1.651836843266817E9, 0.0, 2022-05-06 12:34:03.266
14.0, -267.74317772779614, -206.44434750406072, -207.912258236669, -206.6762213013135, 0.12800000607967377, 0.12800000607967377, 1.0240000486373901, 0.0, 0.0, 0.0, 0.0, 0.0, 1.6518368432828276E9, 0.0, 2022-05-06 12:34:03.282
14.0, -292.0300880400464, -236.098014252726, -239.58547096140683, -220.85792193328962, 0.12800000607967377, 0.12800000607967377, 1.0240000486373901, 0.0, 0.0, 0.0, 0.0, 0.0, 1.6518368432828276E9, 0.0, 2022-05-06 12:34:03.282
15.0, -232.34502464719117, -98.76514797983691, -156.148302949965, -164.77064229780808, 0.12800000607967377, 0.12800000607967377, 1.0240000486373901, 0.0, 0.0, 0.0, 0.0, 0.0, 1.6518368432837706E9, 0.0, 2022-05-06 12:34:03.283
15.0, -206.71549025084823, -66.09712186688557, -109.81842229887843, -142.978245256003, 0.12800000607967377, 0.12800000607967377, 1.0240000486373901, 0.0, 0.0, 0.0, 0.0, 0.0, 1.6518368432837706E9, 0.0, 2022-05-06 12:34:03.283
16.0, -256.9311269558966, -198.42600199906155, -196.29238907434046, -197.38256991142407, 0.12800000607967377, 0.12800000607967377, 1.0240000486373901, 0.0, 0.0, 0.0, 0.0, 0.0, 1.6518368432968216E9, 0.0, 2022-05-06 12:34:03.296
16.0, -303.6649168021977, -243.56659446423873, -243.0785375200212, -230.57792191812769, 0.12800000607967377, 0.12800000607967377, 1.0240000486373901, 0.0, 0.0, 0.0, 0.0, 0.0, 1.6518368432968216E9, 0.0, 2022-05-06 12:34:03.296
17.0, -240.50922625046223, -103.27172742644325, -159.84332410618663, -162.57158112386242, 0.12800000607967377, 0.12800000607967377, 1.0240000486373901, 0.0, 0.0, 0.0, 0.0, 0.0, 1.6518368433128781E9, 0.0, 2022-05-06 12:34:03.312
17.0, -197.27224286273122, -66.87876095762476, -121.96935725491494, -154.85616751527414, 0.12800000607967377, 0.12800000607967377, 1.0240000486373901, 0.0, 0.0, 0.0, 0.0, 0.0, 1.6518368433128781E9, 0.0, 2022-05-06 12:34:03.312
18.0, -265.9405459491536, -208.47137328004465, -205.52994196489453, -208.96130017424002, 0.12800000607967377, 0.12800000607967377, 1.0240000486373901, 0.0, 0.0, 0.0, 0.0, 0.0, 1.6518368433137693E9, 0.0, 2022-05-06 12:34:03.313
18.0, -302.8421388119459, -234.38140017306432, -235.17612891364843, -217.95201966771856, 0.12800000607967377, 0.12800000607967377, 1.0240000486373901, 0.0, 0.0, 0.0, 0.0, 0.0, 1.6518368433137693E9, 0.0, 2022-05-06 12:34:03.313
19.0, -237.69682148378342, -94.38572513172403, -150.05974582210183, -168.67509785154834, 0.12800000607967377, 0.12800000607967377, 1.0240000486373901, 0.0, 0.0, 0.0, 0.0, 0.0, 1.651836843326836E9, 0.0, 2022-05-06 12:34:03.326
19.0, -192.81428211554885, -59.574736344162375, -108.03822991997004, -141.03349727904424, 0.12800000607967377, 0.12800000607967377, 1.0240000486373901, 0.0, 0.0, 0.0, 0.0, 0.0, 1.651836843326836E9, 0.0, 2022-05-06 12:34:03.326
20.0, -252.06177721358836, -203.32527094101533, -190.532943142578, -188.12631752109155, 0.12800000607967377, 0.12800000607967377, 1.0240000486373901, 0.0, 0.0, 0.0, 0.0, 0.0, 1.6518368433428729E9, 0.0, 2022-05-06 12:34:03.342
20.0, -305.8789375759661, -243.74610966211185, -252.81349710468203, -226.63232746487483, 0.12800000607967377, 0.12800000607967377, 1.0240000486373901, 0.0, 0.0, 0.0, 0.0, 0.0, 1.6518368433428729E9, 0.0, 2022-05-06 12:34:03.342
21.0, -238.72903387155384, -98.72026918036863, -152.9955672873184, -165.3615464908071, 0.12800000607967377, 0.12800000607967377, 1.0240000486373901, 0.0, 0.0, 0.0, 0.0, 0.0, 1.6518368433437808E9, 0.0, 2022-05-06 12:34:03.343
21.0, -190.15147334709764, -61.48956512147561, -107.44358582701534, -128.02238533319905, 0.12800000607967377, 0.12800000607967377, 1.0240000486373901, 0.0, 0.0, 0.0, 0.0, 0.0, 1.6518368433437808E9, 0.0, 2022-05-06 12:34:03.343
22.0, -265.40574025548995, -209.39512856910005, -203.2112039923668, -198.8486106940545, 0.12800000607967377, 0.12800000607967377, 1.0240000486373901, 0.0, 0.0, 0.0, 0.0, 0.0, 1.6518368433568537E9, 0.0, 2022-05-06 12:34:03.356
22.0, -314.20395487733185, -245.60483994008973, -248.27699845843017, -238.00162333017215, 0.12800000607967377, 0.12800000607967377, 1.0240000486373901, 0.0, 0.0, 0.0, 0.0, 0.0, 1.6518368433568537E9, 0.0, 2022-05-06 12:34:03.356
23.0, -229.5550592802465, -87.44821071391925, -135.5863329935819, -141.22423217678443, 0.12800000607967377, 0.12800000607967377, 1.0240000486373901, 0.0, 0.0, 0.0, 0.0, 0.0, 1.6518368433728273E9, 0.0, 2022-05-06 12:34:03.372
23.0, -191.89426672644913, -61.164193825330585, -119.74037688132375, -142.50701786158606, 0.12800000607967377, 0.12800000607967377, 1.0240000486373901, 0.0, 0.0, 0.0, 0.0, 0.0, 1.6518368433728273E9, 0.0, 2022-05-06 12:34:03.372
24.0, -278.6973446980119, -228.36016124440357, -227.76364720147103, -233.3192685856484, 0.12800000607967377, 0.12800000607967377, 1.0240000486373901, 0.0, 0.0, 0.0, 0.0, 0.0, 1.6518368433737943E9, 0.0, 2022-05-06 12:34:03.373
24.0, -315.05291216727346, -260.94590955832973, -263.4235932789743, -250.5041088820435, 0.12800000607967377, 0.12800000607967377, 1.0240000486373901, 0.0, 0.0, 0.0, 0.0, 0.0, 1.6518368433737943E9, 0.0, 2022-05-06 12:34:03.373
25.0, -249.91133473906666, -112.63643691549078, -166.08895703218877, -182.60622518649325, 0.12800000607967377, 0.12800000607967377, 1.0240000486373901, 0.0, 0.0, 0.0, 0.0, 0.0, 1.6518368433868585E9, 0.0, 2022-05-06 12:34:03.386
25.0, -203.60389348771423, -72.70178518863395, -122.7622160455212, -150.4617850673385, 0.12800000607967377, 0.12800000607967377, 1.0240000486373901, 0.0, 0.0, 0.0, 0.0, 0.0, 1.6518368433868585E9, 0.0, 2022-05-06 12:34:03.386
26.0, -283.34230044297874, -221.6096418243833, -211.4015848953277, -205.5205922150053, 0.12800000607967377, 0.12800000607967377, 1.0240000486373901, 0.0, 0.0, 0.0, 0.0, 0.0, 1.6518368434029136E9, 0.0, 2022-05-06 12:34:03.402
26.0, -311.548625908792, -244.68108465103433, -248.29195805825293, -229.37741403235123, 0.12800000607967377, 0.12800000607967377, 1.0240000486373901, 0.0, 0.0, 0.0, 0.0, 0.0, 1.6518368434029136E9, 0.0, 2022-05-06 12:34:03.402
27.0, -241.0365521442145, -97.19812989840284, -152.28498629573733, -165.79537488566712, 0.12800000607967377, 0.12800000607967377, 1.0240000486373901, 0.0, 0.0, 0.0, 0.0, 0.0, 1.6518368434037695E9, 0.0, 2022-05-06 12:34:03.403
27.0, -207.15305854566395, -72.9411387857981, -118.06864160113037, -146.10854151891544, 0.12800000607967377, 0.12800000607967377, 1.0240000486373901, 0.0, 0.0, 0.0, 0.0, 0.0, 1.6518368434037695E9, 0.0, 2022-05-06 12:34:03.403
28.0, -263.88360097352415, -205.81230441154912, -199.89391273166984, -192.6665560672991, 0.12800000607967377, 0.12800000607967377, 1.0240000486373901, 0.0, 0.0, 0.0, 0.0, 0.0, 1.6518368434168153E9, 0.0, 2022-05-06 12:34:03.416
28.0, -309.97412802744657, -243.3534201667644, -249.62710234243423, -232.44039209606126, 0.12800000607967377, 0.12800000607967377, 1.0240000486373901, 0.0, 0.0, 0.0, 0.0, 0.0, 1.6518368434168153E9, 0.0, 2022-05-06 12:34:03.416
29.0, -250.57703693117946, -108.37295096600428, -163.5645245620981, -165.99358958331868, 0.12800000607967377, 0.12800000607967377, 1.0240000486373901, 0.0, 0.0, 0.0, 0.0, 0.0, 1.651836843432928E9, 0.0, 2022-05-06 12:34:03.432
29.0, -212.78908777888864, -80.07312800129876, -127.54554808884859, -148.61801438918337, 0.12800000607967377, 0.12800000607967377, 1.0240000486373901, 0.0, 0.0, 0.0, 0.0, 0.0, 1.651836843432928E9, 0.0, 2022-05-06 12:34:03.432
30.0, -270.7276178924367, -213.25470532337204, -206.34898005519062, -200.84571727039292, 0.12800000607967377, 0.12800000607967377, 1.0240000486373901, 0.0, 0.0, 0.0, 0.0, 0.0, 1.6518368434338164E9, 0.0, 2022-05-06 12:34:03.433
30.0, -309.1550899371505, -243.18138476880267, -248.8566829515621, -229.4260327317752, 0.12800000607967377, 0.12800000607967377, 1.0240000486373901, 0.0, 0.0, 0.0, 0.0, 0.0, 1.6518368434338164E9, 0.0, 2022-05-06 12:34:03.433
31.0, -237.4836471863091, -93.08423994714394, -158.13792972639203, -159.6881182580255, 0.12800000607967377, 0.12800000607967377, 1.0240000486373901, 0.0, 0.0, 0.0, 0.0, 0.0, 1.6518368434468448E9, 0.0, 2022-05-06 12:34:03.446
31.0, -202.85965339653194, -67.76511724712327, -108.1242476189509, -140.29673698777333, 0.12800000607967377, 0.12800000607967377, 1.0240000486373901, 0.0, 0.0, 0.0, 0.0, 0.0, 1.6518368434468448E9, 0.0, 2022-05-06 12:34:03.446
32.0, -274.25434355065227, -208.60600967844948, -199.66951873432845, -195.00773343956098, 0.12800000607967377, 0.12800000607967377, 1.0240000486373901, 0.0, 0.0, 0.0, 0.0, 0.0, 1.6518368434628744E9, 0.0, 2022-05-06 12:34:03.462
32.0, -289.4046782711521, -223.2701574047096, -223.05511315725744, -203.56836443813518, 0.12800000607967377, 0.12800000607967377, 1.0240000486373901, 0.0, 0.0, 0.0, 0.0, 0.0, 1.6518368434628744E9, 0.0, 2022-05-06 12:34:03.462
33.0, -244.57449750229716, -99.54304717062041, -162.0012463806197, -176.29701396124437, 0.12800000607967377, 0.12800000607967377, 1.0240000486373901, 0.0, 0.0, 0.0, 0.0, 0.0, 1.6518368434637768E9, 0.0, 2022-05-06 12:34:03.463
33.0, -206.1358057577163, -71.33298180485144, -115.61900713015348, -153.56216213060543, 0.12800000607967377, 0.12800000607967377, 1.0240000486373901, 0.0, 0.0, 0.0, 0.0, 0.0, 1.6518368434637768E9, 0.0, 2022-05-06 12:34:03.463
34.0, -273.40912616066635, -216.27654448756948, -214.71513625606894, -215.65572109492496, 0.12800000607967377, 0.12800000607967377, 1.0240000486373901, 0.0, 0.0, 0.0, 0.0, 0.0, 1.6518368434768162E9, 0.0, 2022-05-06 12:34:03.476
34.0, -319.1481026187539, -252.2880411609076, -260.92160020861775, -241.82006118493155, 0.12800000607967377, 0.12800000607967377, 1.0240000486373901, 0.0, 0.0, 0.0, 0.0, 0.0, 1.6518368434768162E9, 0.0, 2022-05-06 12:34:03.476
35.0, -248.3742358572781, -100.18630996299908, -157.69662153162062, -174.20266998605803, 0.12800000607967377, 0.12800000607967377, 1.0240000486373901, 0.0, 0.0, 0.0, 0.0, 0.0, 1.65183684349288E9, 0.0, 2022-05-06 12:34:03.492
35.0, -196.97679076623172, -60.99963822728023, -110.03907639626414, -139.54875699663535, 0.12800000607967377, 0.12800000607967377, 1.0240000486373901, 0.0, 0.0, 0.0, 0.0, 0.0, 1.65183684349288E9, 0.0, 2022-05-06 12:34:03.492
36.0, -254.66100768279284, -198.28388580074534, -200.27164262719452, -190.13464379729703, 0.12800000607967377, 0.12800000607967377, 1.0240000486373901, 0.0, 0.0, 0.0, 0.0, 0.0, 1.65183684349379E9, 0.0, 2022-05-06 12:34:03.493
36.0, -299.1807767553255, -236.4981835479848, -236.69452829565853, -220.94767953222618, 0.12800000607967377, 0.12800000607967377, 1.0240000486373901, 0.0, 0.0, 0.0, 0.0, 0.0, 1.65183684349379E9, 0.0, 2022-05-06 12:34:03.493
37.0, -251.4521735208109, -98.44351658364758, -161.38790278788656, -165.56350108841434, 0.12800000607967377, 0.12800000607967377, 1.0240000486373901, 0.0, 0.0, 0.0, 0.0, 0.0, 1.6518368435068164E9, 0.0, 2022-05-06 12:34:03.506
37.0, -207.11191964615136, -77.537475831341, -118.16213910002261, -146.15342031838372, 0.12800000607967377, 0.12800000607967377, 1.0240000486373901, 0.0, 0.0, 0.0, 0.0, 0.0, 1.6518368435068164E9, 0.0, 2022-05-06 12:34:03.506
38.0, -260.1324813179672, -201.7058942602016, -190.55912244226784, -182.37809128919616, 0.12800000607967377, 0.12800000607967377, 1.0240000486373901, 0.0, 0.0, 0.0, 0.0, 0.0, 1.6518368435228531E9, 0.0, 2022-05-06 12:34:03.522
38.0, -310.12746392562985, -244.16497845714912, -260.966479008086, -235.52206965954974, 0.12800000607967377, 0.12800000607967377, 1.0240000486373901, 0.0, 0.0, 0.0, 0.0, 0.0, 1.6518368435228531E9, 0.0, 2022-05-06 12:34:03.522
39.0, -254.7507652817294, -104.5133742117323, -162.8950824700296, -180.41090391250327, 0.12800000607967377, 0.12800000607967377, 1.0240000486373901, 0.0, 0.0, 0.0, 0.0, 0.0, 1.651836843523796E9, 0.0, 2022-05-06 12:34:03.523
39.0, -212.41509778331965, -71.96502489736304, -119.40752578526735, -148.11686779512092, 0.12800000607967377, 0.12800000607967377, 1.0240000486373901, 0.0, 0.0, 0.0, 0.0, 0.0, 1.651836843523796E9, 0.0, 2022-05-06 12:34:03.523
40.0, -259.8220696216449, -196.50369342183694, -190.80221593938768, -190.57221209211275, 0.12800000607967377, 0.12800000607967377, 1.0240000486373901, 0.0, 0.0, 0.0, 0.0, 0.0, 1.651836843536818E9, 0.0, 2022-05-06 12:34:03.536
40.0, -296.1851168908179, -226.54630976589397, -231.48858755733818, -200.12017667898908, 0.12800000607967377, 0.12800000607967377, 1.0240000486373901, 0.0, 0.0, 0.0, 0.0, 0.0, 1.651836843536818E9, 0.0, 2022-05-06 12:34:03.536
41.0, -243.12341631948948, -97.7703345916234, -159.97796050459146, -174.5056018824689, 0.12800000607967377, 0.12800000607967377, 1.0240000486373901, 0.0, 0.0, 0.0, 0.0, 0.0, 1.6518368435528877E9, 0.0, 2022-05-06 12:34:03.552
41.0, -197.62379345856607, -63.43057319847867, -106.98731803242117, -121.41398211149499, 0.12800000607967377, 0.12800000607967377, 1.0240000486373901, 0.0, 0.0, 0.0, 0.0, 0.0, 1.6518368435528877E9, 0.0, 2022-05-06 12:34:03.552
42.0, -276.71145782154053, -218.14275456545874, -219.53960719890893, -222.03599041933194, 0.12800000607967377, 0.12800000607967377, 1.0240000486373901, 0.0, 0.0, 0.0, 0.0, 0.0, 1.6518368435537603E9, 0.0, 2022-05-06 12:34:03.553
42.0, -305.4413692811504, -241.5395686882548, -241.8219311349094, -233.15097308764234, 0.12800000607967377, 0.12800000607967377, 1.0240000486373901, 0.0, 0.0, 0.0, 0.0, 0.0, 1.6518368435537603E9, 0.0, 2022-05-06 12:34:03.553
43.0, -248.60984955448657, -107.69602907402441, -163.119476467371, -175.915544165764, 0.12800000607967377, 0.12800000607967377, 1.0240000486373901, 0.0, 0.0, 0.0, 0.0, 0.0, 1.651836843566828E9, 0.0, 2022-05-06 12:34:03.566
43.0, -201.93589810747653, -68.88708723383024, -113.43116565607488, -134.68688705423847, 0.12800000607967377, 0.12800000607967377, 1.0240000486373901, 0.0, 0.0, 0.0, 0.0, 0.0, 1.651836843566828E9, 0.0, 2022-05-06 12:34:03.566
44.0, -265.4244397552684, -201.18230826640502, -192.19345872290432, -187.0679258336313, 0.12800000607967377, 0.12800000607967377, 1.0240000486373901, 0.0, 0.0, 0.0, 0.0, 0.0, 1.6518368435828135E9, 0.0, 2022-05-06 12:34:03.582
44.0, -305.00754088629037, -235.02840286539868, -236.23078070115298, -222.37632131529972, 0.12800000607967377, 0.12800000607967377, 1.0240000486373901, 0.0, 0.0, 0.0, 0.0, 0.0, 1.6518368435828135E9, 0.0, 2022-05-06 12:34:03.582
45.0, -240.90939554572105, -98.1405846872367, -157.34507093578577, -173.12931869877502, 0.12800000607967377, 0.12800000607967377, 1.0240000486373901, 0.0, 0.0, 0.0, 0.0, 0.0, 1.6518368435978255E9, 0.0, 2022-05-06 12:34:03.597
45.0, -203.8731662845239, -74.9045862625353, -117.14862621203065, -143.35971505148336, 0.12800000607967377, 0.12800000607967377, 1.0240000486373901, 0.0, 0.0, 0.0, 0.0, 0.0, 1.6518368435978255E9, 0.0, 2022-05-06 12:34:03.597
46.0, -268.10968792345375, -211.03694464964792, -204.89415897242725, -199.6339896847494, 0.12800000607967377, 0.12800000607967377, 1.0240000486373901, 0.0, 0.0, 0.0, 0.0, 0.0, 1.6518368435987737E9, 0.0, 2022-05-06 12:34:03.598
46.0, -296.37959168851376, -237.06290844129398, -240.46060755103827, -217.43965337378904, 0.12800000607967377, 0.12800000607967377, 1.0240000486373901, 0.0, 0.0, 0.0, 0.0, 0.0, 1.6518368435987737E9, 0.0, 2022-05-06 12:34:03.598
47.0, -236.02882610354573, -95.6572911166586, -160.86431679408997, -173.49956879438832, 0.12800000607967377, 0.12800000607967377, 1.0240000486373901, 0.0, 0.0, 0.0, 0.0, 0.0, 1.6518368436128953E9, 0.0, 2022-05-06 12:34:03.612
47.0, -223.7320350492373, -75.1289802598767, -120.62299327086657, -149.6128277773969, 0.12800000607967377, 0.12800000607967377, 1.0240000486373901, 0.0, 0.0, 0.0, 0.0, 0.0, 1.6518368436128953E9, 0.0, 2022-05-06 12:34:03.612
48.0, -277.5454555116594, -207.8542897873558, -204.48276997730136, -203.87129633454606, 0.12800000607967377, 0.12800000607967377, 1.0240000486373901, 0.0, 0.0, 0.0, 0.0, 0.0, 1.65183684361383E9, 0.0, 2022-05-06 12:34:03.613
48.0, -308.8072792412713, -235.25653676269576, -246.28737168200314, -234.2430238747038, 0.12800000607967377, 0.12800000607967377, 1.0240000486373901, 0.0, 0.0, 0.0, 0.0, 0.0, 1.65183684361383E9, 0.0, 2022-05-06 12:34:03.613
49.0, -248.30317775812, -103.63075782218948, -158.4072025232017, -170.98261612420902, 0.12800000607967377, 0.12800000607967377, 1.0240000486373901, 0.0, 0.0, 0.0, 0.0, 0.0, 1.651836843626846E9, 0.0, 2022-05-06 12:34:03.626
49.0, -200.3950593257323, -67.48836465040222, -110.8655942864716, -121.45138111105189, 0.12800000607967377, 0.12800000607967377, 1.0240000486373901, 0.0, 0.0, 0.0, 0.0, 0.0, 1.651836843626846E9, 0.0, 2022-05-06 12:34:03.626
50.0, -277.2425236152485, -214.72074610600248, -216.82817973103374, -213.10510932514444, 0.12800000607967377, 0.12800000607967377, 1.0240000486373901, 0.0, 0.0, 0.0, 0.0, 0.0, 1.651836843642837E9, 0.0, 2022-05-06 12:34:03.642
50.0, -299.2555747544393, -231.21744481055066, -243.86391651071608, -234.99474376579747, 0.12800000607967377, 0.12800000607967377, 1.0240000486373901, 0.0, 0.0, 0.0, 0.0, 0.0, 1.651836843642837E9, 0.0, 2022-05-06 12:34:03.642
51.0, -260.61866831220686, -115.79291247809306, -171.6763675659895, -185.76270074909553, 0.12800000607967377, 0.12800000607967377, 1.0240000486373901, 0.0, 0.0, 0.0, 0.0, 0.0, 1.651836843643766E9, 0.0, 2022-05-06 12:34:03.643
51.0, -207.2428161446005, -75.66004605358467, -123.11002674140036, -150.7609770637937, 0.12800000607967377, 0.12800000607967377, 1.0240000486373901, 0.0, 0.0, 0.0, 0.0, 0.0, 1.651836843643766E9, 0.0, 2022-05-06 12:34:03.643
52.0, -262.51479758974165, -203.39632904017344, -188.22168496996164, -187.74858762556687, 0.12800000607967377, 0.12800000607967377, 1.0240000486373901, 0.0, 0.0, 0.0, 0.0, 0.0, 1.651836843656839E9, 0.0, 2022-05-06 12:34:03.656
52.0, -295.7999071953818, -225.39442057954147, -231.80647905357182, -205.71506701270118, 0.12800000607967377, 0.12800000607967377, 1.0240000486373901, 0.0, 0.0, 0.0, 0.0, 0.0, 1.651836843656839E9, 0.0, 2022-05-06 12:34:03.656
53.0, -237.9324351809919, -94.6175989289768, -153.60891088005155, -171.9175911131315, 0.12800000607967377, 0.12800000607967377, 1.0240000486373901, 0.0, 0.0, 0.0, 0.0, 0.0, 1.6518368436728156E9, 0.0, 2022-05-06 12:34:03.672
53.0, -215.14522475097328, -81.73364358162507, -126.43853770196438, -152.08116174815223, 0.12800000607967377, 0.12800000607967377, 1.0240000486373901, 0.0, 0.0, 0.0, 0.0, 0.0, 1.6518368436728156E9, 0.0, 2022-05-06 12:34:03.672
54.0, -281.23299686796963, -221.17581342952326, -220.9906883817166, -219.8967676446773, 0.12800000607967377, 0.12800000607967377, 1.0240000486373901, 0.0, 0.0, 0.0, 0.0, 0.0, 1.651836843687821E9, 0.0, 2022-05-06 12:34:03.687
54.0, -319.91104220971465, -252.27308156108484, -259.3845013268292, -245.167271645274, 0.12800000607967377, 0.12800000607967377, 1.0240000486373901, 0.0, 0.0, 0.0, 0.0, 0.0, 1.651836843687821E9, 0.0, 2022-05-06 12:34:03.687
55.0, -249.05863754916936, -110.93852233560756, -168.50867230352014, -179.40861072437838, 0.12800000607967377, 0.12800000607967377, 1.0240000486373901, 0.0, 0.0, 0.0, 0.0, 0.0, 1.6518368436887743E9, 0.0, 2022-05-06 12:34:03.688
55.0, -221.34971877746284, -80.14044620050117, -118.4276719968766, -145.59617522498593, 0.12800000607967377, 0.12800000607967377, 1.0240000486373901, 0.0, 0.0, 0.0, 0.0, 0.0, 1.6518368436887743E9, 0.0, 2022-05-06 12:34:03.688
56.0, -265.091588659212, -206.09279690822586, -198.26705625094473, -185.56448605144396, 0.12800000607967377, 0.12800000607967377, 1.0240000486373901, 0.0, 0.0, 0.0, 0.0, 0.0, 1.6518368437028213E9, 0.0, 2022-05-06 12:34:03.702
56.0, -299.9998148456216, -230.04685612441972, -241.73591343592852, -221.69565952336416, 0.12800000607967377, 0.12800000607967377, 1.0240000486373901, 0.0, 0.0, 0.0, 0.0, 0.0, 1.6518368437028213E9, 0.0, 2022-05-06 12:34:03.702
57.0, -237.42380878701806, -97.09715259959921, -159.57779120933264, -174.40462458366528, 0.12800000607967377, 0.12800000607967377, 1.0240000486373901, 0.0, 0.0, 0.0, 0.0, 0.0, 1.6518368437037792E9, 0.0, 2022-05-06 12:34:03.703
57.0, -218.07356641627848, -77.34674093360081, -130.57486705295742, -160.66049224650487, 0.12800000607967377, 0.12800000607967377, 1.0240000486373901, 0.0, 0.0, 0.0, 0.0, 0.0, 1.6518368437037792E9, 0.0, 2022-05-06 12:34:03.703
58.0, -283.2001842446625, -220.06506314268336, -212.23558258544654, -214.47765260888264, 0.12800000607967377, 0.12800000607967377, 1.0240000486373901, 0.0, 0.0, 0.0, 0.0, 0.0, 1.6518368437168224E9, 0.0, 2022-05-06 12:34:03.716
58.0, -307.6329506551847, -235.02840286539868, -244.91856829822063, -219.21984575269744, 0.12800000607967377, 0.12800000607967377, 1.0240000486373901, 0.0, 0.0, 0.0, 0.0, 0.0, 1.6518368437168224E9, 0.0, 2022-05-06 12:34:03.716
59.0, -244.25286610610783, -98.70156968059018, -157.95467462856323, -170.25333563284948, 0.12800000607967377, 0.12800000607967377, 1.0240000486373901, 0.0, 0.0, 0.0, 0.0, 0.0, 1.651836843748846E9, 0.0, 2022-05-06 12:34:03.748
59.0, -200.9822236187756, -69.05912263179198, -110.73843768797815, -144.5303037376143, 0.12800000607967377, 0.12800000607967377, 1.0240000486373901, 0.0, 0.0, 0.0, 0.0, 0.0, 1.651836843748846E9, 0.0, 2022-05-06 12:34:03.748
60.0, -274.3852400491014, -218.95431285584345, -209.53163491748273, -196.65702932002023, 0.12800000607967377, 0.12800000607967377, 1.0240000486373901, 0.0, 0.0, 0.0, 0.0, 0.0, 1.651836843750119E9, 0.0, 2022-05-06 12:34:03.750
60.0, -307.8872638521716, -232.1673793992959, -245.08686379622668, -226.32191576855257, 0.12800000607967377, 0.12800000607967377, 1.0240000486373901, 0.0, 0.0, 0.0, 0.0, 0.0, 1.651836843750119E9, 0.0, 2022-05-06 12:34:03.750
61.0, -242.8204844230786, -94.55402062973008, -160.39682929962873, -176.16611746279523, 0.12800000607967377, 0.12800000607967377, 1.0240000486373901, 0.0, 0.0, 0.0, 0.0, 0.0, 1.6518368437507675E9, 0.0, 2022-05-06 12:34:03.750
61.0, -216.42801043577492, -84.25807605171576, -125.63819911144674, -156.281069398392, 0.12800000607967377, 0.12800000607967377, 1.0240000486373901, 0.0, 0.0, 0.0, 0.0, 0.0, 1.6518368437507675E9, 0.0, 2022-05-06 12:34:03.750
62.0, -268.5435163183138, -205.68888771301135, -196.35970727354288, -188.42924941750243, 0.12800000607967377, 0.12800000607967377, 1.0240000486373901, 0.0, 0.0, 0.0, 0.0, 0.0, 1.6518368437517688E9, 0.0, 2022-05-06 12:34:03.751
62.0, -306.49602106865495, -242.03697538236156, -252.18519391212612, -230.58914161799476, 0.12800000607967377, 0.12800000607967377, 1.0240000486373901, 0.0, 0.0, 0.0, 0.0, 0.0, 1.6518368437517688E9, 0.0, 2022-05-06 12:34:03.751
63.0, -239.97442055679858, -92.4334973548539, -155.65837605576962, -158.03134257765487, 0.12800000607967377, 0.12800000607967377, 1.0240000486373901, 0.0, 0.0, 0.0, 0.0, 0.0, 1.6518368437618277E9, 0.0, 2022-05-06 12:34:03.761
63.0, -200.73913012165576, -69.87442082213238, -107.46602522674948, -124.26004597777501, 0.12800000607967377, 0.12800000607967377, 1.0240000486373901, 0.0, 0.0, 0.0, 0.0, 0.0, 1.6518368437618277E9, 0.0, 2022-05-06 12:34:03.761
