%OpenBCI Raw EEG Data
%Number of channels = 4
%Sample Rate = 200 Hz
%Board = OpenBCI_GUI$BoardGanglionBLE
Sample Index, EXG Channel 0, EXG Channel 1, EXG Channel 2, EXG Channel 3, Accel Channel 0, Accel Channel 1, Accel Channel 2, Other, Other, Other, Other, Other, Timestamp, Other, Timestamp (Formatted)
0.0, -224.5379834896885, -131.79033453855664, -152.7917427397333, -176.29327406128868, 0.0, 0.0, 0.0, 0.0, 0.0, 0.0, 0.0, 0.0, 1.6518368645998285E9, 0.0, 2022-05-06 12:34:24.599
1.0, -299.24622500455007, -257.6005690479651, -239.29562871484086, -222.3464021156542, 0.0, 0.12800000607967377, 0.0, 0.0, 0.0, 0.0, 0.0, 0.0, 1.6518368646127517E9, 0.0, 2022-05-06 12:34:24.612
1.0, -275.789572482463, -187.63078077696264, -210.0421312614344, -199.72000738373026, 0.0, 0.12800000607967377, 0.0, 0.0, 0.0, 0.0, 0.0, 0.0, 1.6518368646127517E9, 0.0, 2022-05-06 12:34:24.612
2.0, -201.7096341601573, -60.08149278815836, -123.29515178920701, -154.50835681939498, 0.12800000607967377, 0.12800000607967377, 0.0, 0.0, 0.0, 0.0, 0.0, 0.0, 1.6518368646297176E9, 0.0, 2022-05-06 12:34:24.629
2.0, -235.67166565777734, -134.37460540793836, -157.96402437845245, -178.97478232951835, 0.12800000607967377, 0.12800000607967377, 0.0, 0.0, 0.0, 0.0, 0.0, 0.0, 1.6518368646297176E9, 0.0, 2022-05-06 12:34:24.629
3.0, -290.3003843105398, -254.73206578195095, -239.47514391271397, -222.0846091187559, 0.12800000607967377, 0.12800000607967377, 0.0, 0.0, 0.0, 0.0, 0.0, 0.0, 1.6518368646307197E9, 0.0, 2022-05-06 12:34:24.630
3.0, -289.68704071780667, -193.1284337118268, -220.008964643348, -217.33867607498541, 0.12800000607967377, 0.12800000607967377, 0.0, 0.0, 0.0, 0.0, 0.0, 0.0, 1.6518368646307197E9, 0.0, 2022-05-06 12:34:24.630
4.0, -220.76816433435306, -59.98799528926611, -122.84636379452422, -149.02940338430926, 0.12800000607967377, 0.12800000607967377, 0.0, 0.0, 0.0, 0.0, 0.0, 0.0, 1.6518368646427588E9, 0.0, 2022-05-06 12:34:24.642
4.0, -217.3835548744537, -121.78610215708613, -143.18767965352163, -158.48387047229335, 0.12800000607967377, 0.12800000607967377, 0.0, 0.0, 0.0, 0.0, 0.0, 0.0, 1.6518368646427588E9, 0.0, 2022-05-06 12:34:24.642
5.0, -294.6087490594946, -248.81180415209383, -228.26292384555563, -207.6747745894827, 0.12800000607967377, 0.12800000607967377, 0.0, 0.0, 0.0, 0.0, 0.0, 0.0, 1.6518368646578188E9, 0.0, 2022-05-06 12:34:24.657
5.0, -285.0420849728398, -188.00477077253163, -215.02741790236905, -210.94344715075567, 0.12800000607967377, 0.12800000607967377, 0.0, 0.0, 0.0, 0.0, 0.0, 0.0, 1.6518368646578188E9, 0.0, 2022-05-06 12:34:24.657
6.0, -208.7817849763669, -54.961569748818874, -120.51640612212941, -133.85288936411962, 0.12800000607967377, 0.12800000607967377, 0.0, 0.0, 0.0, 0.0, 0.0, 0.0, 1.651836864658718E9, 0.0, 2022-05-06 12:34:24.658
6.0, -225.63751407666132, -123.74580973386765, -148.44597899122164, -174.35226598428562, 0.12800000607967377, 0.12800000607967377, 0.0, 0.0, 0.0, 0.0, 0.0, 0.0, 1.651836864658718E9, 0.0, 2022-05-06 12:34:24.658
7.0, -300.10640199435875, -254.84800268057734, -243.75358946202323, -242.05567488214, 0.12800000607967377, 0.12800000607967377, 0.0, 0.0, 0.0, 0.0, 0.0, 0.0, 1.6518368646727657E9, 0.0, 2022-05-06 12:34:24.672
7.0, -292.87343548005447, -188.22916476987302, -223.68902619974688, -213.10136942518875, 0.12800000607967377, 0.12800000607967377, 0.0, 0.0, 0.0, 0.0, 0.0, 0.0, 1.6518368646727657E9, 0.0, 2022-05-06 12:34:24.672
8.0, -212.07289693737403, -57.94974981341511, -119.60013063298538, -143.07548265485093, 0.12800000607967377, 0.12800000607967377, 0.0, 0.0, 0.0, 0.0, 0.0, 0.0, 1.6518368646877692E9, 0.0, 2022-05-06 12:34:24.687
8.0, -217.8660019687377, -124.2432164279744, -154.96836451394483, -168.79103475017473, 0.12800000607967377, 0.12800000607967377, 0.0, 0.0, 0.0, 0.0, 0.0, 0.0, 1.6518368646877692E9, 0.0, 2022-05-06 12:34:24.687
9.0, -294.085163065698, -255.8577756686136, -245.2495494442992, -229.59058832982555, 0.12800000607967377, 0.12800000607967377, 0.0, 0.0, 0.0, 0.0, 0.0, 0.0, 1.6518368646887183E9, 0.0, 2022-05-06 12:34:24.688
9.0, -285.6442088657059, -178.98039217945188, -204.33130402909592, -192.7750131660141, 0.12800000607967377, 0.12800000607967377, 0.0, 0.0, 0.0, 0.0, 0.0, 0.0, 1.6518368646887183E9, 0.0, 2022-05-06 12:34:24.688
10.0, -196.20450142538175, -43.06120808981359, -113.59759120410308, -137.1926200245507, 0.12800000607967377, 0.12800000607967377, 1.0240000486373901, 0.0, 0.0, 0.0, 0.0, 0.0, 1.6518368647027693E9, 0.0, 2022-05-06 12:34:24.702
10.0, -224.7960365866311, -131.34902634378523, -157.99768347805366, -177.5424006464891, 0.12800000607967377, 0.12800000607967377, 1.0240000486373901, 0.0, 0.0, 0.0, 0.0, 0.0, 1.6518368647027693E9, 0.0, 2022-05-06 12:34:24.702
11.0, -307.81059590307996, -271.11282758787274, -254.01961484039202, -239.99872990651056, 0.12800000607967377, 0.06400000303983688, 1.0240000486373901, 0.0, 0.0, 0.0, 0.0, 0.0, 1.6518368647177615E9, 0.0, 2022-05-06 12:34:24.717
11.0, -281.2348668179475, -183.1653402298689, -208.4900727798231, -200.35953027615324, 0.12800000607967377, 0.06400000303983688, 1.0240000486373901, 0.0, 0.0, 0.0, 0.0, 0.0, 1.6518368647177615E9, 0.0, 2022-05-06 12:34:24.717
12.0, -211.28003814676777, -53.91065786127001, -125.19502096669748, -145.55129642551765, 0.06400000303983688, 0.06400000303983688, 1.0240000486373901, 0.0, 0.0, 0.0, 0.0, 0.0, 1.6518368647187805E9, 0.0, 2022-05-06 12:34:24.718
12.0, -223.5356903015636, -136.24455538578331, -150.18877237057313, -169.78958803834394, 0.06400000303983688, 0.06400000303983688, 1.0240000486373901, 0.0, 0.0, 0.0, 0.0, 0.0, 1.6518368647187805E9, 0.0, 2022-05-06 12:34:24.718
13.0, -293.2736047753133, -253.28472449909896, -243.01682917075232, -205.60660991398618, 0.06400000303983688, 0.06400000303983688, 1.0240000486373901, 0.0, 0.0, 0.0, 0.0, 0.0, 1.6518368647328143E9, 0.0, 2022-05-06 12:34:24.732
13.0, -271.9711346277036, -167.49515941552818, -214.8254633047618, -218.22503236448392, 0.06400000303983688, 0.06400000303983688, 1.0240000486373901, 0.0, 0.0, 0.0, 0.0, 0.0, 1.6518368647328143E9, 0.0, 2022-05-06 12:34:24.732
14.0, -218.46812586160377, -53.46186986658722, -128.17198133142665, -166.45733717782423, 0.06400000303983688, 0.06400000303983688, 1.0240000486373901, 0.0, 0.0, 0.0, 0.0, 0.0, 1.6518368647477612E9, 0.0, 2022-05-06 12:34:24.747
14.0, -243.23748326813802, -164.31998435314745, -164.96137719554827, -178.49981503514573, 0.06400000303983688, 0.06400000303983688, 1.0240000486373901, 0.0, 0.0, 0.0, 0.0, 0.0, 1.6518368647477612E9, 0.0, 2022-05-06 12:34:24.747
15.0, -306.00048432452604, -271.9430853780359, -250.799560978543, -234.86010736739263, 0.06400000303983688, 0.06400000303983688, 1.0240000486373901, 0.0, 0.0, 0.0, 0.0, 0.0, 1.6518368647487168E9, 0.0, 2022-05-06 12:34:24.748
15.0, -270.72574794245884, -153.95298167597502, -198.90470919338986, -202.6670485488139, 0.06400000303983688, 0.06400000303983688, 1.0240000486373901, 0.0, 0.0, 0.0, 0.0, 0.0, 1.6518368647487168E9, 0.0, 2022-05-06 12:34:24.748
16.0, -203.31031134119257, -39.53448243159801, -107.77830687304959, -138.98029220337048, 0.06400000303983688, 0.06400000303983688, 1.0240000486373901, 0.0, 0.0, 0.0, 0.0, 0.0, 1.6518368647627702E9, 0.0, 2022-05-06 12:34:24.762
16.0, -251.2520888731815, -170.95830677449703, -178.98600202938542, -196.1484029260464, 0.06400000303983688, 0.06400000303983688, 1.0240000486373901, 0.0, 0.0, 0.0, 0.0, 0.0, 1.6518368647627702E9, 0.0, 2022-05-06 12:34:24.762
17.0, -318.67126537440345, -282.3923658542335, -260.3363058655523, -248.0282951113768, 0.06400000303983688, 0.06400000303983688, 1.0240000486373901, 0.0, 0.0, 0.0, 0.0, 0.0, 1.651836864777771E9, 0.0, 2022-05-06 12:34:24.777
17.0, -280.87957632215694, -162.49491317477077, -209.98977266205475, -205.56921091442928, 0.06400000303983688, 0.06400000303983688, 1.0240000486373901, 0.0, 0.0, 0.0, 0.0, 0.0, 1.651836864777771E9, 0.0, 2022-05-06 12:34:24.777
18.0, -204.93716782191768, -40.30116192251444, -107.01162738213316, -134.05484396172687, 0.06400000303983688, 0.06400000303983688, 1.0240000486373901, 0.0, 0.0, 0.0, 0.0, 0.0, 1.6518368647787428E9, 0.0, 2022-05-06 12:34:24.778
18.0, -247.953497112263, -167.2296265186742, -170.2495957328938, -175.49667537072673, 0.06400000303983688, 0.06400000303983688, 1.0240000486373901, 0.0, 0.0, 0.0, 0.0, 0.0, 1.6518368647787428E9, 0.0, 2022-05-06 12:34:24.778
19.0, -322.1643319330178, -279.5463019879535, -264.584832215216, -241.44607118936256, 0.06400000303983688, 0.06400000303983688, 1.0240000486373901, 0.0, 0.0, 0.0, 0.0, 0.0, 1.6518368647927704E9, 0.0, 2022-05-06 12:34:24.792
19.0, -283.8490568869747, -168.80412440001965, -220.55125013692304, -216.0072716907598, 0.06400000303983688, 0.06400000303983688, 1.0240000486373901, 0.0, 0.0, 0.0, 0.0, 0.0, 1.6518368647927704E9, 0.0, 2022-05-06 12:34:24.792
20.0, -207.0015925974585, -46.943224243819714, -116.31275857193395, -154.44851842010394, 0.06400000303983688, 0.06400000303983688, 0.5120000243186951, 0.0, 0.0, 0.0, 0.0, 0.0, 1.6518368648077712E9, 0.0, 2022-05-06 12:34:24.807
20.0, -242.05567488214, -160.91667539346963, -167.21653686882928, -174.57292008167133, 0.06400000303983688, 0.06400000303983688, 0.5120000243186951, 0.0, 0.0, 0.0, 0.0, 0.0, 1.6518368648077712E9, 0.0, 2022-05-06 12:34:24.807
21.0, -311.47943775961176, -269.36629430856556, -252.8452862543054, -223.61422820063308, 0.06400000303983688, 0.09600000455975533, 0.5120000243186951, 0.0, 0.0, 0.0, 0.0, 0.0, 1.6518368648087144E9, 0.0, 2022-05-06 12:34:24.808
21.0, -284.5297186789103, -160.598783897236, -213.22104622377083, -211.44085384486243, 0.06400000303983688, 0.09600000455975533, 0.5120000243186951, 0.0, 0.0, 0.0, 0.0, 0.0, 1.6518368648087144E9, 0.0, 2022-05-06 12:34:24.808
22.0, -215.38644829811528, -47.14891874138266, -123.17921489058062, -159.22811056347564, 0.09600000455975533, 0.09600000455975533, 0.5120000243186951, 0.0, 0.0, 0.0, 0.0, 0.0, 1.651836864838791E9, 0.0, 2022-05-06 12:34:24.838
22.0, -247.96097691217437, -170.42350108083338, -176.79442065535113, -186.8510116362013, 0.09600000455975533, 0.09600000455975533, 0.5120000243186951, 0.0, 0.0, 0.0, 0.0, 0.0, 1.651836864838791E9, 0.0, 2022-05-06 12:34:24.838
23.0, -314.9799841181375, -274.78540934436023, -252.97244285279885, -227.89641364989802, 0.09600000455975533, 0.09600000455975533, 0.5120000243186951, 0.0, 0.0, 0.0, 0.0, 0.0, 1.6518368648397696E9, 0.0, 2022-05-06 12:34:24.839
23.0, -284.2267867824994, -157.54702553339303, -199.72000738373026, -194.67488234350458, 0.09600000455975533, 0.09600000455975533, 0.5120000243186951, 0.0, 0.0, 0.0, 0.0, 0.0, 1.6518368648397696E9, 0.0, 2022-05-06 12:34:24.839
24.0, -204.66415512515232, -38.21055784728378, -99.56174667039886, -134.8589224522002, 0.09600000455975533, 0.09600000455975533, 0.5120000243186951, 0.0, 0.0, 0.0, 0.0, 0.0, 1.6518368648407848E9, 0.0, 2022-05-06 12:34:24.840
24.0, -231.23240441037342, -144.39005748927593, -143.37467465130612, -144.0852556428872, 0.09600000455975533, 0.09600000455975533, 0.5120000243186951, 0.0, 0.0, 0.0, 0.0, 0.0, 1.6518368648407848E9, 0.0, 2022-05-06 12:34:24.840
25.0, -305.8995070257224, -269.11946091149, -259.37515157693997, -244.88303924864158, 0.09600000455975533, 0.09600000455975533, 0.5120000243186951, 0.0, 0.0, 0.0, 0.0, 0.0, 1.651836864852758E9, 0.0, 2022-05-06 12:34:24.852
25.0, -283.24319309415296, -158.50817982200533, -210.83499005204067, -220.40165413869545, 0.09600000455975533, 0.09600000455975533, 0.5120000243186951, 0.0, 0.0, 0.0, 0.0, 0.0, 1.651836864852758E9, 0.0, 2022-05-06 12:34:24.852
26.0, -211.54183114366606, -46.524355448782444, -115.8527508773841, -152.57856844225898, 0.09600000455975533, 0.09600000455975533, 0.5120000243186951, 0.0, 0.0, 0.0, 0.0, 0.0, 1.6518368648677871E9, 0.0, 2022-05-06 12:34:24.867
26.0, -249.3185605960898, -163.7440397599712, -167.08190047042444, -173.39111169567332, 0.09600000455975533, 0.09600000455975533, 0.5120000243186951, 0.0, 0.0, 0.0, 0.0, 0.0, 1.6518368648677871E9, 0.0, 2022-05-06 12:34:24.867
27.0, -313.8355747316964, -273.9738510539755, -265.7292416016571, -244.7970215496607, 0.09600000455975533, 0.09600000455975533, 0.5120000243186951, 0.0, 0.0, 0.0, 0.0, 0.0, 1.6518368648687863E9, 0.0, 2022-05-06 12:34:24.868
27.0, -277.9923735563643, -155.62097705621272, -195.91652912879363, -186.12547104479745, 0.09600000455975533, 0.09600000455975533, 0.5120000243186951, 0.0, 0.0, 0.0, 0.0, 0.0, 1.6518368648687863E9, 0.0, 2022-05-06 12:34:24.868
28.0, -191.4099496821873, -30.861654434353113, -109.35654465435073, -131.9717196864076, 0.09600000455975533, 0.09600000455975533, 0.5120000243186951, 0.0, 0.0, 0.0, 0.0, 0.0, 1.6518368648988428E9, 0.0, 2022-05-06 12:34:24.898
28.0, -251.67843746813014, -166.5265253270045, -176.4391301595606, -193.15648296149448, 0.09600000455975533, 0.09600000455975533, 0.5120000243186951, 0.0, 0.0, 0.0, 0.0, 0.0, 1.6518368648988428E9, 0.0, 2022-05-06 12:34:24.898
29.0, -320.14852585690096, -276.7338972212747, -261.9295032466762, -239.908972307574, 0.09600000455975533, 0.09600000455975533, 0.5120000243186951, 0.0, 0.0, 0.0, 0.0, 0.0, 1.6518368648997312E9, 0.0, 2022-05-06 12:34:24.899
29.0, -286.05559786083177, -157.73028063122183, -204.17048833100125, -207.64485538983718, 0.09600000455975533, 0.09600000455975533, 0.5120000243186951, 0.0, 0.0, 0.0, 0.0, 0.0, 1.6518368648997312E9, 0.0, 2022-05-06 12:34:24.899
30.0, -207.84307008748874, -44.037321978248656, -113.24978050822392, -136.5680567319505, 0.09600000455975533, 0.09600000455975533, 0.7680000364780426, 0.0, 0.0, 0.0, 0.0, 0.0, 1.6518368649007342E9, 0.0, 2022-05-06 12:34:24.900
30.0, -248.90717160096392, -167.28198511805385, -175.00300857657567, -181.02424750523642, 0.09600000455975533, 0.09600000455975533, 0.7680000364780426, 0.0, 0.0, 0.0, 0.0, 0.0, 1.6518368649007342E9, 0.0, 2022-05-06 12:34:24.900
31.0, -313.92159243067726, -272.9117194665596, -249.18018429772928, -241.49468988878652, 0.09600000455975533, 0.11200000531971455, 0.7680000364780426, 0.0, 0.0, 0.0, 0.0, 0.0, 1.6518368649128168E9, 0.0, 2022-05-06 12:34:24.912
31.0, -269.09889146173373, -142.5911656105891, -188.48908781679347, -187.11654453305528, 0.09600000455975533, 0.11200000531971455, 0.7680000364780426, 0.0, 0.0, 0.0, 0.0, 0.0, 1.6518368649128168E9, 0.0, 2022-05-06 12:34:24.912
32.0, -200.24359337752685, -36.449064968153834, -110.43737574154511, -140.47625218564644, 0.11200000531971455, 0.11200000531971455, 0.7680000364780426, 0.0, 0.0, 0.0, 0.0, 0.0, 1.6518368649278388E9, 0.0, 2022-05-06 12:34:24.927
32.0, -251.30444747256115, -174.7169062299654, -171.4725430184044, -182.138737692032, 0.11200000531971455, 0.11200000531971455, 0.7680000364780426, 0.0, 0.0, 0.0, 0.0, 0.0, 1.6518368649278388E9, 0.0, 2022-05-06 12:34:24.927
33.0, -315.6419464102946, -275.3538741376251, -256.3907114122994, -237.82210813229904, 0.11200000531971455, 0.11200000531971455, 0.7680000364780426, 0.0, 0.0, 0.0, 0.0, 0.0, 1.651836864928754E9, 0.0, 2022-05-06 12:34:24.928
33.0, -280.75615962361917, -152.3336049951613, -201.5974371614866, -206.54158490290865, 0.11200000531971455, 0.11200000531971455, 0.7680000364780426, 0.0, 0.0, 0.0, 0.0, 0.0, 1.651836864928754E9, 0.0, 2022-05-06 12:34:24.928
34.0, -202.69696774845943, -41.87939970381558, -108.90401675971225, -149.8297419748269, 0.11200000531971455, 0.11200000531971455, 0.7680000364780426, 0.0, 0.0, 0.0, 0.0, 0.0, 1.6518368649427707E9, 0.0, 2022-05-06 12:34:24.942
34.0, -247.3214540197514, -160.73342029564083, -166.07960728229955, -171.3940051193349, 0.11200000531971455, 0.11200000531971455, 0.7680000364780426, 0.0, 0.0, 0.0, 0.0, 0.0, 1.6518368649427707E9, 0.0, 2022-05-06 12:34:24.942
35.0, -314.10858742846176, -273.4353054603562, -251.87291226582602, -225.20742558175698, 0.11200000531971455, 0.11200000531971455, 0.7680000364780426, 0.0, 0.0, 0.0, 0.0, 0.0, 1.6518368649577937E9, 0.0, 2022-05-06 12:34:24.957
35.0, -273.53441280918196, -153.6650093793869, -203.65064223716035, -197.91363570513204, 0.11200000531971455, 0.11200000531971455, 0.7680000364780426, 0.0, 0.0, 0.0, 0.0, 0.0, 1.6518368649577937E9, 0.0, 2022-05-06 12:34:24.957
36.0, -194.34951104735956, -35.46547127980739, -105.34363200189546, -140.78292398201302, 0.11200000531971455, 0.11200000531971455, 0.7680000364780426, 0.0, 0.0, 0.0, 0.0, 0.0, 1.6518368649587421E9, 0.0, 2022-05-06 12:34:24.958
36.0, -255.67639052076265, -172.94045375101268, -182.34817208955064, -196.8178450181149, 0.11200000531971455, 0.11200000531971455, 0.7680000364780426, 0.0, 0.0, 0.0, 0.0, 0.0, 1.6518368649587421E9, 0.0, 2022-05-06 12:34:24.958
37.0, -312.15635965159163, -274.7218310451135, -253.67554404446855, -232.67600579326972, 0.11200000531971455, 0.11200000531971455, 0.7680000364780426, 0.0, 0.0, 0.0, 0.0, 0.0, 1.6518368649727736E9, 0.0, 2022-05-06 12:34:24.972
37.0, -274.6601226958446, -157.60686393268406, -193.49307395750657, -183.57485927501693, 0.11200000531971455, 0.11200000531971455, 0.7680000364780426, 0.0, 0.0, 0.0, 0.0, 0.0, 1.6518368649727736E9, 0.0, 2022-05-06 12:34:24.972
38.0, -201.69841446029022, -39.56814153119922, -116.82886476581916, -147.537183301989, 0.11200000531971455, 0.11200000531971455, 0.7680000364780426, 0.0, 0.0, 0.0, 0.0, 0.0, 1.6518368649877837E9, 0.0, 2022-05-06 12:34:24.987
38.0, -247.70292381523177, -166.57514402642846, -163.01288931863382, -185.141877356451, 0.11200000531971455, 0.11200000531971455, 0.7680000364780426, 0.0, 0.0, 0.0, 0.0, 0.0, 1.6518368649877837E9, 0.0, 2022-05-06 12:34:24.987
39.0, -308.0237702005543, -264.17531317006797, -252.29552096081898, -224.94937248481438, 0.11200000531971455, 0.11200000531971455, 0.7680000364780426, 0.0, 0.0, 0.0, 0.0, 0.0, 1.651836864988789E9, 0.0, 2022-05-06 12:34:24.988
39.0, -270.49387414520606, -152.1054710978642, -205.44205431593582, -208.62096927827224, 0.11200000531971455, 0.11200000531971455, 0.7680000364780426, 0.0, 0.0, 0.0, 0.0, 0.0, 1.651836864988789E9, 0.0, 2022-05-06 12:34:24.988
40.0, -200.748479871545, -36.55378216691315, -108.63100406294689, -141.83757576951757, 0.11200000531971455, 0.11200000531971455, 0.8960000425577164, 0.0, 0.0, 0.0, 0.0, 0.0, 1.6518368650027575E9, 0.0, 2022-05-06 12:34:25.002
40.0, -251.90283146547154, -170.0457711853087, -169.9167446368374, -182.82687928387895, 0.11200000531971455, 0.11200000531971455, 0.8960000425577164, 0.0, 0.0, 0.0, 0.0, 0.0, 1.6518368650027575E9, 0.0, 2022-05-06 12:34:25.002
41.0, -306.85318151442334, -273.7307575568557, -253.0285413521342, -236.04939555330202, 0.11200000531971455, 0.12800000607967377, 0.8960000425577164, 0.0, 0.0, 0.0, 0.0, 0.0, 1.6518368650177913E9, 0.0, 2022-05-06 12:34:25.017
41.0, -266.41738319350407, -141.71976892091334, -185.24285465525463, -174.31112708477303, 0.11200000531971455, 0.12800000607967377, 0.8960000425577164, 0.0, 0.0, 0.0, 0.0, 0.0, 1.6518368650177913E9, 0.0, 2022-05-06 12:34:25.017
42.0, -197.55086540943012, -36.56500186678022, -114.69712179107592, -144.18997284164652, 0.11200000531971455, 0.12800000607967377, 0.8960000425577164, 0.0, 0.0, 0.0, 0.0, 0.0, 1.651836865018715E9, 0.0, 2022-05-06 12:34:25.018
42.0, -248.56310080504045, -166.7471794243902, -174.52804128220305, -190.97238138737157, 0.11200000531971455, 0.12800000607967377, 0.8960000425577164, 0.0, 0.0, 0.0, 0.0, 0.0, 1.651836865018715E9, 0.0, 2022-05-06 12:34:25.018
43.0, -328.204270361457, -281.1656786687672, -262.6887029376812, -236.22143095126376, 0.11200000531971455, 0.12800000607967377, 0.8960000425577164, 0.0, 0.0, 0.0, 0.0, 0.0, 1.6518368650327952E9, 0.0, 2022-05-06 12:34:25.032
43.0, -268.23871447192505, -142.34433221351355, -194.28967264806852, -185.83375884825364, 0.11200000531971455, 0.12800000607967377, 0.8960000425577164, 0.0, 0.0, 0.0, 0.0, 0.0, 1.6518368650327952E9, 0.0, 2022-05-06 12:34:25.032
44.0, -212.31973033444956, -47.99787603132427, -116.7802460663952, -159.6918581579812, 0.11200000531971455, 0.12800000607967377, 0.8960000425577164, 0.0, 0.0, 0.0, 0.0, 0.0, 1.6518368650477872E9, 0.0, 2022-05-06 12:34:25.047
44.0, -254.4758826349862, -178.0117580909282, -176.5887261577882, -186.6602767384611, 0.11200000531971455, 0.12800000607967377, 0.8960000425577164, 0.0, 0.0, 0.0, 0.0, 0.0, 1.6518368650477872E9, 0.0, 2022-05-06 12:34:25.047
45.0, -328.3314269599505, -285.8293339135125, -266.4734816928394, -242.37356637837365, 0.11200000531971455, 0.12800000607967377, 0.8960000425577164, 0.0, 0.0, 0.0, 0.0, 0.0, 1.6518368650487678E9, 0.0, 2022-05-06 12:34:25.048
45.0, -282.8542434987612, -157.9284953288734, -206.90061529865488, -201.73581345984712, 0.11200000531971455, 0.12800000607967377, 0.8960000425577164, 0.0, 0.0, 0.0, 0.0, 0.0, 1.6518368650487678E9, 0.0, 2022-05-06 12:34:25.048
46.0, -202.65582884894684, -35.270996482111514, -104.49467471195385, -132.2709116828628, 0.11200000531971455, 0.12800000607967377, 0.8960000425577164, 0.0, 0.0, 0.0, 0.0, 0.0, 1.6518368650627944E9, 0.0, 2022-05-06 12:34:25.062
46.0, -245.56370104057714, -166.5639243265614, -174.9917888767086, -183.6197380744852, 0.11200000531971455, 0.12800000607967377, 0.8960000425577164, 0.0, 0.0, 0.0, 0.0, 0.0, 1.6518368650627944E9, 0.0, 2022-05-06 12:34:25.062
47.0, -320.63471285114065, -278.2522966032848, -258.8814847827889, -237.05168874142691, 0.11200000531971455, 0.12800000607967377, 0.8960000425577164, 0.0, 0.0, 0.0, 0.0, 0.0, 1.651836865077765E9, 0.0, 2022-05-06 12:34:25.077
47.0, -269.7758133537136, -147.64751035068184, -194.80951874190941, -200.7821389711462, 0.11200000531971455, 0.12800000607967377, 0.8960000425577164, 0.0, 0.0, 0.0, 0.0, 0.0, 1.651836865077765E9, 0.0, 2022-05-06 12:34:25.077
48.0, -201.25336636556312, -41.47175060864538, -113.75840690219775, -146.28057691687718, 0.11200000531971455, 0.12800000607967377, 0.8960000425577164, 0.0, 0.0, 0.0, 0.0, 0.0, 1.6518368650787165E9, 0.0, 2022-05-06 12:34:25.078
48.0, -253.75408194353804, -174.46259303297848, -171.35286621982232, -170.85919942567125, 0.11200000531971455, 0.12800000607967377, 0.8960000425577164, 0.0, 0.0, 0.0, 0.0, 0.0, 1.6518368650787165E9, 0.0, 2022-05-06 12:34:25.078
49.0, -314.66209262190387, -275.92233893088996, -260.5195609633811, -238.93659831909463, 0.11200000531971455, 0.12800000607967377, 0.8960000425577164, 0.0, 0.0, 0.0, 0.0, 0.0, 1.6518368650928135E9, 0.0, 2022-05-06 12:34:25.092
49.0, -267.3373985826038, -146.5105807641521, -191.4099496821873, -182.8418388837017, 0.11200000531971455, 0.12800000607967377, 0.8960000425577164, 0.0, 0.0, 0.0, 0.0, 0.0, 1.6518368650928135E9, 0.0, 2022-05-06 12:34:25.092
50.0, -188.46290851710364, -24.073736014775932, -88.08399370638654, -117.82367815403268, 0.11200000531971455, 0.12800000607967377, 0.9600000455975533, 0.0, 0.0, 0.0, 0.0, 0.0, 1.6518368651077635E9, 0.0, 2022-05-06 12:34:25.107
50.0, -249.75612889090553, -170.77879157662392, -182.00410129362717, -194.39438984682783, 0.11200000531971455, 0.12800000607967377, 0.9600000455975533, 0.0, 0.0, 0.0, 0.0, 0.0, 1.6518368651077635E9, 0.0, 2022-05-06 12:34:25.107
51.0, -317.26132309110835, -268.77165021561086, -260.86363175930455, -244.8344205492176, 0.11200000531971455, 0.12800000607967377, 0.9600000455975533, 0.0, 0.0, 0.0, 0.0, 0.0, 1.6518368651087663E9, 0.0, 2022-05-06 12:34:25.108
51.0, -274.45816809823737, -149.68201592657715, -202.72314704814926, -200.97287386888638, 0.11200000531971455, 0.12800000607967377, 0.9600000455975533, 0.0, 0.0, 0.0, 0.0, 0.0, 1.6518368651087663E9, 0.0, 2022-05-06 12:34:25.108
52.0, -206.54158490290865, -46.098006853833795, -111.87723722448573, -146.62090781284496, 0.11200000531971455, 0.12800000607967377, 0.9600000455975533, 0.0, 0.0, 0.0, 0.0, 0.0, 1.651836865122769E9, 0.0, 2022-05-06 12:34:25.122
52.0, -247.1718580215238, -176.06701011396945, -183.53746027546003, -194.6300035440363, 0.11200000531971455, 0.12800000607967377, 0.9600000455975533, 0.0, 0.0, 0.0, 0.0, 0.0, 1.651836865122769E9, 0.0, 2022-05-06 12:34:25.122
53.0, -306.11268132319674, -275.78022273257375, -258.470095787663, -236.56176184723154, 0.11200000531971455, 0.12800000607967377, 0.9600000455975533, 0.0, 0.0, 0.0, 0.0, 0.0, 1.6518368651377926E9, 0.0, 2022-05-06 12:34:25.137
53.0, -271.8514578291215, -156.1894418494776, -201.3319042646326, -196.5560520212166, 0.11200000531971455, 0.12800000607967377, 0.9600000455975533, 0.0, 0.0, 0.0, 0.0, 0.0, 1.6518368651377926E9, 0.0, 2022-05-06 12:34:25.137
54.0, -215.39392809802666, -43.723170381970704, -118.44824144663289, -138.7895573056303, 0.11200000531971455, 0.12800000607967377, 0.9600000455975533, 0.0, 0.0, 0.0, 0.0, 0.0, 1.6518368651387982E9, 0.0, 2022-05-06 12:34:25.138
54.0, -263.68725622585043, -180.95879925601184, -185.45228905277327, -200.90929556963965, 0.11200000531971455, 0.12800000607967377, 0.9600000455975533, 0.0, 0.0, 0.0, 0.0, 0.0, 1.6518368651387982E9, 0.0, 2022-05-06 12:34:25.138
55.0, -324.2773754079826, -280.49249667674303, -265.90127699961886, -249.30360099626705, 0.11200000531971455, 0.12800000607967377, 0.9600000455975533, 0.0, 0.0, 0.0, 0.0, 0.0, 1.651836865152786E9, 0.0, 2022-05-06 12:34:25.152
55.0, -269.2858864595182, -151.63798360340297, -202.80168494721875, -199.98554028058425, 0.11200000531971455, 0.12800000607967377, 0.9600000455975533, 0.0, 0.0, 0.0, 0.0, 0.0, 1.651836865152786E9, 0.0, 2022-05-06 12:34:25.152
56.0, -199.4133355873637, -35.07652168441564, -106.76853388501331, -143.0156442555599, 0.11200000531971455, 0.12800000607967377, 0.9600000455975533, 0.0, 0.0, 0.0, 0.0, 0.0, 1.6518368651677904E9, 0.0, 2022-05-06 12:34:25.167
56.0, -250.33581338403746, -166.90799512248486, -167.9084183606319, -180.22764881467447, 0.11200000531971455, 0.12800000607967377, 0.9600000455975533, 0.0, 0.0, 0.0, 0.0, 0.0, 1.6518368651677904E9, 0.0, 2022-05-06 12:34:25.167
57.0, -305.61527462909, -262.8700880855322, -244.82694074930623, -216.2728045876138, 0.11200000531971455, 0.12800000607967377, 0.9600000455975533, 0.0, 0.0, 0.0, 0.0, 0.0, 1.651836865168749E9, 0.0, 2022-05-06 12:34:25.168
57.0, -266.8175524887629, -144.53965348750353, -190.9275025879033, -187.4830547287129, 0.11200000531971455, 0.12800000607967377, 0.9600000455975533, 0.0, 0.0, 0.0, 0.0, 0.0, 1.651836865168749E9, 0.0, 2022-05-06 12:34:25.168
58.0, -197.8163983062841, -43.92886487953365, -114.7793995901011, -142.76881085848436, 0.11200000531971455, 0.12800000607967377, 0.9600000455975533, 0.0, 0.0, 0.0, 0.0, 0.0, 1.6518368651827624E9, 0.0, 2022-05-06 12:34:25.182
58.0, -251.55502076959237, -167.80183121189475, -172.28036140883341, -188.97901471098885, 0.11200000531971455, 0.12800000607967377, 0.9600000455975533, 0.0, 0.0, 0.0, 0.0, 0.0, 1.6518368651827624E9, 0.0, 2022-05-06 12:34:25.182
59.0, -308.43889909563586, -269.011003812775, -253.77652134327218, -223.86854139762, 0.11200000531971455, 0.12800000607967377, 0.9600000455975533, 0.0, 0.0, 0.0, 0.0, 0.0, 1.6518368651977923E9, 0.0, 2022-05-06 12:34:25.197
59.0, -275.53151938552037, -163.50468616280705, -207.8617695872672, -205.54303161473945, 0.11200000531971455, 0.12800000607967377, 0.9600000455975533, 0.0, 0.0, 0.0, 0.0, 0.0, 1.6518368651977923E9, 0.0, 2022-05-06 12:34:25.197
60.0, -213.3781220219098, -52.23892258107662, -120.23965352540836, -156.5391224953346, 0.11200000531971455, 0.12800000607967377, 0.9920000471174717, 0.0, 0.0, 0.0, 0.0, 0.0, 1.651836865198737E9, 0.0, 2022-05-06 12:34:25.198
60.0, -237.44437823677436, -152.12043069768697, -159.8302344563417, -180.94196970621124, 0.11200000531971455, 0.12800000607967377, 0.9920000471174717, 0.0, 0.0, 0.0, 0.0, 0.0, 1.651836865198737E9, 0.0, 2022-05-06 12:34:25.198
61.0, -298.59174251230434, -256.1868868647143, -242.07063448196277, -221.67322012363002, 0.11200000531971455, 0.12800000607967377, 0.9920000471174717, 0.0, 0.0, 0.0, 0.0, 0.0, 1.6518368652127917E9, 0.0, 2022-05-06 12:34:25.212
61.0, -276.5899110729806, -165.91692163422704, -206.2984914057888, -208.045024685096, 0.11200000531971455, 0.12800000607967377, 0.9920000471174717, 0.0, 0.0, 0.0, 0.0, 0.0, 1.6518368652127917E9, 0.0, 2022-05-06 12:34:25.212
62.0, -219.13756795367226, -52.897144973278046, -115.76673317840323, -144.36948803951964, 0.12800000607967377, 0.12800000607967377, 0.9920000471174717, 0.0, 0.0, 0.0, 0.0, 0.0, 1.6518368652277665E9, 0.0, 2022-05-06 12:34:25.227
62.0, -236.00825665378943, -150.5908116158098, -155.690165205393, -157.9116657790728, 0.12800000607967377, 0.12800000607967377, 0.9920000471174717, 0.0, 0.0, 0.0, 0.0, 0.0, 1.6518368652277665E9, 0.0, 2022-05-06 12:34:25.227
63.0, -302.4288798668422, -267.2794301332906, -249.03432819945738, -238.9515579189174, 0.12800000607967377, 0.12800000607967377, 0.9920000471174717, 0.0, 0.0, 0.0, 0.0, 0.0, 1.651836865228728E9, 0.0, 2022-05-06 12:34:25.228
63.0, -259.60702537419274, -164.10681005567312, -209.47740636812523, -202.1846014545299, 0.12800000607967377, 0.12800000607967377, 0.9920000471174717, 0.0, 0.0, 0.0, 0.0, 0.0, 1.651836865228728E9, 0.0, 2022-05-06 12:34:25.228
64.0, -215.87263529235497, -58.604232305660844, -130.2999844062142, -159.55348185962066, 0.12800000607967377, 0.12800000607967377, 0.9920000471174717, 0.0, 0.0, 0.0, 0.0, 0.0, 1.6518368652427788E9, 0.0, 2022-05-06 12:34:25.242
64.0, -239.49384341249242, -146.80229296069592, -155.88464000308886, -176.29327406128868, 0.12800000607967377, 0.12800000607967377, 0.9920000471174717, 0.0, 0.0, 0.0, 0.0, 0.0, 1.6518368652427788E9, 0.0, 2022-05-06 12:34:25.242
65.0, -300.58884908864275, -259.893127720803, -242.80739477323368, -222.4548592143692, 0.12800000607967377, 0.12800000607967377, 0.9920000471174717, 0.0, 0.0, 0.0, 0.0, 0.0, 1.651836865257764E9, 0.0, 2022-05-06 12:34:25.257
65.0, -276.0850245789625, -154.68226216733456, -193.64266995573416, -176.75328175583854, 0.12800000607967377, 0.12800000607967377, 0.9920000471174717, 0.0, 0.0, 0.0, 0.0, 0.0, 1.651836865257764E9, 0.0, 2022-05-06 12:34:25.257
66.0, -203.8899958343245, -43.80170828104019, -111.2190148322843, -141.65806057164446, 0.12800000607967377, 0.12800000607967377, 0.9920000471174717, 0.0, 0.0, 0.0, 0.0, 0.0, 1.651836865258728E9, 0.0, 2022-05-06 12:34:25.258
66.0, -225.4205998792313, -142.07505941670388, -153.3489878331311, -163.47289701318368, 0.12800000607967377, 0.12800000607967377, 0.9920000471174717, 0.0, 0.0, 0.0, 0.0, 0.0, 1.651836865258728E9, 0.0, 2022-05-06 12:34:25.258
67.0, -309.2841164856218, -271.7635701801628, -262.6700034379028, -243.2113039684482, 0.12800000607967377, 0.12800000607967377, 0.9920000471174717, 0.0, 0.0, 0.0, 0.0, 0.0, 1.651836865272772E9, 0.0, 2022-05-06 12:34:25.272
67.0, -282.5326121025719, -177.4171139979735, -217.61916857166216, -217.87722166860476, 0.12800000607967377, 0.12800000607967377, 0.9920000471174717, 0.0, 0.0, 0.0, 0.0, 0.0, 1.651836865272772E9, 0.0, 2022-05-06 12:34:25.272
68.0, -213.5651170196943, -59.14277789928019, -128.29165813000873, -150.77219676366076, 0.12800000607967377, 0.12800000607967377, 0.9920000471174717, 0.0, 0.0, 0.0, 0.0, 0.0, 1.651836865287795E9, 0.0, 2022-05-06 12:34:25.287
68.0, -232.64234669366851, -148.97891473490745, -158.00516327796504, -161.2065176400356, 0.12800000607967377, 0.12800000607967377, 0.9920000471174717, 0.0, 0.0, 0.0, 0.0, 0.0, 1.651836865287795E9, 0.0, 2022-05-06 12:34:25.287
69.0, -297.54831042466685, -257.7501650461927, -247.45983031811193, -226.24337786948308, 0.12800000607967377, 0.12800000607967377, 0.9920000471174717, 0.0, 0.0, 0.0, 0.0, 0.0, 1.6518368652887745E9, 0.0, 2022-05-06 12:34:25.288
69.0, -276.7469868711196, -163.84501705877483, -202.2593994536437, -199.00942639214918, 0.12800000607967377, 0.12800000607967377, 0.9920000471174717, 0.0, 0.0, 0.0, 0.0, 0.0, 1.6518368652887745E9, 0.0, 2022-05-06 12:34:25.288
70.0, -206.57150410255417, -50.507348901592195, -117.30009216023609, -148.98826448479667, 0.12800000607967377, 0.12800000607967377, 1.008000047877431, 0.0, 0.0, 0.0, 0.0, 0.0, 1.651836865302778E9, 0.0, 2022-05-06 12:34:25.302
70.0, -231.50915700709447, -144.9547823825851, -161.62538643507287, -172.67679080413654, 0.12800000607967377, 0.12800000607967377, 1.008000047877431, 0.0, 0.0, 0.0, 0.0, 0.0, 1.651836865302778E9, 0.0, 2022-05-06 12:34:25.302
71.0, -303.9734585485421, -264.80361636262387, -249.35221969569102, -229.99823742499575, 0.12800000607967377, 0.12800000607967377, 1.008000047877431, 0.0, 0.0, 0.0, 0.0, 0.0, 1.6518368653178082E9, 0.0, 2022-05-06 12:34:25.317
71.0, -264.22954171942547, -150.90870311204344, -191.90361647633836, -181.59645219845697, 0.12800000607967377, 0.12800000607967377, 1.008000047877431, 0.0, 0.0, 0.0, 0.0, 0.0, 1.6518368653178082E9, 0.0, 2022-05-06 12:34:25.317
72.0, -202.58851064974442, -41.299715210683644, -117.47586745815352, -147.07717560743913, 0.12800000607967377, 0.12800000607967377, 1.008000047877431, 0.0, 0.0, 0.0, 0.0, 0.0, 1.6518368653327656E9, 0.0, 2022-05-06 12:34:25.332
72.0, -238.40553252538666, -153.34711788315326, -166.40871847840026, -188.01786042237654, 0.12800000607967377, 0.12800000607967377, 1.008000047877431, 0.0, 0.0, 0.0, 0.0, 0.0, 1.6518368653327656E9, 0.0, 2022-05-06 12:34:25.332
73.0, -300.58510918868706, -263.1318810824305, -250.9491569767706, -225.9441858730279, 0.12800000607967377, 0.12800000607967377, 1.008000047877431, 0.0, 0.0, 0.0, 0.0, 0.0, 1.651836865333737E9, 0.0, 2022-05-06 12:34:25.333
73.0, -261.473235452082, -162.12092317920178, -196.64580962015316, -192.34866457106546, 0.12800000607967377, 0.12800000607967377, 1.008000047877431, 0.0, 0.0, 0.0, 0.0, 0.0, 1.651836865333737E9, 0.0, 2022-05-06 12:34:25.333
74.0, -207.71591348899528, -40.817268116399646, -107.62123107491061, -135.07209674967453, 0.12800000607967377, 0.12800000607967377, 1.008000047877431, 0.0, 0.0, 0.0, 0.0, 0.0, 1.651836865347798E9, 0.0, 2022-05-06 12:34:25.347
74.0, -232.67600579326972, -141.7683876203373, -160.1705653523095, -182.56134638702497, 0.12800000607967377, 0.12800000607967377, 1.008000047877431, 0.0, 0.0, 0.0, 0.0, 0.0, 1.651836865347798E9, 0.0, 2022-05-06 12:34:25.347
75.0, -300.24851819267496, -257.3836548505351, -240.7242704979144, -230.92573261400685, 0.12800000607967377, 0.12800000607967377, 1.008000047877431, 0.0, 0.0, 0.0, 0.0, 0.0, 1.651836865348722E9, 0.0, 2022-05-06 12:34:25.348
75.0, -274.5254862974398, -163.83753725886345, -201.31694466480985, -193.24250066047534, 0.12800000607967377, 0.12800000607967377, 1.008000047877431, 0.0, 0.0, 0.0, 0.0, 0.0, 1.651836865348722E9, 0.0, 2022-05-06 12:34:25.348
76.0, -212.70494002988562, -58.185363510623574, -125.00802596891299, -149.92323947371915, 0.12800000607967377, 0.12800000607967377, 1.008000047877431, 0.0, 0.0, 0.0, 0.0, 0.0, 1.651836865362789E9, 0.0, 2022-05-06 12:34:25.362
76.0, -238.66732552228495, -155.35170425940305, -164.9538973956369, -169.30340104410425, 0.12800000607967377, 0.12800000607967377, 1.008000047877431, 0.0, 0.0, 0.0, 0.0, 0.0, 1.651836865362789E9, 0.0, 2022-05-06 12:34:25.362
77.0, -298.0457171187736, -254.42539398558438, -237.25364333903417, -213.17990732425824, 0.12800000607967377, 0.12800000607967377, 1.008000047877431, 0.0, 0.0, 0.0, 0.0, 0.0, 1.6518368653777597E9, 0.0, 2022-05-06 12:34:25.377
77.0, -265.08223890932277, -153.1863021850586, -201.7395533598028, -194.64496314385906, 0.12800000607967377, 0.12800000607967377, 1.008000047877431, 0.0, 0.0, 0.0, 0.0, 0.0, 1.6518368653777597E9, 0.0, 2022-05-06 12:34:25.377
78.0, -208.045024685096, -51.59565978869796, -119.8170448304154, -152.44019214389846, 0.12800000607967377, 0.12800000607967377, 1.008000047877431, 0.0, 0.0, 0.0, 0.0, 0.0, 1.6518368653787715E9, 0.0, 2022-05-06 12:34:25.378
78.0, -248.01707541150972, -165.20260074269027, -173.6977834920399, -189.53625980438665, 0.12800000607967377, 0.12800000607967377, 1.008000047877431, 0.0, 0.0, 0.0, 0.0, 0.0, 1.6518368653787715E9, 0.0, 2022-05-06 12:34:25.378
79.0, -308.45011879550293, -265.5328968539834, -252.18706386210397, -233.51000348338857, 0.12800000607967377, 0.12800000607967377, 1.008000047877431, 0.0, 0.0, 0.0, 0.0, 0.0, 1.65183686539277E9, 0.0, 2022-05-06 12:34:25.392
79.0, -277.0087798680179, -164.66031524911523, -205.0830239201896, -199.4469946869649, 0.12800000607967377, 0.12800000607967377, 1.008000047877431, 0.0, 0.0, 0.0, 0.0, 0.0, 1.65183686539277E9, 0.0, 2022-05-06 12:34:25.392
80.0, -199.27121938904747, -41.18003841210157, -107.20984207978472, -132.05025758547708, 0.12800000607967377, 0.12800000607967377, 1.008000047877431, 0.0, 0.0, 0.0, 0.0, 0.0, 1.6518368654077687E9, 0.0, 2022-05-06 12:34:25.407
80.0, -225.18124628206715, -142.9202768066898, -155.2451171106659, -157.87800667947158, 0.12800000607967377, 0.12800000607967377, 1.008000047877431, 0.0, 0.0, 0.0, 0.0, 0.0, 1.6518368654077687E9, 0.0, 2022-05-06 12:34:25.407
81.0, -294.99395875493065, -259.3919811267406, -244.32579415524378, -226.06386267160997, 0.12800000607967377, 0.12800000607967377, 1.008000047877431, 0.0, 0.0, 0.0, 0.0, 0.0, 1.6518368654087749E9, 0.0, 2022-05-06 12:34:25.408
81.0, -272.7041550190188, -159.7760059069842, -197.76403970690444, -198.0781913031824, 0.12800000607967377, 0.12800000607967377, 1.008000047877431, 0.0, 0.0, 0.0, 0.0, 0.0, 1.6518368654087749E9, 0.0, 2022-05-06 12:34:25.408
82.0, -206.0404383088462, -49.84538660943508, -125.76348575996235, -172.71044990373775, 0.12800000607967377, 0.12800000607967377, 1.008000047877431, 0.0, 0.0, 0.0, 0.0, 0.0, 1.6518368654228091E9, 0.0, 2022-05-06 12:34:25.422
82.0, -247.2877949201502, -170.88350877538323, -181.173843503464, -198.01087310397997, 0.12800000607967377, 0.12800000607967377, 1.008000047877431, 0.0, 0.0, 0.0, 0.0, 0.0, 1.6518368654228091E9, 0.0, 2022-05-06 12:34:25.422
83.0, -324.04550161072984, -286.8391069015488, -266.1555901966058, -247.2803151202388, 0.12800000607967377, 0.12800000607967377, 1.008000047877431, 0.0, 0.0, 0.0, 0.0, 0.0, 1.6518368654377737E9, 0.0, 2022-05-06 12:34:25.437
83.0, -294.69850665843114, -183.6777065237984, -223.65910700010136, -212.66380113037303, 0.12800000607967377, 0.12800000607967377, 1.008000047877431, 0.0, 0.0, 0.0, 0.0, 0.0, 1.6518368654377737E9, 0.0, 2022-05-06 12:34:25.437
84.0, -208.23949948279187, -54.44546355493367, -127.72693323669955, -158.39785277331248, 0.12800000607967377, 0.12800000607967377, 1.008000047877431, 0.0, 0.0, 0.0, 0.0, 0.0, 1.6518368654387228E9, 0.0, 2022-05-06 12:34:25.438
84.0, -223.11682150652632, -148.60118483938277, -157.3207615860738, -177.47882234724239, 0.12800000607967377, 0.12800000607967377, 1.008000047877431, 0.0, 0.0, 0.0, 0.0, 0.0, 1.6518368654387228E9, 0.0, 2022-05-06 12:34:25.438
85.0, -305.3123427326791, -258.2625313401222, -245.70581723889336, -233.66333938157186, 0.12800000607967377, 0.12800000607967377, 1.008000047877431, 0.0, 0.0, 0.0, 0.0, 0.0, 1.6518368654527583E9, 0.0, 2022-05-06 12:34:25.452
85.0, -265.115898008924, -156.82522484194487, -185.2129354556091, -181.98540179384872, 0.12800000607967377, 0.12800000607967377, 1.008000047877431, 0.0, 0.0, 0.0, 0.0, 0.0, 1.6518368654527583E9, 0.0, 2022-05-06 12:34:25.452
86.0, -185.93847604701295, -31.138407031074166, -103.2156289271079, -133.33304327027872, 0.12800000607967377, 0.12800000607967377, 1.008000047877431, 0.0, 0.0, 0.0, 0.0, 0.0, 1.6518368654677744E9, 0.0, 2022-05-06 12:34:25.467
86.0, -235.43231206061319, -145.9907346703112, -159.4674641606398, -169.42307784268633, 0.12800000607967377, 0.12800000607967377, 1.008000047877431, 0.0, 0.0, 0.0, 0.0, 0.0, 1.6518368654677744E9, 0.0, 2022-05-06 12:34:25.467
87.0, -307.73205800401047, -261.07493610680103, -253.7727814433165, -239.7219773097895, 0.12800000607967377, 0.12800000607967377, 1.008000047877431, 0.0, 0.0, 0.0, 0.0, 0.0, 1.6518368654687436E9, 0.0, 2022-05-06 12:34:25.468
87.0, -281.6649553128518, -169.42494779266417, -202.4501343513839, -207.87672918708995, 0.12800000607967377, 0.12800000607967377, 1.008000047877431, 0.0, 0.0, 0.0, 0.0, 0.0, 1.6518368654687436E9, 0.0, 2022-05-06 12:34:25.468
88.0, -200.83823747048154, -43.41649858560413, -106.71991518558934, -131.06666389713064, 0.12800000607967377, 0.12800000607967377, 1.008000047877431, 0.0, 0.0, 0.0, 0.0, 0.0, 1.6518368654827633E9, 0.0, 2022-05-06 12:34:25.482
88.0, -232.95649828994647, -152.2625468960032, -159.84145415620878, -170.283254832495, 0.12800000607967377, 0.12800000607967377, 1.008000047877431, 0.0, 0.0, 0.0, 0.0, 0.0, 1.6518368654827633E9, 0.0, 2022-05-06 12:34:25.482
89.0, -304.2053323457949, -261.0898957066238, -245.08873374620453, -230.70133861666545, 0.12800000607967377, 0.12800000607967377, 1.008000047877431, 0.0, 0.0, 0.0, 0.0, 0.0, 1.651836865514773E9, 0.0, 2022-05-06 12:34:25.514
89.0, -267.6216309792362, -152.928249088116, -198.16794890211895, -194.7085414431058, 0.12800000607967377, 0.12800000607967377, 1.008000047877431, 0.0, 0.0, 0.0, 0.0, 0.0, 1.651836865514773E9, 0.0, 2022-05-06 12:34:25.514
90.0, -213.0789300254546, -49.49383601360023, -118.34352424787357, -148.9433856853284, 0.12800000607967377, 0.12800000607967377, 1.0240000486373901, 0.0, 0.0, 0.0, 0.0, 0.0, 1.6518368655157769E9, 0.0, 2022-05-06 12:34:25.515
90.0, -239.8715733080171, -152.58043839223683, -161.63660613493994, -187.61021132720634, 0.12800000607967377, 0.12800000607967377, 1.0240000486373901, 0.0, 0.0, 0.0, 0.0, 0.0, 1.6518368655157769E9, 0.0, 2022-05-06 12:34:25.515
91.0, -307.18603261047974, -271.1951053868979, -250.08150018705055, -232.08510160027072, 0.12800000607967377, 0.12800000607967377, 1.0240000486373901, 0.0, 0.0, 0.0, 0.0, 0.0, 1.6518368655167222E9, 0.0, 2022-05-06 12:34:25.516
91.0, -275.24728698888794, -162.9250016696751, -206.971673397813, -200.38196967588738, 0.12800000607967377, 0.12800000607967377, 1.0240000486373901, 0.0, 0.0, 0.0, 0.0, 0.0, 1.6518368655167222E9, 0.0, 2022-05-06 12:34:25.516
92.0, -208.0038857855834, -51.330126891843975, -124.68265467276797, -150.1962521704845, 0.12800000607967377, 0.12800000607967377, 1.0240000486373901, 0.0, 0.0, 0.0, 0.0, 0.0, 1.6518368655177145E9, 0.0, 2022-05-06 12:34:25.517
92.0, -231.35956100886688, -154.31201207172126, -160.30146185075864, -172.0223083118908, 0.12800000607967377, 0.12800000607967377, 1.0240000486373901, 0.0, 0.0, 0.0, 0.0, 0.0, 1.6518368655177145E9, 0.0, 2022-05-06 12:34:25.517
93.0, -286.9269945505075, -246.56786417867988, -228.92488613771275, -202.304278253112, 0.12800000607967377, 0.12800000607967377, 1.0240000486373901, 0.0, 0.0, 0.0, 0.0, 0.0, 1.651836865527774E9, 0.0, 2022-05-06 12:34:25.527
93.0, -264.8765444117598, -154.8542975652963, -194.16625594953075, -186.12547104479745, 0.12800000607967377, 0.12800000607967377, 1.0240000486373901, 0.0, 0.0, 0.0, 0.0, 0.0, 1.651836865527774E9, 0.0, 2022-05-06 12:34:25.527
94.0, -198.2988454005681, -48.30828772764653, -114.68964199116454, -145.84300862206146, 0.12800000607967377, 0.12800000607967377, 1.0240000486373901, 0.0, 0.0, 0.0, 0.0, 0.0, 1.6518368655428417E9, 0.0, 2022-05-06 12:34:25.542
94.0, -242.1304728812538, -151.97831449937075, -157.6162136825733, -173.8025006907992, 0.12800000607967377, 0.12800000607967377, 1.0240000486373901, 0.0, 0.0, 0.0, 0.0, 0.0, 1.6518368655428417E9, 0.0, 2022-05-06 12:34:25.542
95.0, -306.3071561208926, -263.161800282076, -245.66841823933646, -227.03623666008934, 0.12800000607967377, 0.12800000607967377, 1.0240000486373901, 0.0, 0.0, 0.0, 0.0, 0.0, 1.651836865557787E9, 0.0, 2022-05-06 12:34:25.557
95.0, -279.4135355395265, -165.97676003351808, -201.8891493580304, -193.99422055156901, 0.12800000607967377, 0.12800000607967377, 1.0240000486373901, 0.0, 0.0, 0.0, 0.0, 0.0, 1.651836865557787E9, 0.0, 2022-05-06 12:34:25.557
96.0, -208.9687799741514, -46.21394375246018, -117.71522105531767, -141.80765656987205, 0.12800000607967377, 0.12800000607967377, 1.0240000486373901, 0.0, 0.0, 0.0, 0.0, 0.0, 1.6518368655587277E9, 0.0, 2022-05-06 12:34:25.558
96.0, -232.346894597169, -150.78902631346136, -166.25912248017266, -187.69248912623152, 0.12800000607967377, 0.12800000607967377, 1.0240000486373901, 0.0, 0.0, 0.0, 0.0, 0.0, 1.6518368655587277E9, 0.0, 2022-05-06 12:34:25.558
97.0, -300.88056128518656, -252.4544667089358, -239.84539400832728, -229.05952253611758, 0.12800000607967377, 0.12800000607967377, 1.0240000486373901, 0.0, 0.0, 0.0, 0.0, 0.0, 1.6518368655727923E9, 0.0, 2022-05-06 12:34:25.572
97.0, -286.4931661556475, -169.7877180883661, -214.7880643052049, -217.36859527463093, 0.12800000607967377, 0.12800000607967377, 1.0240000486373901, 0.0, 0.0, 0.0, 0.0, 0.0, 1.6518368655727923E9, 0.0, 2022-05-06 12:34:25.572
98.0, -211.36231594579294, -53.9891957603395, -119.91054232930765, -146.87522100983188, 0.12800000607967377, 0.12800000607967377, 1.0240000486373901, 0.0, 0.0, 0.0, 0.0, 0.0, 1.651836865587782E9, 0.0, 2022-05-06 12:34:25.587
98.0, -239.89775260770693, -155.3666638592258, -168.51802205340937, -176.8467792547308, 0.12800000607967377, 0.12800000607967377, 1.0240000486373901, 0.0, 0.0, 0.0, 0.0, 0.0, 1.651836865587782E9, 0.0, 2022-05-06 12:34:25.587
99.0, -302.78043046267703, -262.5334970895201, -250.3919118833728, -234.33652137359604, 0.12800000607967377, 0.12800000607967377, 1.0240000486373901, 0.0, 0.0, 0.0, 0.0, 0.0, 1.6518368655887852E9, 0.0, 2022-05-06 12:34:25.588
99.0, -264.86158481193706, -157.487187134102, -192.329965071287, -188.28713321918622, 0.12800000607967377, 0.12800000607967377, 1.0240000486373901, 0.0, 0.0, 0.0, 0.0, 0.0, 1.6518368655887852E9, 0.0, 2022-05-06 12:34:25.588
100.0, -202.61842984938994, -46.894605544395745, -119.67492863209918, -147.95979199698195, 0.12800000607967377, 0.12800000607967377, 1.0240000486373901, 0.0, 0.0, 0.0, 0.0, 0.0, 1.6518368656027825E9, 0.0, 2022-05-06 12:34:25.602
100.0, -243.37585956649855, -153.42565578222275, -165.52984198881313, -184.55845296336338, 0.12800000607967377, 0.12800000607967377, 1.0240000486373901, 0.0, 0.0, 0.0, 0.0, 0.0, 1.6518368656027825E9, 0.0, 2022-05-06 12:34:25.602
0.0, -311.4065097104758, -264.05002652155235, -250.48166948230937, -234.50294692162424, 0.12800000607967377, 0.12800000607967377, 1.0240000486373901, 0.0, 0.0, 0.0, 0.0, 0.0, 1.6518368656037283E9, 0.0, 2022-05-06 12:34:25.603
1.0, -274.22816425096244, -154.48217751970515, -203.6693417369388, -200.55961492378265, 0.12800000607967377, 0.12800000607967377, 1.0240000486373901, 0.0, 0.0, 0.0, 0.0, 0.0, 1.6518368656177795E9, 0.0, 2022-05-06 12:34:25.617
1.0, -205.20083076879382, -45.74832620797679, -114.12117719789967, -134.98420910071582, 0.12800000607967377, 0.12800000607967377, 1.0240000486373901, 0.0, 0.0, 0.0, 0.0, 0.0, 1.6518368656177795E9, 0.0, 2022-05-06 12:34:25.617
2.0, -230.41897617001086, -145.66349342418835, -154.08200822444633, -158.295005524531, 0.12800000607967377, 0.12800000607967377, 1.0240000486373901, 0.0, 0.0, 0.0, 0.0, 0.0, 1.6518368656327684E9, 0.0, 2022-05-06 12:34:25.632
2.0, -299.7642011484131, -263.12253133254126, -249.59905309276655, -220.05571339279413, 0.12800000607967377, 0.12800000607967377, 1.0240000486373901, 0.0, 0.0, 0.0, 0.0, 0.0, 1.6518368656327684E9, 0.0, 2022-05-06 12:34:25.632
3.0, -265.6376140527427, -148.9059866857715, -189.8878104002215, -177.3423159988597, 0.12800000607967377, 0.12800000607967377, 1.0240000486373901, 0.0, 0.0, 0.0, 0.0, 0.0, 1.6518368656337252E9, 0.0, 2022-05-06 12:34:25.633
3.0, -204.15365878120065, -50.18010765546933, -125.41567506408319, -148.71338183805346, 0.12800000607967377, 0.12800000607967377, 1.0240000486373901, 0.0, 0.0, 0.0, 0.0, 0.0, 1.6518368656337252E9, 0.0, 2022-05-06 12:34:25.633
4.0, -240.58028434962034, -156.9056326909922, -174.24006898561493, -196.86085386760533, 0.12800000607967377, 0.12800000607967377, 1.0240000486373901, 0.0, 0.0, 0.0, 0.0, 0.0, 1.6518368656477604E9, 0.0, 2022-05-06 12:34:25.647
4.0, -304.1548436963931, -268.9605151633732, -254.44596343534067, -239.88092305790633, 0.12800000607967377, 0.12800000607967377, 1.0240000486373901, 0.0, 0.0, 0.0, 0.0, 0.0, 1.6518368656477604E9, 0.0, 2022-05-06 12:34:25.647
5.0, -291.106332750991, -172.34019980812445, -214.26073841145262, -219.43115010019392, 0.12800000607967377, 0.12800000607967377, 1.0240000486373901, 0.0, 0.0, 0.0, 0.0, 0.0, 1.651836865662772E9, 0.0, 2022-05-06 12:34:25.662
5.0, -214.883431754075, -63.29593680007383, -128.7479259246029, -155.65089625585824, 0.12800000607967377, 0.12800000607967377, 1.0240000486373901, 0.0, 0.0, 0.0, 0.0, 0.0, 1.651836865662772E9, 0.0, 2022-05-06 12:34:25.662
6.0, -242.66340862493962, -162.82963422080502, -168.04305475903675, -184.7884568106383, 0.12800000607967377, 0.12800000607967377, 1.0240000486373901, 0.0, 0.0, 0.0, 0.0, 0.0, 1.6518368656637323E9, 0.0, 2022-05-06 12:34:25.663
6.0, -308.04807955026627, -266.93722928734496, -246.14338553370908, -208.67519782762975, 0.12800000607967377, 0.12800000607967377, 1.0240000486373901, 0.0, 0.0, 0.0, 0.0, 0.0, 1.6518368656637323E9, 0.0, 2022-05-06 12:34:25.663
7.0, -273.0987144643441, -156.39700629701838, -207.06891079666093, -203.85072688478976, 0.12800000607967377, 0.12800000607967377, 1.0240000486373901, 0.0, 0.0, 0.0, 0.0, 0.0, 1.651836865677765E9, 0.0, 2022-05-06 12:34:25.677
7.0, -212.08598658721894, -49.79863785998896, -113.85564430104569, -145.37365117762238, 0.12800000607967377, 0.12800000607967377, 1.0240000486373901, 0.0, 0.0, 0.0, 0.0, 0.0, 1.651836865677765E9, 0.0, 2022-05-06 12:34:25.677
8.0, -257.3425159510225, -172.45613670675084, -187.26240063132718, -199.5348823359236, 0.12800000607967377, 0.12800000607967377, 1.0240000486373901, 0.0, 0.0, 0.0, 0.0, 0.0, 1.6518368656927707E9, 0.0, 2022-05-06 12:34:25.692
8.0, -314.27127307653427, -270.24704074813053, -256.00550171686336, -237.68934168387204, 0.12800000607967377, 0.12800000607967377, 1.0240000486373901, 0.0, 0.0, 0.0, 0.0, 0.0, 1.6518368656927707E9, 0.0, 2022-05-06 12:34:25.692
9.0, -283.59661363996565, -169.0977065465413, -202.44265455147251, -203.85446678474545, 0.12800000607967377, 0.12800000607967377, 1.0240000486373901, 0.0, 0.0, 0.0, 0.0, 0.0, 1.6518368656937213E9, 0.0, 2022-05-06 12:34:25.693
9.0, -199.29552873875946, -44.83953051874414, -103.92620991868898, -127.35107329115272, 0.12800000607967377, 0.12800000607967377, 1.0240000486373901, 0.0, 0.0, 0.0, 0.0, 0.0, 1.6518368656937213E9, 0.0, 2022-05-06 12:34:25.693
10.0, -238.28398577682674, -155.8696804032661, -161.07936104154214, -175.81269691698253, 0.12800000607967377, 0.12800000607967377, 1.0240000486373901, 0.0, 0.0, 0.0, 0.0, 0.0, 1.651836865707771E9, 0.0, 2022-05-06 12:34:25.707
10.0, -303.56393950339407, -259.8501188713126, -247.00730242347345, -220.05945329274982, 0.12800000607967377, 0.12800000607967377, 1.0240000486373901, 0.0, 0.0, 0.0, 0.0, 0.0, 1.651836865707771E9, 0.0, 2022-05-06 12:34:25.707
11.0, -267.43650593142956, -148.10938799520954, -198.9645475926809, -194.80764879193157, 0.12800000607967377, 0.12800000607967377, 1.0240000486373901, 0.0, 0.0, 0.0, 0.0, 0.0, 1.6518368657228203E9, 0.0, 2022-05-06 12:34:25.722
11.0, -204.09008048195392, -42.8536436422728, -111.46584822935984, -141.6187916221097, 0.12800000607967377, 0.12800000607967377, 1.0240000486373901, 0.0, 0.0, 0.0, 0.0, 0.0, 1.6518368657228203E9, 0.0, 2022-05-06 12:34:25.722
12.0, -238.84123087022454, -150.69365886459127, -160.61935334699228, -174.2718581352383, 0.12800000607967377, 0.12800000607967377, 1.0240000486373901, 0.0, 0.0, 0.0, 0.0, 0.0, 1.6518368657237277E9, 0.0, 2022-05-06 12:34:25.723
12.0, -314.9220156688243, -269.3644243585877, -256.2972139134072, -239.14416276663542, 0.12800000607967377, 0.12800000607967377, 1.0240000486373901, 0.0, 0.0, 0.0, 0.0, 0.0, 1.6518368657237277E9, 0.0, 2022-05-06 12:34:25.723
13.0, -275.5109499357641, -157.80320868035778, -195.86417052941397, -189.10056145954877, 0.12800000607967377, 0.12800000607967377, 1.0240000486373901, 0.0, 0.0, 0.0, 0.0, 0.0, 1.6518368657537992E9, 0.0, 2022-05-06 12:34:25.753
13.0, -192.7207846166566, -44.274805625434965, -109.70435535022989, -140.4369832361117, 0.12800000607967377, 0.12800000607967377, 1.0240000486373901, 0.0, 0.0, 0.0, 0.0, 0.0, 1.6518368657537992E9, 0.0, 2022-05-06 12:34:25.753
14.0, -236.90770259313285, -148.02337029622868, -154.9833241137676, -159.39827601145953, 0.12800000607967377, 0.12800000607967377, 1.0240000486373901, 0.0, 0.0, 0.0, 0.0, 0.0, 1.651836865754723E9, 0.0, 2022-05-06 12:34:25.754
14.0, -323.1161364717409, -264.476375116501, -259.31531317764893, -236.49257369805127, 0.12800000607967377, 0.12800000607967377, 1.0240000486373901, 0.0, 0.0, 0.0, 0.0, 0.0, 1.651836865754723E9, 0.0, 2022-05-06 12:34:25.754
15.0, -273.73823735676706, -149.48567117890343, -198.35494389990345, -206.0984067581594, 0.12800000607967377, 0.12800000607967377, 1.0240000486373901, 0.0, 0.0, 0.0, 0.0, 0.0, 1.6518368657557113E9, 0.0, 2022-05-06 12:34:25.755
15.0, -212.44875688292086, -51.507772139739245, -116.29031917219982, -145.6279643746093, 0.12800000607967377, 0.12800000607967377, 1.0240000486373901, 0.0, 0.0, 0.0, 0.0, 0.0, 1.6518368657557113E9, 0.0, 2022-05-06 12:34:25.755
16.0, -244.45856060367078, -156.62888009427115, -163.07272771792486, -176.20538641232997, 0.12800000607967377, 0.12800000607967377, 1.0240000486373901, 0.0, 0.0, 0.0, 0.0, 0.0, 1.651836865767764E9, 0.0, 2022-05-06 12:34:25.767
16.0, -309.3645243346691, -266.30892609478906, -254.9209307297133, -229.0763520859182, 0.12800000607967377, 0.12800000607967377, 1.0240000486373901, 0.0, 0.0, 0.0, 0.0, 0.0, 1.651836865767764E9, 0.0, 2022-05-06 12:34:25.767
17.0, -283.37595954257995, -164.21339720441028, -202.76428594766185, -191.40059993229806, 0.12800000607967377, 0.12800000607967377, 1.0240000486373901, 0.0, 0.0, 0.0, 0.0, 0.0, 1.6518368657827976E9, 0.0, 2022-05-06 12:34:25.782
17.0, -211.5437010936439, -48.250319278333336, -113.78458620188758, -131.41634454298764, 0.12800000607967377, 0.12800000607967377, 1.0240000486373901, 0.0, 0.0, 0.0, 0.0, 0.0, 1.6518368657827976E9, 0.0, 2022-05-06 12:34:25.782
18.0, -240.18011505436152, -153.52850303100422, -162.27238912740722, -166.91173502244055, 0.12800000607967377, 0.12800000607967377, 1.0240000486373901, 0.0, 0.0, 0.0, 0.0, 0.0, 1.6518368657837298E9, 0.0, 2022-05-06 12:34:25.783
18.0, -292.7294493317604, -246.5024159294553, -247.93105771252885, -226.67533631436527, 0.12800000607967377, 0.12800000607967377, 1.0240000486373901, 0.0, 0.0, 0.0, 0.0, 0.0, 1.6518368657837298E9, 0.0, 2022-05-06 12:34:25.783
19.0, -277.7586298091337, -148.9059866857715, -199.28617898887023, -203.51413588877767, 0.12800000607967377, 0.12800000607967377, 1.0240000486373901, 0.0, 0.0, 0.0, 0.0, 0.0, 1.6518368657977643E9, 0.0, 2022-05-06 12:34:25.797
19.0, -217.886571418494, -59.45879944553599, -133.53499786788598, -164.95950724557042, 0.12800000607967377, 0.12800000607967377, 1.0240000486373901, 0.0, 0.0, 0.0, 0.0, 0.0, 1.6518368657977643E9, 0.0, 2022-05-06 12:34:25.797
20.0, -247.62999576609582, -165.27552879182622, -177.5124814468436, -187.529803478159, 0.12800000607967377, 0.12800000607967377, 1.0240000486373901, 0.0, 0.0, 0.0, 0.0, 0.0, 1.6518368658128245E9, 0.0, 2022-05-06 12:34:25.812
20.0, -308.97557473927736, -261.60787185048684, -239.25074991537258, -213.57446676958352, 0.12800000607967377, 0.12800000607967377, 1.0240000486373901, 0.0, 0.0, 0.0, 0.0, 0.0, 1.6518368658128245E9, 0.0, 2022-05-06 12:34:25.812
21.0, -280.2381834797561, -157.75085008097813, -194.82447834173217, -189.06690235994756, 0.12800000607967377, 0.12800000607967377, 1.0240000486373901, 0.0, 0.0, 0.0, 0.0, 0.0, 1.651836865813714E9, 0.0, 2022-05-06 12:34:25.813
21.0, -207.9496572362259, -45.32197761302814, -112.74489401420578, -146.26374736707658, 0.12800000607967377, 0.12800000607967377, 1.0240000486373901, 0.0, 0.0, 0.0, 0.0, 0.0, 1.651836865813714E9, 0.0, 2022-05-06 12:34:25.813
22.0, -236.61973029654473, -153.88005362683907, -162.90443221991882, -176.9758058032021, 0.12800000607967377, 0.12800000607967377, 1.0240000486373901, 0.0, 0.0, 0.0, 0.0, 0.0, 1.6518368658277793E9, 0.0, 2022-05-06 12:34:25.827
22.0, -311.16715611331165, -270.2620003479533, -252.2543820613064, -234.4057095227763, 0.12800000607967377, 0.12800000607967377, 1.0240000486373901, 0.0, 0.0, 0.0, 0.0, 0.0, 1.6518368658277793E9, 0.0, 2022-05-06 12:34:25.827
23.0, -280.30550167895854, -165.17829139297828, -207.95900698611513, -207.23159644473344, 0.12800000607967377, 0.12800000607967377, 1.0240000486373901, 0.0, 0.0, 0.0, 0.0, 0.0, 1.651836865842822E9, 0.0, 2022-05-06 12:34:25.842
23.0, -205.6496187634766, -52.20713343145326, -120.39672932354733, -142.75198130868375, 0.12800000607967377, 0.12800000607967377, 1.0240000486373901, 0.0, 0.0, 0.0, 0.0, 0.0, 1.651836865842822E9, 0.0, 2022-05-06 12:34:25.842
24.0, -248.35927625745535, -160.22292395168915, -166.28904167981818, -175.8949747160077, 0.12800000607967377, 0.12800000607967377, 1.0240000486373901, 0.0, 0.0, 0.0, 0.0, 0.0, 1.6518368658437185E9, 0.0, 2022-05-06 12:34:25.843
24.0, -308.75866054184735, -270.5237933448516, -251.49518237030134, -234.45432822220027, 0.12800000607967377, 0.12800000607967377, 1.0240000486373901, 0.0, 0.0, 0.0, 0.0, 0.0, 1.6518368658437185E9, 0.0, 2022-05-06 12:34:25.843
25.0, -264.0481565715745, -155.59292780654505, -194.27845294820145, -190.48432444315404, 0.12800000607967377, 0.12800000607967377, 1.0240000486373901, 0.0, 0.0, 0.0, 0.0, 0.0, 1.6518368658577864E9, 0.0, 2022-05-06 12:34:25.857
25.0, -209.41943791881204, -51.23101954301819, -123.36246998840943, -148.57126563973725, 0.12800000607967377, 0.12800000607967377, 1.0240000486373901, 0.0, 0.0, 0.0, 0.0, 0.0, 1.6518368658577864E9, 0.0, 2022-05-06 12:34:25.857
26.0, -241.14126934297383, -157.66857228195295, -167.15295856958255, -171.6053094668314, 0.12800000607967377, 0.12800000607967377, 1.0240000486373901, 0.0, 0.0, 0.0, 0.0, 0.0, 1.6518368658727703E9, 0.0, 2022-05-06 12:34:25.872
26.0, -306.9186297636479, -252.23942246148363, -239.80799500877038, -222.66990346182138, 0.12800000607967377, 0.12800000607967377, 1.0240000486373901, 0.0, 0.0, 0.0, 0.0, 0.0, 1.6518368658727703E9, 0.0, 2022-05-06 12:34:25.872
27.0, -274.70687144529074, -155.39845300884917, -195.80433213012293, -186.03384349588305, 0.12800000607967377, 0.12800000607967377, 1.0240000486373901, 0.0, 0.0, 0.0, 0.0, 0.0, 1.6518368658737228E9, 0.0, 2022-05-06 12:34:25.873
27.0, -213.170557574369, -57.22607917198911, -131.5977296908386, -149.9961675228551, 0.12800000607967377, 0.12800000607967377, 1.0240000486373901, 0.0, 0.0, 0.0, 0.0, 0.0, 1.6518368658737228E9, 0.0, 2022-05-06 12:34:25.873
28.0, -251.05574412550777, -164.07502090604976, -175.05536717595533, -188.88364726211876, 0.12800000607967377, 0.12800000607967377, 1.0240000486373901, 0.0, 0.0, 0.0, 0.0, 0.0, 1.651836865887788E9, 0.0, 2022-05-06 12:34:25.887
28.0, -309.19996873661876, -265.2580142072402, -246.62583262799308, -234.86571721732616, 0.12800000607967377, 0.12800000607967377, 1.0240000486373901, 0.0, 0.0, 0.0, 0.0, 0.0, 1.651836865887788E9, 0.0, 2022-05-06 12:34:25.887
29.0, -265.0616694595665, -151.44911865564063, -190.23562109610066, -183.4570524264127, 0.12800000607967377, 0.12800000607967377, 1.0240000486373901, 0.0, 0.0, 0.0, 0.0, 0.0, 1.6518368659027708E9, 0.0, 2022-05-06 12:34:25.902
29.0, -204.74082307424396, -52.697060325648636, -110.57949193986133, -130.56738725304604, 0.12800000607967377, 0.12800000607967377, 1.0240000486373901, 0.0, 0.0, 0.0, 0.0, 0.0, 1.6518368659027708E9, 0.0, 2022-05-06 12:34:25.902
30.0, -239.1479026665911, -155.29373581008986, -169.05656764702871, -181.0448169549927, 0.12800000607967377, 0.12800000607967377, 1.0240000486373901, 0.0, 0.0, 0.0, 0.0, 0.0, 1.6518368659037447E9, 0.0, 2022-05-06 12:34:25.903
30.0, -309.9292492279783, -260.448502864223, -253.27163484925404, -237.8538972819224, 0.12800000607967377, 0.12800000607967377, 1.0240000486373901, 0.0, 0.0, 0.0, 0.0, 0.0, 1.6518368659037447E9, 0.0, 2022-05-06 12:34:25.903
31.0, -269.1344205113128, -149.82226217491552, -192.76005356619135, -186.54994968976825, 0.12800000607967377, 0.12800000607967377, 1.0240000486373901, 0.0, 0.0, 0.0, 0.0, 0.0, 1.651836865917764E9, 0.0, 2022-05-06 12:34:25.917
31.0, -199.40024593751878, -48.38121577678248, -113.369457306806, -141.12512482795864, 0.12800000607967377, 0.12800000607967377, 1.0240000486373901, 0.0, 0.0, 0.0, 0.0, 0.0, 1.651836865917764E9, 0.0, 2022-05-06 12:34:25.917
32.0, -234.3346514236182, -149.47819137899205, -161.41969193750992, -166.25351263023913, 0.12800000607967377, 0.12800000607967377, 1.0240000486373901, 0.0, 0.0, 0.0, 0.0, 0.0, 1.6518368659497638E9, 0.0, 2022-05-06 12:34:25.949
32.0, -315.3820233633742, -263.4105036291294, -253.71668294398114, -231.83639825321734, 0.12800000607967377, 0.12800000607967377, 1.0240000486373901, 0.0, 0.0, 0.0, 0.0, 0.0, 1.6518368659497638E9, 0.0, 2022-05-06 12:34:25.949
33.0, -281.30779486708343, -161.30001513892785, -207.29704469395801, -209.15390502195805, 0.12800000607967377, 0.12800000607967377, 1.0240000486373901, 0.0, 0.0, 0.0, 0.0, 0.0, 1.6518368659507444E9, 0.0, 2022-05-06 12:34:25.950
33.0, -211.05377419944853, -57.125101873185486, -121.1895881141536, -152.73003439046443, 0.12800000607967377, 0.12800000607967377, 1.0240000486373901, 0.0, 0.0, 0.0, 0.0, 0.0, 1.6518368659507444E9, 0.0, 2022-05-06 12:34:25.950
34.0, -244.02099230885506, -158.45769117260352, -169.9840628360398, -181.6469408478588, 0.12800000607967377, 0.12800000607967377, 1.0240000486373901, 0.0, 0.0, 0.0, 0.0, 0.0, 1.6518368659517143E9, 0.0, 2022-05-06 12:34:25.951
34.0, -304.8579448880628, -258.52619428699836, -247.49348941771314, -223.54130015149713, 0.12800000607967377, 0.12800000607967377, 1.0240000486373901, 0.0, 0.0, 0.0, 0.0, 0.0, 1.6518368659517143E9, 0.0, 2022-05-06 12:34:25.951
35.0, -262.3128429921344, -147.57832220150158, -178.92616363009438, -177.47321249730885, 0.12800000607967377, 0.12800000607967377, 1.0240000486373901, 0.0, 0.0, 0.0, 0.0, 0.0, 1.651836865952722E9, 0.0, 2022-05-06 12:34:25.952
35.0, -191.62125402968377, -38.216167697217315, -106.8096727845259, -106.96113873273134, 0.12800000607967377, 0.12800000607967377, 1.0240000486373901, 0.0, 0.0, 0.0, 0.0, 0.0, 1.651836865952722E9, 0.0, 2022-05-06 12:34:25.952
36.0, -257.3051169514656, -160.03218905394897, -178.78778733173385, -198.17729865200818, 0.12800000607967377, 0.12800000607967377, 1.0240000486373901, 0.0, 0.0, 0.0, 0.0, 0.0, 1.65183686596278E9, 0.0, 2022-05-06 12:34:25.962
36.0, -316.4030160512775, -265.8414386003278, -258.2980603897013, -251.64664831850678, 0.12800000607967377, 0.12800000607967377, 1.0240000486373901, 0.0, 0.0, 0.0, 0.0, 0.0, 1.65183686596278E9, 0.0, 2022-05-06 12:34:25.962
37.0, -277.85586720798165, -162.30978812696412, -207.13248909590766, -204.3892724784091, 0.12800000607967377, 0.12800000607967377, 1.0240000486373901, 0.0, 0.0, 0.0, 0.0, 0.0, 1.6518368659778242E9, 0.0, 2022-05-06 12:34:25.977
37.0, -205.23074996843934, -52.364209229592234, -120.17233532620594, -148.42914944142103, 0.12800000607967377, 0.12800000607967377, 1.0240000486373901, 0.0, 0.0, 0.0, 0.0, 0.0, 1.6518368659778242E9, 0.0, 2022-05-06 12:34:25.977
38.0, -242.01266603264958, -161.97319713095203, -163.88428600830957, -177.0880028018728, 0.12800000607967377, 0.12800000607967377, 1.0240000486373901, 0.0, 0.0, 0.0, 0.0, 0.0, 1.651836865992777E9, 0.0, 2022-05-06 12:34:25.992
38.0, -307.23652125988156, -260.75517466058955, -244.47913005342707, -221.7012693732977, 0.12800000607967377, 0.12800000607967377, 1.0240000486373901, 0.0, 0.0, 0.0, 0.0, 0.0, 1.651836865992777E9, 0.0, 2022-05-06 12:34:25.992
39.0, -264.874674461782, -151.10130795976147, -186.8472717362456, -180.3828546628356, 0.12800000607967377, 0.12800000607967377, 1.0240000486373901, 0.0, 0.0, 0.0, 0.0, 0.0, 1.6518368659937408E9, 0.0, 2022-05-06 12:34:25.993
39.0, -196.93565186671913, -44.58521732175723, -112.84213141305372, -132.33262003213167, 0.12800000607967377, 0.12800000607967377, 1.0240000486373901, 0.0, 0.0, 0.0, 0.0, 0.0, 1.6518368659937408E9, 0.0, 2022-05-06 12:34:25.993
40.0, -246.3808691808954, -161.52440913626924, -171.81287391437218, -181.39636755082756, 0.12800000607967377, 0.12800000607967377, 1.0240000486373901, 0.0, 0.0, 0.0, 0.0, 0.0, 1.6518368660077689E9, 0.0, 2022-05-06 12:34:26.007
40.0, -305.5984450792894, -263.3618849297054, -249.27742169657722, -233.9307422284037, 0.12800000607967377, 0.12800000607967377, 1.0240000486373901, 0.0, 0.0, 0.0, 0.0, 0.0, 1.6518368660077689E9, 0.0, 2022-05-06 12:34:26.007
41.0, -271.5840549822897, -160.1294264527969, -202.82786424690858, -195.44343178439885, 0.12800000607967377, 0.12800000607967377, 1.0240000486373901, 0.0, 0.0, 0.0, 0.0, 0.0, 1.651836866022814E9, 0.0, 2022-05-06 12:34:26.022
41.0, -201.81996120885015, -45.856783306691796, -118.28368584858254, -141.5888724224642, 0.12800000607967377, 0.12800000607967377, 1.0240000486373901, 0.0, 0.0, 0.0, 0.0, 0.0, 1.651836866022814E9, 0.0, 2022-05-06 12:34:26.022
42.0, -235.09759101457894, -155.11422061221674, -165.58968038810417, -170.51699857972562, 0.12800000607967377, 0.12800000607967377, 1.0240000486373901, 0.0, 0.0, 0.0, 0.0, 0.0, 1.6518368660237236E9, 0.0, 2022-05-06 12:34:26.023
42.0, -294.09077291563153, -253.15569795062765, -234.82644826779142, -206.1358057577163, 0.12800000607967377, 0.12800000607967377, 1.0240000486373901, 0.0, 0.0, 0.0, 0.0, 0.0, 1.6518368660237236E9, 0.0, 2022-05-06 12:34:26.023
43.0, -265.8732277499512, -150.45430526742712, -201.38800276396796, -203.4692570893094, 0.12800000607967377, 0.12800000607967377, 1.0240000486373901, 0.0, 0.0, 0.0, 0.0, 0.0, 1.6518368660378156E9, 0.0, 2022-05-06 12:34:26.037
43.0, -196.8683336675167, -41.18190836207941, -102.5835858345963, -130.89649844914675, 0.12800000607967377, 0.12800000607967377, 1.0240000486373901, 0.0, 0.0, 0.0, 0.0, 0.0, 1.6518368660378156E9, 0.0, 2022-05-06 12:34:26.037
44.0, -237.9249553810805, -153.50606363127008, -169.85316633759066, -181.51978424936533, 0.12800000607967377, 0.12800000607967377, 1.0240000486373901, 0.0, 0.0, 0.0, 0.0, 0.0, 1.6518368660528471E9, 0.0, 2022-05-06 12:34:26.052
44.0, -309.2635470358655, -262.96919543435797, -249.85336628975347, -228.3321119947359, 0.12800000607967377, 0.12800000607967377, 1.0240000486373901, 0.0, 0.0, 0.0, 0.0, 0.0, 1.6518368660528471E9, 0.0, 2022-05-06 12:34:26.052
45.0, -278.285955702886, -157.1262867883779, -200.20619437796995, -198.77568264491856, 0.12800000607967377, 0.12800000607967377, 1.0240000486373901, 0.0, 0.0, 0.0, 0.0, 0.0, 1.651836866053764E9, 0.0, 2022-05-06 12:34:26.053
45.0, -214.52814125828445, -52.47640622826293, -120.45656772283837, -155.68455535545945, 0.12800000607967377, 0.12800000607967377, 1.0240000486373901, 0.0, 0.0, 0.0, 0.0, 0.0, 1.651836866053764E9, 0.0, 2022-05-06 12:34:26.053
46.0, -244.94100769795477, -164.29193510347977, -170.75074232695624, -180.4950516615063, 0.12800000607967377, 0.12800000607967377, 1.0240000486373901, 0.0, 0.0, 0.0, 0.0, 0.0, 1.6518368660677607E9, 0.0, 2022-05-06 12:34:26.067
46.0, -293.9561365172267, -258.1858633910306, -236.23265065113083, -202.51184270065278, 0.12800000607967377, 0.12800000607967377, 1.0240000486373901, 0.0, 0.0, 0.0, 0.0, 0.0, 1.6518368660677607E9, 0.0, 2022-05-06 12:34:26.067
47.0, -240.7822389472276, -135.85373584041372, -176.12123866332695, -167.75321251247078, 0.12800000607967377, 0.12800000607967377, 1.0240000486373901, 0.0, 0.0, 0.0, 0.0, 0.0, 1.6518368660828056E9, 0.0, 2022-05-06 12:34:26.082
47.0, -221.86208507139236, -57.70478636631742, -134.79534415295348, -175.5995226195082, 0.12800000607967377, 0.12800000607967377, 1.0240000486373901, 0.0, 0.0, 0.0, 0.0, 0.0, 1.6518368660828056E9, 0.0, 2022-05-06 12:34:26.082
48.0, -250.53963793162256, -159.06355496542528, -169.22112324507907, -183.31867612805218, 0.12800000607967377, 0.12800000607967377, 1.0240000486373901, 0.0, 0.0, 0.0, 0.0, 0.0, 1.6518368660837286E9, 0.0, 2022-05-06 12:34:26.083
48.0, -302.1016386207193, -259.04978028079495, -240.08100770553574, -222.6960827615112, 0.12800000607967377, 0.12800000607967377, 1.0240000486373901, 0.0, 0.0, 0.0, 0.0, 0.0, 1.6518368660837286E9, 0.0, 2022-05-06 12:34:26.083
49.0, -262.80276988632977, -144.9716119323857, -190.2580604958348, -192.78062301594764, 0.12800000607967377, 0.12800000607967377, 1.0240000486373901, 0.0, 0.0, 0.0, 0.0, 0.0, 1.6518368660977807E9, 0.0, 2022-05-06 12:34:26.097
49.0, -204.9539973717183, -49.19277406716719, -115.43388208234683, -141.289680426009, 0.12800000607967377, 0.12800000607967377, 1.0240000486373901, 0.0, 0.0, 0.0, 0.0, 0.0, 1.6518368660977807E9, 0.0, 2022-05-06 12:34:26.097
50.0, -243.88261601049453, -162.29482852714136, -173.45468999492005, -185.35318170394748, 0.12800000607967377, 0.12800000607967377, 1.0240000486373901, 0.0, 0.0, 0.0, 0.0, 0.0, 1.651836866129784E9, 0.0, 2022-05-06 12:34:26.129
50.0, -299.1882565552369, -257.93529009399936, -249.81970719015226, -227.04184651002288, 0.12800000607967377, 0.12800000607967377, 1.0240000486373901, 0.0, 0.0, 0.0, 0.0, 0.0, 1.651836866129784E9, 0.0, 2022-05-06 12:34:26.129
51.0, -266.4603920429945, -148.54695629002526, -196.17458222573623, -199.00755644217134, 0.12800000607967377, 0.12800000607967377, 1.0240000486373901, 0.0, 0.0, 0.0, 0.0, 0.0, 1.6518368661307077E9, 0.0, 2022-05-06 12:34:26.130
51.0, -201.93589810747653, -46.5972834979184, -105.01452080579475, -140.56787973456085, 0.12800000607967377, 0.12800000607967377, 1.0240000486373901, 0.0, 0.0, 0.0, 0.0, 0.0, 1.6518368661307077E9, 0.0, 2022-05-06 12:34:26.130
52.0, -247.72349326498806, -166.4274179781787, -166.49099627742544, -170.8573294756934, 0.12800000607967377, 0.12800000607967377, 1.0240000486373901, 0.0, 0.0, 0.0, 0.0, 0.0, 1.651836866131735E9, 0.0, 2022-05-06 12:34:26.131
52.0, -305.82283907663077, -259.97727546980605, -247.12697922205552, -208.8434933256358, 0.12800000607967377, 0.12800000607967377, 1.0240000486373901, 0.0, 0.0, 0.0, 0.0, 0.0, 1.651836866131735E9, 0.0, 2022-05-06 12:34:26.131
53.0, -252.6040627071634, -134.6345284548588, -184.16202356806025, -185.62619440071285, 0.12800000607967377, 0.12800000607967377, 1.0240000486373901, 0.0, 0.0, 0.0, 0.0, 0.0, 1.651836866132741E9, 0.0, 2022-05-06 12:34:26.132
53.0, -192.80680231563747, -36.75012691458687, -104.27028071461245, -141.6561906216666, 0.12800000607967377, 0.12800000607967377, 1.0240000486373901, 0.0, 0.0, 0.0, 0.0, 0.0, 1.651836866132741E9, 0.0, 2022-05-06 12:34:26.132
54.0, -235.24718701280653, -152.50751034310088, -174.11291238712147, -192.7245245166123, 0.12800000607967377, 0.12800000607967377, 1.0240000486373901, 0.0, 0.0, 0.0, 0.0, 0.0, 1.6518368661427624E9, 0.0, 2022-05-06 12:34:26.142
54.0, -303.5153208039701, -258.518714487087, -249.41579799493775, -228.64626359101385, 0.12800000607967377, 0.12800000607967377, 1.0240000486373901, 0.0, 0.0, 0.0, 0.0, 0.0, 1.6518368661427624E9, 0.0, 2022-05-06 12:34:26.142
55.0, -279.0675947936252, -159.36648686183617, -205.87962261075154, -203.70113088656217, 0.12800000607967377, 0.12800000607967377, 1.0240000486373901, 0.0, 0.0, 0.0, 0.0, 0.0, 1.6518368661577754E9, 0.0, 2022-05-06 12:34:26.157
55.0, -199.01129634212703, -47.3751826887019, -107.38561737770215, -129.81566736195236, 0.12800000607967377, 0.12800000607967377, 1.0240000486373901, 0.0, 0.0, 0.0, 0.0, 0.0, 1.6518368661577754E9, 0.0, 2022-05-06 12:34:26.157
56.0, -243.4861866151914, -166.3974987785332, -170.11121943453327, -177.55549029633403, 0.12800000607967377, 0.12800000607967377, 1.0240000486373901, 0.0, 0.0, 0.0, 0.0, 0.0, 1.65183686617276E9, 0.0, 2022-05-06 12:34:26.172
56.0, -285.66851821541786, -254.92467062966898, -236.8385144439526, -219.90237749461085, 0.12800000607967377, 0.12800000607967377, 1.0240000486373901, 0.0, 0.0, 0.0, 0.0, 0.0, 1.65183686617276E9, 0.0, 2022-05-06 12:34:26.172
57.0, -260.70468601118773, -145.70463232370093, -186.76125403726473, -186.06376269552857, 0.12800000607967377, 0.12800000607967377, 1.0240000486373901, 0.0, 0.0, 0.0, 0.0, 0.0, 1.6518368661737294E9, 0.0, 2022-05-06 12:34:26.173
57.0, -217.9164906181395, -55.43840699316934, -125.28477856563404, -160.17617520224303, 0.12800000607967377, 0.12800000607967377, 1.0240000486373901, 0.0, 0.0, 0.0, 0.0, 0.0, 1.6518368661737294E9, 0.0, 2022-05-06 12:34:26.173
58.0, -248.39293535705656, -162.11531332926825, -172.4000382074155, -190.82465533912182, 0.12800000607967377, 0.12800000607967377, 1.0240000486373901, 0.0, 0.0, 0.0, 0.0, 0.0, 1.651836866187792E9, 0.0, 2022-05-06 12:34:26.187
58.0, -306.6979756662622, -260.291427066084, -244.78580184979364, -234.09903772640973, 0.12800000607967377, 0.12800000607967377, 1.0240000486373901, 0.0, 0.0, 0.0, 0.0, 0.0, 1.651836866187792E9, 0.0, 2022-05-06 12:34:26.187
59.0, -271.07542858831584, -145.95894552068785, -187.5915118274279, -191.5763752302155, 0.12800000607967377, 0.12800000607967377, 1.0240000486373901, 0.0, 0.0, 0.0, 0.0, 0.0, 1.6518368662028184E9, 0.0, 2022-05-06 12:34:26.202
59.0, -208.77617512643337, -50.8944285470061, -113.9641013997607, -144.3676180895418, 0.12800000607967377, 0.12800000607967377, 1.0240000486373901, 0.0, 0.0, 0.0, 0.0, 0.0, 1.6518368662028184E9, 0.0, 2022-05-06 12:34:26.202
60.0, -237.26673298887908, -151.52765655471012, -163.62249301141128, -173.54257764387876, 0.12800000607967377, 0.12800000607967377, 1.0240000486373901, 0.0, 0.0, 0.0, 0.0, 0.0, 1.651836866203718E9, 0.0, 2022-05-06 12:34:26.203
60.0, -304.78688678890467, -258.59725238615647, -247.7702420144342, -224.36033824179322, 0.12800000607967377, 0.12800000607967377, 1.0240000486373901, 0.0, 0.0, 0.0, 0.0, 0.0, 1.651836866203718E9, 0.0, 2022-05-06 12:34:26.203
61.0, -253.20244670007378, -138.33702941099182, -179.27397432597354, -180.74562495853752, 0.12800000607967377, 0.12800000607967377, 1.0240000486373901, 0.0, 0.0, 0.0, 0.0, 0.0, 1.6518368662338293E9, 0.0, 2022-05-06 12:34:26.233
61.0, -192.3131355214864, -41.051011863630265, -104.6966293095611, -123.8355673328042, 0.12800000607967377, 0.12800000607967377, 1.0240000486373901, 0.0, 0.0, 0.0, 0.0, 0.0, 1.6518368662338293E9, 0.0, 2022-05-06 12:34:26.233
62.0, -245.24393959436566, -162.79223522124812, -177.51996124675497, -188.82006896287203, 0.12800000607967377, 0.12800000607967377, 1.0240000486373901, 0.0, 0.0, 0.0, 0.0, 0.0, 1.6518368662347193E9, 0.0, 2022-05-06 12:34:26.234
62.0, -296.53666748665273, -253.85879914229736, -242.34738707868382, -225.16815663222224, 0.12800000607967377, 0.12800000607967377, 1.0240000486373901, 0.0, 0.0, 0.0, 0.0, 0.0, 1.6518368662347193E9, 0.0, 2022-05-06 12:34:26.234
63.0, -250.76029202900827, -144.0141975437291, -179.79382041981444, -151.42854920588434, 0.12800000607967377, 0.12800000607967377, 1.0240000486373901, 0.0, 0.0, 0.0, 0.0, 0.0, 1.6518368662357185E9, 0.0, 2022-05-06 12:34:26.235
63.0, -216.94037672970444, -55.65906109055504, -130.28128490643576, -178.07533639017493, 0.12800000607967377, 0.12800000607967377, 1.0240000486373901, 0.0, 0.0, 0.0, 0.0, 0.0, 1.6518368662357185E9, 0.0, 2022-05-06 12:34:26.235
64.0, -238.9983066683635, -166.2441628803499, -173.47712939465418, -195.55188888311386, 0.12800000607967377, 0.12800000607967377, 1.0240000486373901, 0.0, 0.0, 0.0, 0.0, 0.0, 1.6518368662477891E9, 0.0, 2022-05-06 12:34:26.247
64.0, -302.97677521035075, -263.5152208278887, -248.30878760805354, -232.10193115007132, 0.12800000607967377, 0.12800000607967377, 1.0240000486373901, 0.0, 0.0, 0.0, 0.0, 0.0, 1.6518368662477891E9, 0.0, 2022-05-06 12:34:26.247
65.0, -265.4954978544265, -150.30470926919952, -189.27820670744404, -183.66648682393134, 0.12800000607967377, 0.12800000607967377, 1.0240000486373901, 0.0, 0.0, 0.0, 0.0, 0.0, 1.651836866263814E9, 0.0, 2022-05-06 12:34:26.263
65.0, -213.8399996664375, -48.250319278333336, -120.21721412567422, -147.13140415679663, 0.12800000607967377, 0.12800000607967377, 1.0240000486373901, 0.0, 0.0, 0.0, 0.0, 0.0, 1.651836866263814E9, 0.0, 2022-05-06 12:34:26.263
66.0, -249.2306729471311, -168.82843374973163, -175.70984966820106, -191.67735252901912, 0.12800000607967377, 0.12800000607967377, 1.0240000486373901, 0.0, 0.0, 0.0, 0.0, 0.0, 1.651836866277766E9, 0.0, 2022-05-06 12:34:26.277
66.0, -307.5880718557164, -262.38577104127035, -248.68277760362253, -231.30159255955368, 0.12800000607967377, 0.12800000607967377, 1.0240000486373901, 0.0, 0.0, 0.0, 0.0, 0.0, 1.651836866277766E9, 0.0, 2022-05-06 12:34:26.277
67.0, -275.81014193221927, -156.58026139484718, -202.32297775289044, -198.9103190433234, 0.12800000607967377, 0.12800000607967377, 1.0240000486373901, 0.0, 0.0, 0.0, 0.0, 0.0, 1.651836866278804E9, 0.0, 2022-05-06 12:34:26.278
67.0, -204.4715502774343, -48.91602147044614, -114.17727569723502, -142.48644841182977, 0.12800000607967377, 0.12800000607967377, 1.0240000486373901, 0.0, 0.0, 0.0, 0.0, 0.0, 1.651836866278804E9, 0.0, 2022-05-06 12:34:26.278
68.0, -238.111950378865, -158.26695627486333, -168.88827214902267, -174.0437242379412, 0.12800000607967377, 0.12800000607967377, 1.0240000486373901, 0.0, 0.0, 0.0, 0.0, 0.0, 1.6518368662927642E9, 0.0, 2022-05-06 12:34:26.292
68.0, -297.31456667743623, -249.19514389755204, -234.24676377465948, -211.56614049337804, 0.12800000607967377, 0.12800000607967377, 1.0240000486373901, 0.0, 0.0, 0.0, 0.0, 0.0, 1.6518368662927642E9, 0.0, 2022-05-06 12:34:26.292
69.0, -252.75739860534668, -139.58615599619225, -176.40547105995938, -165.36715634074062, 0.12800000607967377, 0.12800000607967377, 1.0240000486373901, 0.0, 0.0, 0.0, 0.0, 0.0, 1.6518368662937157E9, 0.0, 2022-05-06 12:34:26.293
69.0, -189.78122325148433, -37.52428620541468, -104.06458621704951, -134.53542110603303, 0.12800000607967377, 0.12800000607967377, 1.0240000486373901, 0.0, 0.0, 0.0, 0.0, 0.0, 1.6518368662937157E9, 0.0, 2022-05-06 12:34:26.293
70.0, -244.79141169972718, -161.41969193750992, -178.2529816380702, -197.77712935674936, 0.12800000607967377, 0.12800000607967377, 1.0240000486373901, 0.0, 0.0, 0.0, 0.0, 0.0, 1.6518368663078256E9, 0.0, 2022-05-06 12:34:26.307
70.0, -305.4787682807073, -259.37515157693997, -253.2828545491211, -241.87802963424474, 0.12800000607967377, 0.12800000607967377, 1.0240000486373901, 0.0, 0.0, 0.0, 0.0, 0.0, 1.6518368663078256E9, 0.0, 2022-05-06 12:34:26.307
71.0, -279.3854862898588, -157.88548647938296, -206.62012280197814, -208.503162429668, 0.12800000607967377, 0.12800000607967377, 1.0240000486373901, 0.0, 0.0, 0.0, 0.0, 0.0, 1.6518368663227675E9, 0.0, 2022-05-06 12:34:26.322
71.0, -213.0284413760528, -60.760284630116075, -121.49999981047586, -156.32033834792674, 0.12800000607967377, 0.12800000607967377, 1.0240000486373901, 0.0, 0.0, 0.0, 0.0, 0.0, 1.6518368663227675E9, 0.0, 2022-05-06 12:34:26.322
72.0, -259.70239282306284, -191.20799508458003, -193.94560185214505, -205.49628286529332, 0.12800000607967377, 0.12800000607967377, 1.0240000486373901, 0.0, 0.0, 0.0, 0.0, 0.0, 1.6518368663237145E9, 0.0, 2022-05-06 12:34:26.323
72.0, -321.83335078693926, -286.3323504575528, -273.4409153102897, -250.58825663104653, 0.12800000607967377, 0.12800000607967377, 1.0240000486373901, 0.0, 0.0, 0.0, 0.0, 0.0, 1.6518368663237145E9, 0.0, 2022-05-06 12:34:26.323
73.0, -268.6744128167629, -157.32824138598517, -204.9259481220506, -195.46961108408868, 0.12800000607967377, 0.12800000607967377, 1.0240000486373901, 0.0, 0.0, 0.0, 0.0, 0.0, 1.6518368663377798E9, 0.0, 2022-05-06 12:34:26.337
73.0, -196.45694467239082, -42.221600549761206, -105.99811449414119, -132.81132722645998, 0.12800000607967377, 0.12800000607967377, 1.0240000486373901, 0.0, 0.0, 0.0, 0.0, 0.0, 1.6518368663377798E9, 0.0, 2022-05-06 12:34:26.337
74.0, -202.80729479715228, -132.21481318352744, -118.69507484370843, -103.47181207407266, 0.12800000607967377, 0.12800000607967377, 1.0240000486373901, 0.0, 0.0, 0.0, 0.0, 0.0, 1.6518368663527603E9, 0.0, 2022-05-06 12:34:26.352
74.0, -269.02970331255347, -232.44787189597264, -227.89267374994233, -189.59422825369984, 0.12800000607967377, 0.12800000607967377, 1.0240000486373901, 0.0, 0.0, 0.0, 0.0, 0.0, 1.6518368663527603E9, 0.0, 2022-05-06 12:34:26.352
75.0, -257.3911346504465, -133.85288936411962, -198.2651863009669, -218.66821050923318, 0.12800000607967377, 0.12800000607967377, 1.0240000486373901, 0.0, 0.0, 0.0, 0.0, 0.0, 1.651836866353724E9, 0.0, 2022-05-06 12:34:26.353
75.0, -208.1740512335673, -44.10277022747323, -107.61001137504354, -149.71193512622267, 0.12800000607967377, 0.12800000607967377, 1.0240000486373901, 0.0, 0.0, 0.0, 0.0, 0.0, 1.651836866353724E9, 0.0, 2022-05-06 12:34:26.353
76.0, -251.17168102413416, -166.45733717782423, -178.03980734059587, -191.83816822711378, 0.12800000607967377, 0.12800000607967377, 1.0240000486373901, 0.0, 0.0, 0.0, 0.0, 0.0, 1.6518368663677647E9, 0.0, 2022-05-06 12:34:26.367
76.0, -325.3787759449333, -278.83011114643887, -264.6671100142412, -250.13198883645236, 0.12800000607967377, 0.12800000607967377, 1.0240000486373901, 0.0, 0.0, 0.0, 0.0, 0.0, 1.6518368663677647E9, 0.0, 2022-05-06 12:34:26.367
77.0, -283.9593839356676, -165.0623544943519, -210.19920705957338, -206.7678488502279, 0.12800000607967377, 0.12800000607967377, 1.0240000486373901, 0.0, 0.0, 0.0, 0.0, 0.0, 1.6518368663827684E9, 0.0, 2022-05-06 12:34:26.382
77.0, -204.80814127344638, -52.61852242657915, -110.57949193986133, -150.61325101554394, 0.12800000607967377, 0.12800000607967377, 1.0240000486373901, 0.0, 0.0, 0.0, 0.0, 0.0, 1.6518368663827684E9, 0.0, 2022-05-06 12:34:26.382
78.0, -232.0346129508689, -150.10649457154796, -163.10638681752607, -173.68095394223928, 0.12800000607967377, 0.12800000607967377, 1.0240000486373901, 0.0, 0.0, 0.0, 0.0, 0.0, 1.651836866383778E9, 0.0, 2022-05-06 12:34:26.383
78.0, -305.31047278270125, -264.6970292138867, -251.51388187007979, -231.00614046305418, 0.12800000607967377, 0.12800000607967377, 1.0240000486373901, 0.0, 0.0, 0.0, 0.0, 0.0, 1.651836866383778E9, 0.0, 2022-05-06 12:34:26.383
79.0, -266.00412424840033, -145.4241398270242, -190.04862609831616, -190.93685233779252, 0.12800000607967377, 0.12800000607967377, 1.0240000486373901, 0.0, 0.0, 0.0, 0.0, 0.0, 1.6518368663978128E9, 0.0, 2022-05-06 12:34:26.397
79.0, -196.41954567283392, -40.276852572802454, -102.52748733526096, -125.56340111233294, 0.12800000607967377, 0.12800000607967377, 1.0240000486373901, 0.0, 0.0, 0.0, 0.0, 0.0, 1.6518368663978128E9, 0.0, 2022-05-06 12:34:26.397
80.0, -216.04280074033886, -135.65926104271784, -133.3741821697913, -131.15829144604504, 0.12800000607967377, 0.12800000607967377, 1.0240000486373901, 0.0, 0.0, 0.0, 0.0, 0.0, 1.6518368664127676E9, 0.0, 2022-05-06 12:34:26.412
80.0, -290.4443704588339, -245.3916656426154, -242.6129199755378, -219.92481689434499, 0.12800000607967377, 0.12800000607967377, 1.0240000486373901, 0.0, 0.0, 0.0, 0.0, 0.0, 1.6518368664127676E9, 0.0, 2022-05-06 12:34:26.412
81.0, -266.1200611470267, -150.48048456711695, -197.84257760597393, -203.26730249170214, 0.12800000607967377, 0.12800000607967377, 1.0240000486373901, 0.0, 0.0, 0.0, 0.0, 0.0, 1.6518368664137113E9, 0.0, 2022-05-06 12:34:26.413
81.0, -204.36683307867497, -57.85064246458933, -119.18126183794811, -147.20994205586612, 0.12800000607967377, 0.12800000607967377, 1.0240000486373901, 0.0, 0.0, 0.0, 0.0, 0.0, 1.6518368664137113E9, 0.0, 2022-05-06 12:34:26.413
82.0, -239.91084225755185, -163.74964960990474, -161.89465923188254, -172.25231215916574, 0.12800000607967377, 0.12800000607967377, 1.0240000486373901, 0.0, 0.0, 0.0, 0.0, 0.0, 1.651836866427771E9, 0.0, 2022-05-06 12:34:26.427
82.0, -297.8792915707454, -259.2105959788896, -244.7596225501038, -214.4720427589491, 0.12800000607967377, 0.12800000607967377, 1.0240000486373901, 0.0, 0.0, 0.0, 0.0, 0.0, 1.651836866427771E9, 0.0, 2022-05-06 12:34:26.427
83.0, -256.80023045744747, -140.7530047823675, -186.9594687349163, -178.8233163813129, 0.12800000607967377, 0.12800000607967377, 1.0240000486373901, 0.0, 0.0, 0.0, 0.0, 0.0, 1.65183686644277E9, 0.0, 2022-05-06 12:34:26.442
83.0, -200.54839522391558, -48.50837237527594, -114.35679089510813, -154.13997667375952, 0.12800000607967377, 0.12800000607967377, 1.0240000486373901, 0.0, 0.0, 0.0, 0.0, 0.0, 1.65183686644277E9, 0.0, 2022-05-06 12:34:26.442
84.0, -237.5547052854672, -157.85556727973744, -166.25538258021697, -179.40300087444484, 0.12800000607967377, 0.12800000607967377, 1.0240000486373901, 0.0, 0.0, 0.0, 0.0, 0.0, 1.6518368664437418E9, 0.0, 2022-05-06 12:34:26.443
84.0, -295.616652097553, -259.6668637734838, -243.86952636064962, -223.61235825065523, 0.12800000607967377, 0.12800000607967377, 1.0240000486373901, 0.0, 0.0, 0.0, 0.0, 0.0, 1.6518368664437418E9, 0.0, 2022-05-06 12:34:26.443
85.0, -249.36530934553593, -141.70293937111273, -187.86452452419326, -200.59327402338386, 0.12800000607967377, 0.12800000607967377, 1.0240000486373901, 0.0, 0.0, 0.0, 0.0, 0.0, 1.6518368664577928E9, 0.0, 2022-05-06 12:34:26.457
85.0, -200.23050372768193, -54.682947202119976, -118.08173125097528, -148.93029603548348, 0.12800000607967377, 0.12800000607967377, 1.0240000486373901, 0.0, 0.0, 0.0, 0.0, 0.0, 1.6518368664577928E9, 0.0, 2022-05-06 12:34:26.457
86.0, -253.4866790967062, -163.686071310658, -167.99443605961278, -179.63113477174193, 0.12800000607967377, 0.12800000607967377, 1.0240000486373901, 0.0, 0.0, 0.0, 0.0, 0.0, 1.6518368664727595E9, 0.0, 2022-05-06 12:34:26.472
86.0, -306.13325077295303, -259.9510961701162, -245.11491304589435, -221.74240827281028, 0.12800000607967377, 0.12800000607967377, 1.0240000486373901, 0.0, 0.0, 0.0, 0.0, 0.0, 1.6518368664727595E9, 0.0, 2022-05-06 12:34:26.472
87.0, -267.7469176277518, -146.9387993090786, -185.46724865259603, -180.95879925601184, 0.12800000607967377, 0.12800000607967377, 1.0240000486373901, 0.0, 0.0, 0.0, 0.0, 0.0, 1.651836866473702E9, 0.0, 2022-05-06 12:34:26.473
87.0, -199.71439753379673, -40.72190066752955, -103.74669472081587, -132.59441302902997, 0.12800000607967377, 0.12800000607967377, 1.0240000486373901, 0.0, 0.0, 0.0, 0.0, 0.0, 1.651836866473702E9, 0.0, 2022-05-06 12:34:26.473
88.0, -225.48978802841157, -149.82226217491552, -163.56639451207593, -170.17292778380215, 0.12800000607967377, 0.12800000607967377, 1.0240000486373901, 0.0, 0.0, 0.0, 0.0, 0.0, 1.6518368664878051E9, 0.0, 2022-05-06 12:34:26.487
88.0, -300.332665941678, -262.49422813998535, -257.553820298519, -234.46554792206734, 0.12800000607967377, 0.12800000607967377, 1.0240000486373901, 0.0, 0.0, 0.0, 0.0, 0.0, 1.6518368664878051E9, 0.0, 2022-05-06 12:34:26.487
89.0, -268.69685221649706, -143.47565195010975, -198.05949180340394, -197.14882616419345, 0.12800000607967377, 0.12800000607967377, 1.0240000486373901, 0.0, 0.0, 0.0, 0.0, 0.0, 1.651836866502761E9, 0.0, 2022-05-06 12:34:26.502
89.0, -196.99549026601017, -39.67098877998069, -99.03816067660227, -121.38219296187162, 0.12800000607967377, 0.12800000607967377, 1.0240000486373901, 0.0, 0.0, 0.0, 0.0, 0.0, 1.651836866502761E9, 0.0, 2022-05-06 12:34:26.502
90.0, -235.05645211506635, -155.66024600574747, -158.32305477419868, -152.78613288979977, 0.12800000607967377, 0.12800000607967377, 1.0240000486373901, 0.0, 0.0, 0.0, 0.0, 0.0, 1.6518368665037773E9, 0.0, 2022-05-06 12:34:26.503
90.0, -312.1769291013479, -261.05062675708905, -257.8829314946197, -242.98504002112895, 0.12800000607967377, 0.12800000607967377, 1.0240000486373901, 0.0, 0.0, 0.0, 0.0, 0.0, 1.6518368665037773E9, 0.0, 2022-05-06 12:34:26.503
91.0, -271.85706767905504, -155.0169832133688, -201.62361646117643, -207.7327430387959, 0.12800000607967377, 0.12800000607967377, 1.0240000486373901, 0.0, 0.0, 0.0, 0.0, 0.0, 1.6518368665177653E9, 0.0, 2022-05-06 12:34:26.517
91.0, -211.50256219413131, -62.405840610619634, -120.56876472150907, -156.9299420407042, 0.12800000607967377, 0.12800000607967377, 1.0240000486373901, 0.0, 0.0, 0.0, 0.0, 0.0, 1.6518368665177653E9, 0.0, 2022-05-06 12:34:26.517
92.0, -250.10206963680685, -173.6229854929261, -177.12353185145184, -182.39118093904108, 0.12800000607967377, 0.12800000607967377, 1.0240000486373901, 0.0, 0.0, 0.0, 0.0, 0.0, 1.6518368665327775E9, 0.0, 2022-05-06 12:34:26.532
92.0, -308.53800644446164, -258.23074219049886, -242.17909158067778, -211.88403198961169, 0.12800000607967377, 0.12800000607967377, 1.0240000486373901, 0.0, 0.0, 0.0, 0.0, 0.0, 1.6518368665327775E9, 0.0, 2022-05-06 12:34:26.532
93.0, -260.8243628097698, -138.0116581148468, -186.97816823469475, -185.69351259991527, 0.12800000607967377, 0.12800000607967377, 1.0240000486373901, 0.0, 0.0, 0.0, 0.0, 0.0, 1.6518368665337367E9, 0.0, 2022-05-06 12:34:26.533
93.0, -211.7344359913841, -53.8227702123113, -121.27186591317877, -153.89688317663968, 0.12800000607967377, 0.12800000607967377, 1.0240000486373901, 0.0, 0.0, 0.0, 0.0, 0.0, 1.6518368665337367E9, 0.0, 2022-05-06 12:34:26.533
94.0, -240.84207734651864, -161.647825834807, -166.84628677321598, -170.88350877538323, 0.12800000607967377, 0.12800000607967377, 1.0240000486373901, 0.0, 0.0, 0.0, 0.0, 0.0, 1.6518368665477686E9, 0.0, 2022-05-06 12:34:26.547
94.0, -307.86108455248177, -267.90960327582434, -258.2793608899228, -240.68500154837966, 0.12800000607967377, 0.12800000607967377, 1.0240000486373901, 0.0, 0.0, 0.0, 0.0, 0.0, 1.6518368665477686E9, 0.0, 2022-05-06 12:34:26.547
95.0, -271.9917040774599, -152.48881084332243, -193.75860685436055, -194.49349719565362, 0.12800000607967377, 0.12800000607967377, 1.0240000486373901, 0.0, 0.0, 0.0, 0.0, 0.0, 1.651836866562791E9, 0.0, 2022-05-06 12:34:26.562
95.0, -211.51752179395407, -56.25744508346543, -126.45536725176498, -161.30562498886138, 0.12800000607967377, 0.12800000607967377, 1.0240000486373901, 0.0, 0.0, 0.0, 0.0, 0.0, 1.651836866562791E9, 0.0, 2022-05-06 12:34:26.562
96.0, -238.41862217523158, -157.73963038111106, -158.0911809769459, -163.17557496670634, 0.12800000607967377, 0.12800000607967377, 1.0240000486373901, 0.0, 0.0, 0.0, 0.0, 0.0, 1.65183686656371E9, 0.0, 2022-05-06 12:34:26.563
96.0, -294.60313920956105, -250.19743708567694, -242.37356637837365, -205.26814896799624, 0.12800000607967377, 0.12800000607967377, 1.0240000486373901, 0.0, 0.0, 0.0, 0.0, 0.0, 1.65183686656371E9, 0.0, 2022-05-06 12:34:26.563
97.0, -271.206325086765, -151.11626755958423, -202.42769495164976, -211.01637519989163, 0.12800000607967377, 0.12800000607967377, 1.0240000486373901, 0.0, 0.0, 0.0, 0.0, 0.0, 1.651836866577772E9, 0.0, 2022-05-06 12:34:26.577
97.0, -227.84218510054052, -61.27639082400128, -128.23929953062907, -162.97362036909908, 0.12800000607967377, 0.12800000607967377, 1.0240000486373901, 0.0, 0.0, 0.0, 0.0, 0.0, 1.651836866577772E9, 0.0, 2022-05-06 12:34:26.577
98.0, -256.87502845656127, -175.82204666687176, -184.0311270696111, -193.95869150198996, 0.12800000607967377, 0.12800000607967377, 1.0240000486373901, 0.0, 0.0, 0.0, 0.0, 0.0, 1.651836866592797E9, 0.0, 2022-05-06 12:34:26.592
98.0, -326.3361903335899, -275.2136278892867, -266.4435624931939, -241.7845321353525, 0.12800000607967377, 0.12800000607967377, 1.0240000486373901, 0.0, 0.0, 0.0, 0.0, 0.0, 1.651836866592797E9, 0.0, 2022-05-06 12:34:26.592
99.0, -266.2434778455645, -145.2371448292397, -190.09724479774013, -185.08016900718212, 0.12800000607967377, 0.12800000607967377, 1.0240000486373901, 0.0, 0.0, 0.0, 0.0, 0.0, 1.6518368665937111E9, 0.0, 2022-05-06 12:34:26.593
99.0, -207.78510163817555, -49.02073866920546, -115.1870486852713, -142.1835165154189, 0.12800000607967377, 0.12800000607967377, 1.0240000486373901, 0.0, 0.0, 0.0, 0.0, 0.0, 1.6518368665937111E9, 0.0, 2022-05-06 12:34:26.593
100.0, -248.79684455227107, -172.7254095035605, -178.40631753625348, -187.45126557908952, 0.12800000607967377, 0.12800000607967377, 1.0240000486373901, 0.0, 0.0, 0.0, 0.0, 0.0, 1.6518368666078095E9, 0.0, 2022-05-06 12:34:26.607
100.0, -304.5624927915633, -255.22386262612417, -243.78350866166875, -223.43284305278212, 0.12800000607967377, 0.12800000607967377, 1.0240000486373901, 0.0, 0.0, 0.0, 0.0, 0.0, 1.6518368666078095E9, 0.0, 2022-05-06 12:34:26.607
0.0, -262.41569024091586, -134.06606366159394, -182.38183118915185, -179.02901087887585, 0.12800000607967377, 0.12800000607967377, 1.0240000486373901, 0.0, 0.0, 0.0, 0.0, 0.0, 1.6518368666087065E9, 0.0, 2022-05-06 12:34:26.608
1.0, -208.52747177938, -50.269865254405886, -113.81824530148879, -137.80035376735032, 0.12800000607967377, 0.12800000607967377, 1.0240000486373901, 0.0, 0.0, 0.0, 0.0, 0.0, 1.6518368666228013E9, 0.0, 2022-05-06 12:34:26.622
1.0, -246.70811042701825, -159.68063845811412, -162.9119120198302, -172.05783736146986, 0.12800000607967377, 0.12800000607967377, 1.0240000486373901, 0.0, 0.0, 0.0, 0.0, 0.0, 1.6518368666228013E9, 0.0, 2022-05-06 12:34:26.622
2.0, -295.2033931524493, -241.71908388612792, -220.10620204219595, -180.8989608567208, 0.12800000607967377, 0.12800000607967377, 1.0240000486373901, 0.0, 0.0, 0.0, 0.0, 0.0, 1.651836866637777E9, 0.0, 2022-05-06 12:34:26.637
2.0, -271.09973793802783, -144.13013444235548, -208.64340867800638, -213.4697495708242, 0.12800000607967377, 0.12800000607967377, 1.0240000486373901, 0.0, 0.0, 0.0, 0.0, 0.0, 1.651836866637777E9, 0.0, 2022-05-06 12:34:26.637
3.0, -207.454120492097, -55.142954896669835, -124.09549037972465, -161.51131948642433, 0.12800000607967377, 0.12800000607967377, 1.0240000486373901, 0.0, 0.0, 0.0, 0.0, 0.0, 1.651836866638727E9, 0.0, 2022-05-06 12:34:26.638
3.0, -251.07257367530838, -169.26600204454735, -179.42357032420114, -186.66962648835033, 0.12800000607967377, 0.12800000607967377, 1.0240000486373901, 0.0, 0.0, 0.0, 0.0, 0.0, 1.651836866638727E9, 0.0, 2022-05-06 12:34:26.638
4.0, -318.869480072055, -265.72550170170143, -253.15943785058334, -242.42031512781978, 0.12800000607967377, 0.12800000607967377, 1.0240000486373901, 0.0, 0.0, 0.0, 0.0, 0.0, 1.651836866652782E9, 0.0, 2022-05-06 12:34:26.652
4.0, -272.5882181203924, -148.128087494988, -193.58657145639881, -189.91585964988917, 0.12800000607967377, 0.12800000607967377, 1.0240000486373901, 0.0, 0.0, 0.0, 0.0, 0.0, 1.651836866652782E9, 0.0, 2022-05-06 12:34:26.652
5.0, -199.9331816812046, -48.20918037882075, -114.32687169546261, -149.9999074228108, 0.12800000607967377, 0.12800000607967377, 1.0240000486373901, 0.0, 0.0, 0.0, 0.0, 0.0, 1.6518368666677582E9, 0.0, 2022-05-06 12:34:26.667
5.0, -241.0272023943253, -168.08793355850503, -169.23982274485752, -181.72921864688396, 0.12800000607967377, 0.12800000607967377, 1.0240000486373901, 0.0, 0.0, 0.0, 0.0, 0.0, 1.6518368666677582E9, 0.0, 2022-05-06 12:34:26.667
6.0, -304.6129814409651, -254.48336243489757, -246.4724967298098, -220.56059988681227, 0.12800000607967377, 0.12800000607967377, 1.0240000486373901, 0.0, 0.0, 0.0, 0.0, 0.0, 1.651836866668727E9, 0.0, 2022-05-06 12:34:26.668
6.0, -278.57579794945195, -148.45345879113302, -193.7810462540947, -194.018529901281, 0.12800000607967377, 0.12800000607967377, 1.0240000486373901, 0.0, 0.0, 0.0, 0.0, 0.0, 1.651836866668727E9, 0.0, 2022-05-06 12:34:26.668
7.0, -212.42444753320888, -53.482439316343516, -121.69821450812742, -157.65174273215234, 0.12800000607967377, 0.12800000607967377, 1.0240000486373901, 0.0, 0.0, 0.0, 0.0, 0.0, 1.6518368666827672E9, 0.0, 2022-05-06 12:34:26.682
7.0, -250.08897998696193, -172.75906860316172, -176.22595586208627, -183.18403972964734, 0.12800000607967377, 0.12800000607967377, 1.0240000486373901, 0.0, 0.0, 0.0, 0.0, 0.0, 1.6518368666827672E9, 0.0, 2022-05-06 12:34:26.682
8.0, -298.6141819120385, -253.63066524500027, -241.68168488657102, -219.59196579828858, 0.12800000607967377, 0.12800000607967377, 1.0240000486373901, 0.0, 0.0, 0.0, 0.0, 0.0, 1.6518368666977837E9, 0.0, 2022-05-06 12:34:26.697
8.0, -262.5914655388333, -145.66723332414404, -187.12402433296666, -180.00512476731092, 0.12800000607967377, 0.12800000607967377, 1.0240000486373901, 0.0, 0.0, 0.0, 0.0, 0.0, 1.6518368666977837E9, 0.0, 2022-05-06 12:34:26.697
9.0, -220.62978803599253, -58.03763746237382, -118.87832994153723, -149.15842993278056, 0.12800000607967377, 0.12800000607967377, 1.0240000486373901, 0.0, 0.0, 0.0, 0.0, 0.0, 1.6518368666987228E9, 0.0, 2022-05-06 12:34:26.698
9.0, -253.76156174344942, -167.37735256692395, -170.82928022602573, -186.6060481891036, 0.12800000607967377, 0.12800000607967377, 1.0240000486373901, 0.0, 0.0, 0.0, 0.0, 0.0, 1.6518368666987228E9, 0.0, 2022-05-06 12:34:26.698
10.0, -304.9458325370215, -251.3979449714534, -246.96242362400517, -217.83795271907002, 0.12800000607967377, 0.12800000607967377, 1.0240000486373901, 0.0, 0.0, 0.0, 0.0, 0.0, 1.6518368667127678E9, 0.0, 2022-05-06 12:34:26.712
10.0, -272.02349322708324, -155.21893781097606, -204.06577113224193, -207.77762183826417, 0.12800000607967377, 0.12800000607967377, 1.0240000486373901, 0.0, 0.0, 0.0, 0.0, 0.0, 1.6518368667127678E9, 0.0, 2022-05-06 12:34:26.712
11.0, -215.79783729324117, -55.988172286655754, -111.52568662865087, -148.2197150439024, 0.12800000607967377, 0.12800000607967377, 1.0240000486373901, 0.0, 0.0, 0.0, 0.0, 0.0, 1.6518368667447677E9, 0.0, 2022-05-06 12:34:26.744
11.0, -240.3128815027885, -163.77956880955026, -154.62803361797705, -156.67562884371728, 0.12800000607967377, 0.12800000607967377, 1.0240000486373901, 0.0, 0.0, 0.0, 0.0, 0.0, 1.6518368667447677E9, 0.0, 2022-05-06 12:34:26.744
12.0, -311.77488985611126, -257.2808076017536, -254.8049938310869, -227.97308159898967, 0.12800000607967377, 0.12800000607967377, 1.0240000486373901, 0.0, 0.0, 0.0, 0.0, 0.0, 1.6518368667457652E9, 0.0, 2022-05-06 12:34:26.745
12.0, -268.2648937716149, -141.7552979704924, -193.68380885524675, -192.52256991900504, 0.12800000607967377, 0.12800000607967377, 1.0240000486373901, 0.0, 0.0, 0.0, 0.0, 0.0, 1.6518368667457652E9, 0.0, 2022-05-06 12:34:26.745
13.0, -213.1911270241253, -58.62106185546145, -125.90934185823426, -152.7749131899327, 0.12800000607967377, 0.12800000607967377, 1.0240000486373901, 0.0, 0.0, 0.0, 0.0, 0.0, 1.6518368667467175E9, 0.0, 2022-05-06 12:34:26.746
13.0, -255.55297382222489, -174.11665228707716, -183.85535177169368, -200.80644832085818, 0.12800000607967377, 0.12800000607967377, 1.0240000486373901, 0.0, 0.0, 0.0, 0.0, 0.0, 1.6518368667467175E9, 0.0, 2022-05-06 12:34:26.746
14.0, -315.649426210206, -267.75252747768536, -259.8052400718443, -240.2249938538298, 0.12800000607967377, 0.12800000607967377, 1.0240000486373901, 0.0, 0.0, 0.0, 0.0, 0.0, 1.6518368667477171E9, 0.0, 2022-05-06 12:34:26.747
14.0, -267.67772947857156, -141.3775680749677, -186.57799893943593, -191.67361262906343, 0.12800000607967377, 0.12800000607967377, 1.0240000486373901, 0.0, 0.0, 0.0, 0.0, 0.0, 1.6518368667477171E9, 0.0, 2022-05-06 12:34:26.747
15.0, -199.97806048067287, -47.6706347852014, -115.2955057839863, -142.1835165154189, 0.12800000607967377, 0.12800000607967377, 1.0240000486373901, 0.0, 0.0, 0.0, 0.0, 0.0, 1.651836866757763E9, 0.0, 2022-05-06 12:34:26.757
15.0, -249.96930318837985, -169.5801536408253, -174.0268946881406, -182.39492083899677, 0.12800000607967377, 0.12800000607967377, 1.0240000486373901, 0.0, 0.0, 0.0, 0.0, 0.0, 1.651836866757763E9, 0.0, 2022-05-06 12:34:26.757
16.0, -297.5744897243567, -250.64248518040404, -240.0922274054028, -219.93229669425637, 0.12800000607967377, 0.12800000607967377, 1.0240000486373901, 0.0, 0.0, 0.0, 0.0, 0.0, 1.6518368667727628E9, 0.0, 2022-05-06 12:34:26.772
16.0, -258.4326967881061, -127.43896094011143, -172.60573270497844, -173.07509014941752, 0.12800000607967377, 0.12800000607967377, 1.0240000486373901, 0.0, 0.0, 0.0, 0.0, 0.0, 1.6518368667727628E9, 0.0, 2022-05-06 12:34:26.772
17.0, -203.28787194145843, -33.11120425770059, -111.89219682430848, -134.51672160625458, 0.12800000607967377, 0.12800000607967377, 1.0240000486373901, 0.0, 0.0, 0.0, 0.0, 0.0, 1.6518368667877915E9, 0.0, 2022-05-06 12:34:26.787
17.0, -243.88822586042807, -167.41849146643654, -177.16467075096443, -195.6902651814744, 0.12800000607967377, 0.12800000607967377, 1.0240000486373901, 0.0, 0.0, 0.0, 0.0, 0.0, 1.6518368667877915E9, 0.0, 2022-05-06 12:34:26.787
18.0, -316.19545160373673, -271.6719426312484, -259.3601919771172, -243.31041131727397, 0.12800000607967377, 0.12800000607967377, 1.0240000486373901, 0.0, 0.0, 0.0, 0.0, 0.0, 1.6518368667887676E9, 0.0, 2022-05-06 12:34:26.788
18.0, -278.8862096457742, -157.01034988975152, -206.31345100561157, -200.95604431908578, 0.12800000607967377, 0.12800000607967377, 1.0240000486373901, 0.0, 0.0, 0.0, 0.0, 0.0, 1.6518368667887676E9, 0.0, 2022-05-06 12:34:26.788
19.0, -219.67237364733592, -61.3437090232037, -127.57359733851627, -148.05515944585204, 0.12800000607967377, 0.12800000607967377, 1.0240000486373901, 0.0, 0.0, 0.0, 0.0, 0.0, 1.651836866802784E9, 0.0, 2022-05-06 12:34:26.802
19.0, -243.26366256782785, -164.90153879625723, -174.44202358322218, -181.2018927531317, 0.12800000607967377, 0.12800000607967377, 1.0240000486373901, 0.0, 0.0, 0.0, 0.0, 0.0, 1.651836866802784E9, 0.0, 2022-05-06 12:34:26.802
20.0, -312.03668285300955, -254.96206962922588, -247.5832470166497, -229.74953407794237, 0.12800000607967377, 0.12800000607967377, 1.0240000486373901, 0.0, 0.0, 0.0, 0.0, 0.0, 1.65183686681777E9, 0.0, 2022-05-06 12:34:26.817
20.0, -276.09998417878523, -149.4258327796124, -199.38715628767386, -196.85337406769395, 0.12800000607967377, 0.12800000607967377, 1.0240000486373901, 0.0, 0.0, 0.0, 0.0, 0.0, 1.65183686681777E9, 0.0, 2022-05-06 12:34:26.817
21.0, -192.38232367066666, -44.79839161923155, -103.4362830244936, -129.1312656700611, 0.12800000607967377, 0.12800000607967377, 1.0240000486373901, 0.0, 0.0, 0.0, 0.0, 0.0, 1.6518368668188024E9, 0.0, 2022-05-06 12:34:26.818
21.0, -238.74212352139875, -164.22087700432166, -168.32728715566918, -166.05529793258756, 0.12800000607967377, 0.12800000607967377, 1.0240000486373901, 0.0, 0.0, 0.0, 0.0, 0.0, 1.6518368668188024E9, 0.0, 2022-05-06 12:34:26.818
22.0, -299.32476290361956, -248.11431281035766, -226.88290076190606, -187.3802074799314, 0.12800000607967377, 0.12800000607967377, 1.0240000486373901, 0.0, 0.0, 0.0, 0.0, 0.0, 1.6518368668328204E9, 0.0, 2022-05-06 12:34:26.832
22.0, -272.95472831605, -145.14738723030314, -202.7418465479277, -202.8035548971966, 0.12800000607967377, 0.12800000607967377, 1.0240000486373901, 0.0, 0.0, 0.0, 0.0, 0.0, 1.6518368668328204E9, 0.0, 2022-05-06 12:34:26.832
23.0, -207.17362799542025, -48.41861477633938, -120.60616372106597, -157.82751803006977, 0.12800000607967377, 0.12800000607967377, 1.0240000486373901, 0.0, 0.0, 0.0, 0.0, 0.0, 1.6518368668477788E9, 0.0, 2022-05-06 12:34:26.847
23.0, -253.46610964694992, -164.01518250675872, -176.86921865446493, -194.75155029259622, 0.12800000607967377, 0.12800000607967377, 1.0240000486373901, 0.0, 0.0, 0.0, 0.0, 0.0, 1.6518368668477788E9, 0.0, 2022-05-06 12:34:26.847
24.0, -313.1399533399381, -259.6930430731736, -250.09271988691762, -234.5889646206051, 0.12800000607967377, 0.12800000607967377, 1.0240000486373901, 0.0, 0.0, 0.0, 0.0, 0.0, 1.6518368668487685E9, 0.0, 2022-05-06 12:34:26.848
24.0, -273.23896071268246, -140.61836838396266, -190.56473229220137, -201.42353181354702, 0.12800000607967377, 0.12800000607967377, 1.0240000486373901, 0.0, 0.0, 0.0, 0.0, 0.0, 1.6518368668487685E9, 0.0, 2022-05-06 12:34:26.848
25.0, -206.5939435022883, -52.53250472759828, -116.84008446568623, -149.3267254307866, 0.12800000607967377, 0.12800000607967377, 1.0240000486373901, 0.0, 0.0, 0.0, 0.0, 0.0, 1.6518368668627665E9, 0.0, 2022-05-06 12:34:26.862
25.0, -247.85625971341506, -169.03786814725026, -166.71913017472252, -173.98388583865017, 0.12800000607967377, 0.12800000607967377, 1.0240000486373901, 0.0, 0.0, 0.0, 0.0, 0.0, 1.6518368668627665E9, 0.0, 2022-05-06 12:34:26.862
26.0, -313.18109223945066, -260.6953362612985, -256.0242012166418, -232.64047674369067, 0.12800000607967377, 0.12800000607967377, 1.0240000486373901, 0.0, 0.0, 0.0, 0.0, 0.0, 1.6518368668777864E9, 0.0, 2022-05-06 12:34:26.877
26.0, -262.94675603462383, -137.1215619253926, -182.61370498640463, -187.28297008108348, 0.12800000607967377, 0.12800000607967377, 1.0240000486373901, 0.0, 0.0, 0.0, 0.0, 0.0, 1.6518368668777864E9, 0.0, 2022-05-06 12:34:26.877
27.0, -206.0778373084031, -54.88490179972723, -120.01151962811127, -151.46594820544124, 0.12800000607967377, 0.12800000607967377, 1.0240000486373901, 0.0, 0.0, 0.0, 0.0, 0.0, 1.6518368668787253E9, 0.0, 2022-05-06 12:34:26.878
27.0, -245.27198884403333, -173.55192739376798, -174.5430008820258, -188.012250572443, 0.12800000607967377, 0.12800000607967377, 1.0240000486373901, 0.0, 0.0, 0.0, 0.0, 0.0, 1.6518368668787253E9, 0.0, 2022-05-06 12:34:26.878
28.0, -303.3526351558976, -264.6558903143741, -251.0276948758401, -232.83869144134223, 0.12800000607967377, 0.12800000607967377, 1.0240000486373901, 0.0, 0.0, 0.0, 0.0, 0.0, 1.6518368668927815E9, 0.0, 2022-05-06 12:34:26.892
28.0, -257.4304035999812, -137.68254691874608, -184.78284696070477, -174.14470153674483, 0.12800000607967377, 0.12800000607967377, 1.0240000486373901, 0.0, 0.0, 0.0, 0.0, 0.0, 1.6518368668927815E9, 0.0, 2022-05-06 12:34:26.892
29.0, -208.87154257530347, -46.12979600345716, -111.12551733339205, -135.92292398959398, 0.12800000607967377, 0.12800000607967377, 1.0240000486373901, 0.0, 0.0, 0.0, 0.0, 0.0, 1.6518368669077616E9, 0.0, 2022-05-06 12:34:26.907
29.0, -251.3605459718965, -167.04076157091185, -175.26854147342965, -185.46911860257387, 0.12800000607967377, 0.12800000607967377, 1.0240000486373901, 0.0, 0.0, 0.0, 0.0, 0.0, 1.6518368669077616E9, 0.0, 2022-05-06 12:34:26.907
30.0, -301.88659437326714, -254.30010733706877, -245.18971104500815, -233.35105773527175, 0.12800000607967377, 0.12800000607967377, 1.0240000486373901, 0.0, 0.0, 0.0, 0.0, 0.0, 1.6518368669087143E9, 0.0, 2022-05-06 12:34:26.908
30.0, -265.20191570790485, -136.9308270276524, -187.01556723425165, -198.02770265378058, 0.12800000607967377, 0.12800000607967377, 1.0240000486373901, 0.0, 0.0, 0.0, 0.0, 0.0, 1.6518368669087143E9, 0.0, 2022-05-06 12:34:26.908
31.0, -201.88540945807472, -51.967779834289104, -108.94889555918053, -136.59984588157386, 0.12800000607967377, 0.12800000607967377, 1.0240000486373901, 0.0, 0.0, 0.0, 0.0, 0.0, 1.6518368669227777E9, 0.0, 2022-05-06 12:34:26.922
31.0, -247.52714851731434, -171.3192071202211, -179.96585581777617, -189.57926865387708, 0.12800000607967377, 0.12800000607967377, 1.0240000486373901, 0.0, 0.0, 0.0, 0.0, 0.0, 1.6518368669227777E9, 0.0, 2022-05-06 12:34:26.922
32.0, -303.99215804832056, -251.55502076959237, -252.18332396214828, -238.40366257540882, 0.12800000607967377, 0.12800000607967377, 1.0240000486373901, 0.0, 0.0, 0.0, 0.0, 0.0, 1.651836866937821E9, 0.0, 2022-05-06 12:34:26.937
32.0, -269.1026313616894, -145.30072312848642, -189.04633291019127, -194.39625979680568, 0.12800000607967377, 0.12800000607967377, 1.0240000486373901, 0.0, 0.0, 0.0, 0.0, 0.0, 1.651836866937821E9, 0.0, 2022-05-06 12:34:26.937
33.0, -202.43143485160545, -58.66594065492973, -126.42918795207515, -154.04647917486727, 0.12800000607967377, 0.12800000607967377, 1.0240000486373901, 0.0, 0.0, 0.0, 0.0, 0.0, 1.6518368669387455E9, 0.0, 2022-05-06 12:34:26.938
33.0, -257.20226970268413, -183.1821697796695, -182.96525558223948, -195.81742177996784, 0.12800000607967377, 0.12800000607967377, 1.0240000486373901, 0.0, 0.0, 0.0, 0.0, 0.0, 1.6518368669387455E9, 0.0, 2022-05-06 12:34:26.938
34.0, -313.1736124395393, -257.74455519625917, -246.82778722560033, -226.50704081635922, 0.12800000607967377, 0.12800000607967377, 1.0240000486373901, 0.0, 0.0, 0.0, 0.0, 0.0, 1.6518368669527957E9, 0.0, 2022-05-06 12:34:26.952
34.0, -260.4073639647104, -139.78063079388812, -186.04693314572796, -184.6052017128095, 0.12800000607967377, 0.12800000607967377, 1.0240000486373901, 0.0, 0.0, 0.0, 0.0, 0.0, 1.6518368669527957E9, 0.0, 2022-05-06 12:34:26.952
35.0, -217.13672147737816, -56.362162282224745, -124.60037687374279, -160.4791070986539, 0.12800000607967377, 0.12800000607967377, 1.0240000486373901, 0.0, 0.0, 0.0, 0.0, 0.0, 1.651836866967759E9, 0.0, 2022-05-06 12:34:26.967
35.0, -248.3200073079206, -168.96681004809216, -174.63649838091806, -189.80740255117416, 0.12800000607967377, 0.12800000607967377, 1.0240000486373901, 0.0, 0.0, 0.0, 0.0, 0.0, 1.651836866967759E9, 0.0, 2022-05-06 12:34:26.967
36.0, -296.4151207380928, -253.30903384881094, -237.95300463074818, -219.95099619403481, 0.12800000607967377, 0.12800000607967377, 1.0240000486373901, 0.0, 0.0, 0.0, 0.0, 0.0, 1.6518368669687192E9, 0.0, 2022-05-06 12:34:26.968
36.0, -254.6927968324162, -129.84745651157573, -171.29676772048697, -167.27076541818678, 0.12800000607967377, 0.12800000607967377, 1.0240000486373901, 0.0, 0.0, 0.0, 0.0, 0.0, 1.6518368669687192E9, 0.0, 2022-05-06 12:34:26.968
37.0, -194.16625594953075, -43.60910343332216, -104.99956120597199, -119.9086723793298, 0.12800000607967377, 0.12800000607967377, 1.0240000486373901, 0.0, 0.0, 0.0, 0.0, 0.0, 1.6518368669828236E9, 0.0, 2022-05-06 12:34:26.982
37.0, -248.71269680326805, -169.53527484135702, -175.41065767174587, -188.89860686194152, 0.12800000607967377, 0.12800000607967377, 1.0240000486373901, 0.0, 0.0, 0.0, 0.0, 0.0, 1.6518368669828236E9, 0.0, 2022-05-06 12:34:26.982
38.0, -294.02906456636265, -247.47852981789038, -228.3078026450239, -215.7660481436178, 0.12800000607967377, 0.12800000607967377, 1.0240000486373901, 0.0, 0.0, 0.0, 0.0, 0.0, 1.65183686699776E9, 0.0, 2022-05-06 12:34:26.997
38.0, -258.08114619227126, -135.91357423970476, -190.4039165941067, -189.57926865387708, 0.12800000607967377, 0.12800000607967377, 1.0240000486373901, 0.0, 0.0, 0.0, 0.0, 0.0, 1.65183686699776E9, 0.0, 2022-05-06 12:34:26.997
39.0, -205.18026131903753, -44.274805625434965, -105.58298559905961, -133.9557366129011, 0.12800000607967377, 0.12800000607967377, 1.0240000486373901, 0.0, 0.0, 0.0, 0.0, 0.0, 1.651836866998704E9, 0.0, 2022-05-06 12:34:26.998
39.0, -235.75394345680252, -163.0241090185009, -171.01253532385454, -177.96687929145992, 0.12800000607967377, 0.12800000607967377, 1.0240000486373901, 0.0, 0.0, 0.0, 0.0, 0.0, 1.651836866998704E9, 0.0, 2022-05-06 12:34:26.998
40.0, -316.988310394343, -265.0747591094114, -255.2463020258583, -244.17432820703834, 0.12800000607967377, 0.12800000607967377, 1.0240000486373901, 0.0, 0.0, 0.0, 0.0, 0.0, 1.6518368670127726E9, 0.0, 2022-05-06 12:34:27.012
40.0, -256.4729892113246, -130.77495170058683, -169.18746414547786, -171.80352416448295, 0.12800000607967377, 0.12800000607967377, 1.0240000486373901, 0.0, 0.0, 0.0, 0.0, 0.0, 1.6518368670127726E9, 0.0, 2022-05-06 12:34:27.012
41.0, -203.80397813534364, -49.82481715967879, -122.44993439922109, -158.0706115271896, 0.12800000607967377, 0.12800000607967377, 1.0240000486373901, 0.0, 0.0, 0.0, 0.0, 0.0, 1.6518368670278127E9, 0.0, 2022-05-06 12:34:27.027
41.0, -252.38527855975553, -178.17070383904502, -185.98335484648123, -202.69509779848158, 0.12800000607967377, 0.12800000607967377, 1.0240000486373901, 0.0, 0.0, 0.0, 0.0, 0.0, 1.6518368670278127E9, 0.0, 2022-05-06 12:34:27.027
42.0, -307.7918964033015, -258.2195224906318, -252.30300076073036, -233.72878763079643, 0.12800000607967377, 0.12800000607967377, 1.0240000486373901, 0.0, 0.0, 0.0, 0.0, 0.0, 1.6518368670287228E9, 0.0, 2022-05-06 12:34:27.028
42.0, -271.57844513235614, -143.06052305502817, -192.13549027359113, -186.61352798901498, 0.12800000607967377, 0.12800000607967377, 1.0240000486373901, 0.0, 0.0, 0.0, 0.0, 0.0, 1.6518368670287228E9, 0.0, 2022-05-06 12:34:27.028
43.0, -197.80143870646134, -47.083470492158085, -106.73113488545641, -128.4655634779483, 0.12800000607967377, 0.12800000607967377, 1.0240000486373901, 0.0, 0.0, 0.0, 0.0, 0.0, 1.651836867042764E9, 0.0, 2022-05-06 12:34:27.042
43.0, -235.63052675826475, -165.04739489452913, -174.16901088645682, -177.2001998005435, 0.12800000607967377, 0.12800000607967377, 1.0240000486373901, 0.0, 0.0, 0.0, 0.0, 0.0, 1.651836867042764E9, 0.0, 2022-05-06 12:34:27.042
44.0, -310.22283137449995, -262.31471294211224, -259.5808460745029, -252.15153481252491, 0.12800000607967377, 0.12800000607967377, 1.0240000486373901, 0.0, 0.0, 0.0, 0.0, 0.0, 1.65183686705776E9, 0.0, 2022-05-06 12:34:27.057
44.0, -268.5117271686904, -140.3116965875961, -191.5894648800604, -194.5421158950776, 0.12800000607967377, 0.12800000607967377, 1.0240000486373901, 0.0, 0.0, 0.0, 0.0, 0.0, 1.65183686705776E9, 0.0, 2022-05-06 12:34:27.057
45.0, -202.19582115439698, -50.53165825130418, -119.46549423458055, -143.45508250035346, 0.12800000607967377, 0.12800000607967377, 1.0240000486373901, 0.0, 0.0, 0.0, 0.0, 0.0, 1.6518368670587695E9, 0.0, 2022-05-06 12:34:27.058
45.0, -238.93285841913894, -166.47603667760268, -169.14632524596527, -178.78217748180032, 0.12800000607967377, 0.12800000607967377, 1.0240000486373901, 0.0, 0.0, 0.0, 0.0, 0.0, 1.6518368670587695E9, 0.0, 2022-05-06 12:34:27.058
46.0, -306.22487832186744, -252.56853365758434, -246.19574413308874, -223.41788345295936, 0.12800000607967377, 0.12800000607967377, 1.0240000486373901, 0.0, 0.0, 0.0, 0.0, 0.0, 1.651836867072764E9, 0.0, 2022-05-06 12:34:27.072
46.0, -261.1740434556268, -134.8925815518014, -182.1836164915003, -168.87144259922206, 0.12800000607967377, 0.12800000607967377, 1.0240000486373901, 0.0, 0.0, 0.0, 0.0, 0.0, 1.651836867072764E9, 0.0, 2022-05-06 12:34:27.072
47.0, -191.16311628511176, -42.42729504732415, -100.79965355573222, -127.21643689274788, 0.12800000607967377, 0.12800000607967377, 1.0240000486373901, 0.0, 0.0, 0.0, 0.0, 0.0, 1.651836867087811E9, 0.0, 2022-05-06 12:34:27.087
47.0, -227.5336433541961, -163.67111171083525, -166.6555518754758, -170.72643297724426, 0.12800000607967377, 0.12800000607967377, 1.0240000486373901, 0.0, 0.0, 0.0, 0.0, 0.0, 1.651836867087811E9, 0.0, 2022-05-06 12:34:27.087
48.0, -297.2004997287877, -256.97413580538705, -249.2886413964443, -225.7702805250883, 0.12800000607967377, 0.12800000607967377, 1.0240000486373901, 0.0, 0.0, 0.0, 0.0, 0.0, 1.6518368670887797E9, 0.0, 2022-05-06 12:34:27.088
48.0, -250.4293108829297, -134.53355115605518, -190.0000073988922, -189.93081924971193, 0.12800000607967377, 0.12800000607967377, 1.0240000486373901, 0.0, 0.0, 0.0, 0.0, 0.0, 1.6518368670887797E9, 0.0, 2022-05-06 12:34:27.088
49.0, -204.21536713046953, -43.73626003181562, -98.07326648803428, -124.10858002956957, 0.12800000607967377, 0.12800000607967377, 1.0240000486373901, 0.0, 0.0, 0.0, 0.0, 0.0, 1.6518368671027503E9, 0.0, 2022-05-06 12:34:27.102
49.0, -238.10260062897578, -162.1003537294455, -159.32534796232358, -165.38959574047476, 0.12800000607967377, 0.12800000607967377, 1.0240000486373901, 0.0, 0.0, 0.0, 0.0, 0.0, 1.6518368671027503E9, 0.0, 2022-05-06 12:34:27.102
50.0, -301.5687028770335, -251.2446090732701, -245.96013043588027, -222.31835286598653, 0.12800000607967377, 0.12800000607967377, 1.0240000486373901, 0.0, 0.0, 0.0, 0.0, 0.0, 1.6518368671177824E9, 0.0, 2022-05-06 12:34:27.117
50.0, -255.71378952031955, -132.10635608481243, -185.22789505543187, -193.5024237073958, 0.12800000607967377, 0.12800000607967377, 1.0240000486373901, 0.0, 0.0, 0.0, 0.0, 0.0, 1.6518368671177824E9, 0.0, 2022-05-06 12:34:27.117
51.0, -211.57175034331158, -62.51055780937895, -119.86192362988368, -148.0327200461179, 0.12800000607967377, 0.12800000607967377, 1.0240000486373901, 0.0, 0.0, 0.0, 0.0, 0.0, 1.6518368671187887E9, 0.0, 2022-05-06 12:34:27.118
51.0, -239.44522471306846, -168.86957264924422, -171.12099242256954, -178.29225058760494, 0.12800000607967377, 0.12800000607967377, 1.0240000486373901, 0.0, 0.0, 0.0, 0.0, 0.0, 1.6518368671187887E9, 0.0, 2022-05-06 12:34:27.118
52.0, -302.0885489708744, -253.15195805067196, -248.761315502692, -225.3701112298295, 0.12800000607967377, 0.12800000607967377, 1.0240000486373901, 0.0, 0.0, 0.0, 0.0, 0.0, 1.6518368671487708E9, 0.0, 2022-05-06 12:34:27.148
52.0, -265.12711770879105, -143.36345495143905, -190.0000073988922, -197.77712935674936, 0.12800000607967377, 0.12800000607967377, 1.0240000486373901, 0.0, 0.0, 0.0, 0.0, 0.0, 1.6518368671487708E9, 0.0, 2022-05-06 12:34:27.148
53.0, -201.51515936246142, -50.1539283557795, -110.69542883848771, -145.96455537062138, 0.12800000607967377, 0.12800000607967377, 1.0240000486373901, 0.0, 0.0, 0.0, 0.0, 0.0, 1.6518368671497328E9, 0.0, 2022-05-06 12:34:27.149
53.0, -247.6505652158521, -169.2136434451677, -173.7277026916854, -187.99355107266456, 0.12800000607967377, 0.12800000607967377, 1.0240000486373901, 0.0, 0.0, 0.0, 0.0, 0.0, 1.6518368671497328E9, 0.0, 2022-05-06 12:34:27.149
54.0, -296.6320349355228, -251.60363946901634, -241.14313929295167, -213.97089616488665, 0.12800000607967377, 0.12800000607967377, 1.0240000486373901, 0.0, 0.0, 0.0, 0.0, 0.0, 1.6518368671507304E9, 0.0, 2022-05-06 12:34:27.150
54.0, -259.5210076752119, -141.09707557829097, -187.05296623380855, -179.24218517635018, 0.12800000607967377, 0.12800000607967377, 1.0240000486373901, 0.0, 0.0, 0.0, 0.0, 0.0, 1.6518368671507304E9, 0.0, 2022-05-06 12:34:27.150
55.0, -204.79131172364578, -53.36276251776144, -113.17124260915443, -140.61275853402913, 0.12800000607967377, 0.12800000607967377, 1.0240000486373901, 0.0, 0.0, 0.0, 0.0, 0.0, 1.651836867162753E9, 0.0, 2022-05-06 12:34:27.162
55.0, -244.04156175861135, -171.06863382318988, -166.8799458728172, -169.94853378646076, 0.12800000607967377, 0.12800000607967377, 1.0240000486373901, 0.0, 0.0, 0.0, 0.0, 0.0, 1.651836867162753E9, 0.0, 2022-05-06 12:34:27.162
56.0, -299.1340280058794, -256.7721812077798, -246.48371642967686, -223.30568645428866, 0.12800000607967377, 0.12800000607967377, 1.0240000486373901, 0.0, 0.0, 0.0, 0.0, 0.0, 1.6518368671777873E9, 0.0, 2022-05-06 12:34:27.177
56.0, -258.2120426907204, -135.31145034683868, -189.70829520234838, -195.2040781872347, 0.12800000607967377, 0.12800000607967377, 1.0240000486373901, 0.0, 0.0, 0.0, 0.0, 0.0, 1.6518368671777873E9, 0.0, 2022-05-06 12:34:27.177
57.0, -203.2990916413255, -57.499091868754476, -119.55151193356141, -153.48923408146948, 0.12800000607967377, 0.12800000607967377, 1.0240000486373901, 0.0, 0.0, 0.0, 0.0, 0.0, 1.6518368671787872E9, 0.0, 2022-05-06 12:34:27.178
57.0, -241.52460908843204, -170.38423213129863, -170.8778989254497, -186.6845860881731, 0.12800000607967377, 0.12800000607967377, 1.0240000486373901, 0.0, 0.0, 0.0, 0.0, 0.0, 1.6518368671787872E9, 0.0, 2022-05-06 12:34:27.178
58.0, -294.13752166507766, -248.32748710783198, -240.2119042039849, -220.82987268362194, 0.12800000607967377, 0.12800000607967377, 1.0240000486373901, 0.0, 0.0, 0.0, 0.0, 0.0, 1.6518368671927648E9, 0.0, 2022-05-06 12:34:27.192
58.0, -250.5452477815561, -129.43232761649415, -177.90891084214672, -171.18644067179412, 0.12800000607967377, 0.12800000607967377, 1.0240000486373901, 0.0, 0.0, 0.0, 0.0, 0.0, 1.6518368671927648E9, 0.0, 2022-05-06 12:34:27.192
59.0, -192.82737176539376, -38.71357439132407, -107.17244308022782, -136.09495938755572, 0.12800000607967377, 0.12800000607967377, 1.0240000486373901, 0.0, 0.0, 0.0, 0.0, 0.0, 1.651836867207778E9, 0.0, 2022-05-06 12:34:27.207
59.0, -241.56948788790032, -161.913358731661, -163.5028162128292, -169.32397049386054, 0.12800000607967377, 0.12800000607967377, 1.0240000486373901, 0.0, 0.0, 0.0, 0.0, 0.0, 1.651836867207778E9, 0.0, 2022-05-06 12:34:27.207
60.0, -297.1930199288763, -240.6195532991551, -230.74621741613373, -197.78460915666074, 0.12800000607967377, 0.12800000607967377, 1.0240000486373901, 0.0, 0.0, 0.0, 0.0, 0.0, 1.6518368672087207E9, 0.0, 2022-05-06 12:34:27.208
60.0, -273.8560442053713, -142.51449766149744, -194.58512474456802, -210.1337588103488, 0.12800000607967377, 0.12800000607967377, 1.0240000486373901, 0.0, 0.0, 0.0, 0.0, 0.0, 1.6518368672087207E9, 0.0, 2022-05-06 12:34:27.208
61.0, -203.20933404238895, -48.47845317563042, -111.4434088296257, -142.8417389076203, 0.12800000607967377, 0.12800000607967377, 1.0240000486373901, 0.0, 0.0, 0.0, 0.0, 0.0, 1.651836867222797E9, 0.0, 2022-05-06 12:34:27.222
61.0, -255.78110771952197, -187.09410513332114, -191.17059608502313, -198.39795274939388, 0.12800000607967377, 0.12800000607967377, 1.0240000486373901, 0.0, 0.0, 0.0, 0.0, 0.0, 1.651836867222797E9, 0.0, 2022-05-06 12:34:27.222
62.0, -312.81832194374874, -270.000207351055, -263.7396148252301, -251.91966101527214, 0.12800000607967377, 0.12800000607967377, 1.0240000486373901, 0.0, 0.0, 0.0, 0.0, 0.0, 1.6518368672377884E9, 0.0, 2022-05-06 12:34:27.237
62.0, -266.67543629044667, -153.6107808300294, -190.15334329707548, -194.49349719565362, 0.12800000607967377, 0.12800000607967377, 1.0240000486373901, 0.0, 0.0, 0.0, 0.0, 0.0, 1.6518368672377884E9, 0.0, 2022-05-06 12:34:27.237
63.0, -212.06541713746265, -65.03873017942533, -126.5226854509674, -156.69806824345142, 0.12800000607967377, 0.12800000607967377, 1.0240000486373901, 0.0, 0.0, 0.0, 0.0, 0.0, 1.651836867238716E9, 0.0, 2022-05-06 12:34:27.238
63.0, -242.6877179746516, -176.45408975938335, -177.56110014626756, -185.25220440514386, 0.12800000607967377, 0.12800000607967377, 1.0240000486373901, 0.0, 0.0, 0.0, 0.0, 0.0, 1.651836867238716E9, 0.0, 2022-05-06 12:34:27.238
64.0, -295.29315075138584, -248.80993420211598, -244.1313193575479, -222.2136356672272, 0.12800000607967377, 0.12800000607967377, 1.0240000486373901, 0.0, 0.0, 0.0, 0.0, 0.0, 1.6518368672527804E9, 0.0, 2022-05-06 12:34:27.252
64.0, -248.29008810827509, -127.69327413709834, -174.8047938789241, -182.1555672418326, 0.12800000607967377, 0.12800000607967377, 1.0240000486373901, 0.0, 0.0, 0.0, 0.0, 0.0, 1.6518368672527804E9, 0.0, 2022-05-06 12:34:27.252
